%OpenBCI Raw EEG Data
%
%Sample Rate = 250.0 Hz
%First Column = SampleIndex
%Last Column = Timestamp 
%Other Columns = EEG data in microvolts followed by Accel Data (in G) interleaved with Aux Data
0, 0.00, 0.00, 0.00, 0.00, 0.00, 0.00, 0.00, 0.00, 0.000, 0.000, 0.000, 13:34:01.639
1, 35795.56, 71667.49, -187500.02, -187500.02, -187500.02, -187500.02, -187500.02, 187500.00, 0.360, 0.944, -0.100, 13:34:01.653
2, 34950.86, 70963.99, -187500.02, -187500.02, -187500.02, -187500.02, -187500.02, 187500.00, 0.000, 0.000, 0.000, 13:34:02.131
3, 35012.42, 71005.79, -187500.02, -187500.02, -187500.02, -187500.02, -187500.02, 187500.00, 0.000, 0.000, 0.000, 13:34:02.132
4, 35701.23, 71589.69, -187500.02, -187500.02, -187500.02, -187500.02, -187500.02, 187500.00, 0.000, 0.000, 0.000, 13:34:02.132
5, 35940.08, 71786.52, -187500.02, -187500.02, -187500.02, -187500.02, -187500.02, 187500.00, 0.000, 0.000, 0.000, 13:34:02.132
6, 35043.60, 71039.07, -187500.02, -187500.02, -187500.02, -187500.02, -187500.02, 187500.00, 0.000, 0.000, 0.000, 13:34:02.132
7, 34953.79, 70955.63, -187500.02, -187500.02, -187500.02, -187500.02, -187500.02, 187500.00, 0.000, 0.000, 0.000, 13:34:02.133
8, 35567.28, 71481.88, -187500.02, -187500.02, -187500.02, -187500.02, -187500.02, 187500.00, 0.332, 0.964, -0.084, 13:34:02.133
9, 36042.84, 71864.68, -187500.02, -187500.02, -187500.02, -187500.02, -187500.02, 187500.00, 0.000, 0.000, 0.000, 13:34:02.133
10, 35167.47, 71144.10, -187500.02, -187500.02, -187500.02, -187500.02, -187500.02, 187500.00, 0.000, 0.000, 0.000, 13:34:02.133
11, 34909.54, 70911.60, -187500.02, -187500.02, -187500.02, -187500.02, -187500.02, 187500.00, 0.000, 0.000, 0.000, 13:34:02.134
12, 35426.42, 71337.76, -187500.02, -187500.02, -187500.02, -187500.02, -187500.02, 187500.00, 0.000, 0.000, 0.000, 13:34:02.134
13, 36075.94, 71874.58, -187500.02, -187500.02, -187500.02, -187500.02, -187500.02, 187500.00, 0.000, 0.000, 0.000, 13:34:02.134
14, 35344.61, 71279.35, -187500.02, -187500.02, -187500.02, -187500.02, -187500.02, 187500.00, 0.000, 0.000, 0.000, 13:34:02.134
15, 34893.42, 70898.97, -187500.02, -187500.02, -187500.02, -187500.02, -187500.02, 187500.00, 0.000, 0.000, 0.000, 13:34:02.134
16, 35298.81, 71235.97, -187500.02, -187500.02, -187500.02, -187500.02, -187500.02, 187500.00, 0.000, 0.000, 0.000, 13:34:02.135
17, 36059.58, 71863.76, -187500.02, -187500.02, -187500.02, -187500.02, -187500.02, 187500.00, 0.318, 0.970, -0.078, 13:34:02.135
18, 35539.56, 71435.57, -187500.02, -187500.02, -187500.02, -187500.02, -187500.02, 187500.00, 0.000, 0.000, 0.000, 13:34:02.135
19, 34902.56, 70906.73, -187500.02, -187500.02, -187500.02, -187500.02, -187500.02, 187500.00, 0.000, 0.000, 0.000, 13:34:02.135
20, 35179.52, 71130.18, -187500.02, -187500.02, -187500.02, -187500.02, -187500.02, 187500.00, 0.000, 0.000, 0.000, 13:34:02.135
21, 35956.11, 71774.65, -187500.02, -187500.02, -187500.02, -187500.02, -187500.02, 187500.00, 0.000, 0.000, 0.000, 13:34:02.136
22, 35697.43, 71576.72, -187500.02, -187500.02, -187500.02, -187500.02, -187500.02, 187500.00, 0.000, 0.000, 0.000, 13:34:02.136
23, 34914.88, 70928.59, -187500.02, -187500.02, -187500.02, -187500.02, -187500.02, 187500.00, 0.000, 0.000, 0.000, 13:34:02.136
24, 35094.09, 71056.02, -187500.02, -187500.02, -187500.02, -187500.02, -187500.02, 187500.00, 0.000, 0.000, 0.000, 13:34:02.136
25, 35848.93, 71694.54, -187500.02, -187500.02, -187500.02, -187500.02, -187500.02, 187500.00, 0.000, 0.000, 0.000, 13:34:02.137
26, 35866.50, 71714.83, -187500.02, -187500.02, -187500.02, -187500.02, -187500.02, 187500.00, 0.000, 0.000, 0.000, 13:34:02.137
27, 34977.59, 70973.91, -187500.02, -187500.02, -187500.02, -187500.02, -187500.02, 187500.00, 0.310, 0.970, -0.074, 13:34:02.137
28, 34991.95, 70984.51, -187500.02, -187500.02, -187500.02, -187500.02, -187500.02, 187500.00, 0.000, 0.000, 0.000, 13:34:02.137
29, 35676.69, 71565.37, -187500.02, -187500.02, -187500.02, -187500.02, -187500.02, 187500.00, 0.000, 0.000, 0.000, 13:34:02.137
30, 35990.51, 71811.64, -187500.02, -187500.02, -187500.02, -187500.02, -187500.02, 187500.00, 0.000, 0.000, 0.000, 13:34:02.138
31, 35100.13, 71057.73, -187500.02, -187500.02, -187500.02, -187500.02, -187500.02, 187500.00, 0.000, 0.000, 0.000, 13:34:02.138
32, 34972.59, 70935.18, -187500.02, -187500.02, -187500.02, -187500.02, -187500.02, 187500.00, 0.000, 0.000, 0.000, 13:34:02.138
33, 35549.22, 71435.48, -187500.02, -187500.02, -187500.02, -187500.02, -187500.02, 187500.00, 0.000, 0.000, 0.000, 13:34:02.138
34, 36066.41, 71868.91, -187500.02, -187500.02, -187500.02, -187500.02, -187500.02, 187500.00, 0.000, 0.000, 0.000, 13:34:02.138
35, 35239.45, 71185.74, -187500.02, -187500.02, -187500.02, -187500.02, -187500.02, 187500.00, 0.000, 0.000, 0.000, 13:34:02.139
36, 34911.77, 70904.20, -187500.02, -187500.02, -187500.02, -187500.02, -187500.02, 187500.00, 0.000, 0.000, 0.000, 13:34:02.139
37, 35382.65, 71292.67, -187500.02, -187500.02, -187500.02, -187500.02, -187500.02, 187500.00, 0.304, 0.974, -0.072, 13:34:02.139
38, 36083.38, 71874.70, -187500.02, -187500.02, -187500.02, -187500.02, -187500.02, 187500.00, 0.000, 0.000, 0.000, 13:34:02.139
39, 35430.40, 71329.45, -187500.02, -187500.02, -187500.02, -187500.02, -187500.02, 187500.00, 0.000, 0.000, 0.000, 13:34:02.139
40, 34918.79, 70900.06, -187500.02, -187500.02, -187500.02, -187500.02, -187500.02, 187500.00, 0.000, 0.000, 0.000, 13:34:02.139
41, 35262.09, 71200.23, -187500.02, -187500.02, -187500.02, -187500.02, -187500.02, 187500.00, 0.000, 0.000, 0.000, 13:34:02.139
42, 36029.04, 71840.59, -187500.02, -187500.02, -187500.02, -187500.02, -187500.02, 187500.00, 0.000, 0.000, 0.000, 13:34:02.139
43, 35599.09, 71473.91, -187500.02, -187500.02, -187500.02, -187500.02, -187500.02, 187500.00, 0.000, 0.000, 0.000, 13:34:02.140
44, 34922.32, 70906.64, -187500.02, -187500.02, -187500.02, -187500.02, -187500.02, 187500.00, 0.000, 0.000, 0.000, 13:34:02.140
45, 35166.47, 71113.01, -187500.02, -187500.02, -187500.02, -187500.02, -187500.02, 187500.00, 0.000, 0.000, 0.000, 13:34:02.140
46, 35938.65, 71767.63, -187500.02, -187500.02, -187500.02, -187500.02, -187500.02, 187500.00, 0.000, 0.000, 0.000, 13:34:02.140
47, 35762.01, 71624.89, -187500.02, -187500.02, -187500.02, -187500.02, -187500.02, 187500.00, 0.304, 0.974, -0.070, 13:34:02.140
48, 34946.50, 70939.61, -187500.02, -187500.02, -187500.02, -187500.02, -187500.02, 187500.00, 0.000, 0.000, 0.000, 13:34:02.140
49, 35070.18, 71042.88, -187500.02, -187500.02, -187500.02, -187500.02, -187500.02, 187500.00, 0.000, 0.000, 0.000, 13:34:02.140
50, 35807.02, 71668.48, -187500.02, -187500.02, -187500.02, -187500.02, -187500.02, 187500.00, 0.000, 0.000, 0.000, 13:34:02.141
51, 35915.21, 71752.80, -187500.02, -187500.02, -187500.02, -187500.02, -187500.02, 187500.00, 0.000, 0.000, 0.000, 13:34:02.141
52, 35018.81, 71008.49, -187500.02, -187500.02, -187500.02, -187500.02, -187500.02, 187500.00, 0.000, 0.000, 0.000, 13:34:02.141
53, 34982.85, 70977.60, -187500.02, -187500.02, -187500.02, -187500.02, -187500.02, 187500.00, 0.000, 0.000, 0.000, 13:34:02.141
54, 35640.23, 71535.99, -187500.02, -187500.02, -187500.02, -187500.02, -187500.02, 187500.00, 0.000, 0.000, 0.000, 13:34:02.141
55, 35996.10, 71845.39, -187500.02, -187500.02, -187500.02, -187500.02, -187500.02, 187500.00, 0.000, 0.000, 0.000, 13:34:02.141
56, 35118.41, 71114.17, -187500.02, -187500.02, -187500.02, -187500.02, -187500.02, 187500.00, 0.000, 0.000, 0.000, 13:34:02.142
57, 34955.85, 70944.16, -187500.02, -187500.02, -187500.02, -187500.02, -187500.02, 187500.00, 0.298, 0.976, -0.070, 13:34:02.142
58, 35526.62, 71404.73, -187500.02, -187500.02, -187500.02, -187500.02, -187500.02, 187500.00, 0.000, 0.000, 0.000, 13:34:02.142
59, 36098.36, 71878.67, -187500.02, -187500.02, -187500.02, -187500.02, -187500.02, 187500.00, 0.000, 0.000, 0.000, 13:34:02.142
60, 35305.47, 71228.39, -187500.02, -187500.02, -187500.02, -187500.02, -187500.02, 187500.00, 0.000, 0.000, 0.000, 13:34:02.142
61, 34941.95, 70908.98, -187500.02, -187500.02, -187500.02, -187500.02, -187500.02, 187500.00, 0.000, 0.000, 0.000, 13:34:02.143
62, 35373.45, 71275.73, -187500.02, -187500.02, -187500.02, -187500.02, -187500.02, 187500.00, 0.000, 0.000, 0.000, 13:34:02.143
63, 36080.74, 71879.23, -187500.02, -187500.02, -187500.02, -187500.02, -187500.02, 187500.00, 0.000, 0.000, 0.000, 13:34:02.143
64, 35446.80, 71385.34, -187500.02, -187500.02, -187500.02, -187500.02, -187500.02, 187500.00, 0.000, 0.000, 0.000, 13:34:02.146
65, 34907.97, 70915.69, -187500.02, -187500.02, -187500.02, -187500.02, -187500.02, 187500.00, 0.000, 0.000, 0.000, 13:34:02.147
66, 35252.72, 71207.67, -187500.02, -187500.02, -187500.02, -187500.02, -187500.02, 187500.00, 0.000, 0.000, 0.000, 13:34:02.147
67, 36026.18, 71856.20, -187500.02, -187500.02, -187500.02, -187500.02, -187500.02, 187500.00, 0.302, 0.968, -0.074, 13:34:02.148
68, 35650.67, 71537.31, -187500.02, -187500.02, -187500.02, -187500.02, -187500.02, 187500.00, 0.000, 0.000, 0.000, 13:34:02.148
69, 34944.85, 70942.11, -187500.02, -187500.02, -187500.02, -187500.02, -187500.02, 187500.00, 0.000, 0.000, 0.000, 13:34:02.148
70, 35169.04, 71121.86, -187500.02, -187500.02, -187500.02, -187500.02, -187500.02, 187500.00, 0.000, 0.000, 0.000, 13:34:02.148
71, 35936.11, 71769.28, -187500.02, -187500.02, -187500.02, -187500.02, -187500.02, 187500.00, 0.000, 0.000, 0.000, 13:34:02.148
72, 35835.21, 71682.34, -187500.02, -187500.02, -187500.02, -187500.02, -187500.02, 187500.00, 0.000, 0.000, 0.000, 13:34:02.149
73, 34974.80, 70963.26, -187500.02, -187500.02, -187500.02, -187500.02, -187500.02, 187500.00, 0.000, 0.000, 0.000, 13:34:02.149
74, 35056.00, 71022.42, -187500.02, -187500.02, -187500.02, -187500.02, -187500.02, 187500.00, 0.000, 0.000, 0.000, 13:34:02.149
75, 35774.48, 71623.75, -187500.02, -187500.02, -187500.02, -187500.02, -187500.02, 187500.00, 0.000, 0.000, 0.000, 13:34:02.149
76, 35972.58, 71791.41, -187500.02, -187500.02, -187500.02, -187500.02, -187500.02, 187500.00, 0.000, 0.000, 0.000, 13:34:02.149
77, 35081.87, 71055.34, -187500.02, -187500.02, -187500.02, -187500.02, -187500.02, 187500.00, 0.296, 0.970, -0.072, 13:34:02.149
78, 35008.89, 70984.65, -187500.02, -187500.02, -187500.02, -187500.02, -187500.02, 187500.00, 0.000, 0.000, 0.000, 13:34:02.149
79, 35636.86, 71517.55, -187500.02, -187500.02, -187500.02, -187500.02, -187500.02, 187500.00, 0.000, 0.000, 0.000, 13:34:02.150
80, 36072.96, 71876.57, -187500.02, -187500.02, -187500.02, -187500.02, -187500.02, 187500.00, 0.000, 0.000, 0.000, 13:34:02.150
81, 35195.50, 71154.07, -187500.02, -187500.02, -187500.02, -187500.02, -187500.02, 187500.00, 0.000, 0.000, 0.000, 13:34:02.150
82, 34952.11, 70935.70, -187500.02, -187500.02, -187500.02, -187500.02, -187500.02, 187500.00, 0.000, 0.000, 0.000, 13:34:02.150
83, 35484.64, 71382.22, -187500.02, -187500.02, -187500.02, -187500.02, -187500.02, 187500.00, 0.000, 0.000, 0.000, 13:34:02.150
84, 36103.25, 71902.61, -187500.02, -187500.02, -187500.02, -187500.02, -187500.02, 187500.00, 0.000, 0.000, 0.000, 13:34:02.150
85, 35333.55, 71284.85, -187500.02, -187500.02, -187500.02, -187500.02, -187500.02, 187500.00, 0.000, 0.000, 0.000, 13:34:02.150
86, 34899.90, 70917.19, -187500.02, -187500.02, -187500.02, -187500.02, -187500.02, 187500.00, 0.302, 0.974, -0.070, 13:34:02.151
87, 35326.80, 71266.73, -187500.02, -187500.02, -187500.02, -187500.02, -187500.02, 187500.00, 0.000, 0.000, 0.000, 13:34:02.151
88, 36085.86, 71888.55, -187500.02, -187500.02, -187500.02, -187500.02, -187500.02, 187500.00, 0.000, 0.000, 0.000, 13:34:02.151
89, 35541.08, 71439.73, -187500.02, -187500.02, -187500.02, -187500.02, -187500.02, 187500.00, 0.000, 0.000, 0.000, 13:34:02.151
90, 34938.10, 70928.48, -187500.02, -187500.02, -187500.02, -187500.02, -187500.02, 187500.00, 0.000, 0.000, 0.000, 13:34:02.151
91, 35238.11, 71167.68, -187500.02, -187500.02, -187500.02, -187500.02, -187500.02, 187500.00, 0.000, 0.000, 0.000, 13:34:02.151
92, 36021.62, 71825.00, -187500.02, -187500.02, -187500.02, -187500.02, -187500.02, 187500.00, 0.000, 0.000, 0.000, 13:34:02.151
93, 35721.68, 71579.36, -187500.02, -187500.02, -187500.02, -187500.02, -187500.02, 187500.00, 0.000, 0.000, 0.000, 13:34:02.152
94, 34932.04, 70935.29, -187500.02, -187500.02, -187500.02, -187500.02, -187500.02, 187500.00, 0.000, 0.000, 0.000, 13:34:02.152
95, 35096.98, 71084.20, -187500.02, -187500.02, -187500.02, -187500.02, -187500.02, 187500.00, 0.000, 0.000, 0.000, 13:34:02.152
96, 35885.75, 71734.45, -187500.02, -187500.02, -187500.02, -187500.02, -187500.02, 187500.00, 0.302, 0.982, -0.068, 13:34:02.152
97, 35873.39, 71714.74, -187500.02, -187500.02, -187500.02, -187500.02, -187500.02, 187500.00, 0.000, 0.000, 0.000, 13:34:02.152
98, 35011.82, 70995.80, -187500.02, -187500.02, -187500.02, -187500.02, -187500.02, 187500.00, 0.000, 0.000, 0.000, 13:34:02.153
99, 35065.62, 71028.73, -187500.02, -187500.02, -187500.02, -187500.02, -187500.02, 187500.00, 0.000, 0.000, 0.000, 13:34:02.153
100, 35764.42, 71616.30, -187500.02, -187500.02, -187500.02, -187500.02, -187500.02, 187500.00, 0.000, 0.000, 0.000, 13:34:02.153
101, 36016.28, 71832.88, -187500.02, -187500.02, -187500.02, -187500.02, -187500.02, 187500.00, 0.000, 0.000, 0.000, 13:34:02.153
102, 35110.10, 71080.35, -187500.02, -187500.02, -187500.02, -187500.02, -187500.02, 187500.00, 0.000, 0.000, 0.000, 13:34:02.153
103, 34990.76, 70965.31, -187500.02, -187500.02, -187500.02, -187500.02, -187500.02, 187500.00, 0.000, 0.000, 0.000, 13:34:02.154
104, 35586.01, 71481.10, -187500.02, -187500.02, -187500.02, -187500.02, -187500.02, 187500.00, 0.000, 0.000, 0.000, 13:34:02.154
105, 36070.55, 71903.21, -187500.02, -187500.02, -187500.02, -187500.02, -187500.02, 187500.00, 0.000, 0.000, 0.000, 13:34:02.154
106, 35214.55, 71188.98, -187500.02, -187500.02, -187500.02, -187500.02, -187500.02, 187500.00, 0.302, 0.976, -0.066, 13:34:02.154
107, 34938.52, 70924.20, -187500.02, -187500.02, -187500.02, -187500.02, -187500.02, 187500.00, 0.000, 0.000, 0.000, 13:34:02.154
108, 35428.72, 71338.25, -187500.02, -187500.02, -187500.02, -187500.02, -187500.02, 187500.00, 0.000, 0.000, 0.000, 13:34:02.154
109, 36086.98, 71903.95, -187500.02, -187500.02, -187500.02, -187500.02, -187500.02, 187500.00, 0.000, 0.000, 0.000, 13:34:02.155
110, 35383.91, 71322.38, -187500.02, -187500.02, -187500.02, -187500.02, -187500.02, 187500.00, 0.000, 0.000, 0.000, 13:34:02.155
111, 34917.87, 70923.00, -187500.02, -187500.02, -187500.02, -187500.02, -187500.02, 187500.00, 0.000, 0.000, 0.000, 13:34:02.155
112, 35308.67, 71256.20, -187500.02, -187500.02, -187500.02, -187500.02, -187500.02, 187500.00, 0.000, 0.000, 0.000, 13:34:02.155
113, 36067.96, 71881.22, -187500.02, -187500.02, -187500.02, -187500.02, -187500.02, 187500.00, 0.000, 0.000, 0.000, 13:34:02.155
114, 35589.52, 71483.40, -187500.02, -187500.02, -187500.02, -187500.02, -187500.02, 187500.00, 0.000, 0.000, 0.000, 13:34:02.155
115, 34928.15, 70939.31, -187500.02, -187500.02, -187500.02, -187500.02, -187500.02, 187500.00, 0.000, 0.000, 0.000, 13:34:02.156
116, 35189.56, 71158.09, -187500.02, -187500.02, -187500.02, -187500.02, -187500.02, 187500.00, 0.304, 0.964, -0.070, 13:34:02.156
117, 35975.60, 71801.58, -187500.02, -187500.02, -187500.02, -187500.02, -187500.02, 187500.00, 0.000, 0.000, 0.000, 13:34:02.156
118, 35747.16, 71619.99, -187500.02, -187500.02, -187500.02, -187500.02, -187500.02, 187500.00, 0.000, 0.000, 0.000, 13:34:02.156
119, 34950.77, 70965.94, -187500.02, -187500.02, -187500.02, -187500.02, -187500.02, 187500.00, 0.000, 0.000, 0.000, 13:34:02.156
120, 35093.04, 71070.56, -187500.02, -187500.02, -187500.02, -187500.02, -187500.02, 187500.00, 0.000, 0.000, 0.000, 13:34:02.156
121, 35848.31, 71702.38, -187500.02, -187500.02, -187500.02, -187500.02, -187500.02, 187500.00, 0.000, 0.000, 0.000, 13:34:02.157
122, 35927.50, 71766.22, -187500.02, -187500.02, -187500.02, -187500.02, -187500.02, 187500.00, 0.000, 0.000, 0.000, 13:34:02.610
123, 35031.26, 71024.70, -187500.02, -187500.02, -187500.02, -187500.02, -187500.02, 187500.00, 0.000, 0.000, 0.000, 13:34:02.611
124, 35021.29, 71017.57, -187500.02, -187500.02, -187500.02, -187500.02, -187500.02, 187500.00, 0.000, 0.000, 0.000, 13:34:02.611
125, 35687.15, 71583.38, -187500.02, -187500.02, -187500.02, -187500.02, -187500.02, 187500.00, 0.000, 0.000, 0.000, 13:34:02.611
126, 36004.95, 71857.28, -187500.02, -187500.02, -187500.02, -187500.02, -187500.02, 187500.00, 0.304, 0.968, -0.066, 13:34:02.612
127, 35105.27, 71115.63, -187500.02, -187500.02, -187500.02, -187500.02, -187500.02, 187500.00, 0.000, 0.000, 0.000, 13:34:02.613
128, 34960.54, 70964.02, -187500.02, -187500.02, -187500.02, -187500.02, -187500.02, 187500.00, 0.000, 0.000, 0.000, 13:34:02.614
129, 35536.72, 71449.80, -187500.02, -187500.02, -187500.02, -187500.02, -187500.02, 187500.00, 0.000, 0.000, 0.000, 13:34:02.614
130, 36079.27, 71898.38, -187500.02, -187500.02, -187500.02, -187500.02, -187500.02, 187500.00, 0.000, 0.000, 0.000, 13:34:02.614
131, 35265.35, 71232.73, -187500.02, -187500.02, -187500.02, -187500.02, -187500.02, 187500.00, 0.000, 0.000, 0.000, 13:34:02.615
132, 34913.13, 70926.55, -187500.02, -187500.02, -187500.02, -187500.02, -187500.02, 187500.00, 0.000, 0.000, 0.000, 13:34:02.615
133, 35382.18, 71321.35, -187500.02, -187500.02, -187500.02, -187500.02, -187500.02, 187500.00, 0.000, 0.000, 0.000, 13:34:02.615
134, 36098.94, 71913.38, -187500.02, -187500.02, -187500.02, -187500.02, -187500.02, 187500.00, 0.000, 0.000, 0.000, 13:34:02.615
135, 35437.41, 71375.91, -187500.02, -187500.02, -187500.02, -187500.02, -187500.02, 187500.00, 0.000, 0.000, 0.000, 13:34:02.616
136, 34902.27, 70928.43, -187500.02, -187500.02, -187500.02, -187500.02, -187500.02, 187500.00, 0.302, 0.972, -0.062, 13:34:02.616
137, 35250.80, 71211.25, -187500.02, -187500.02, -187500.02, -187500.02, -187500.02, 187500.00, 0.000, 0.000, 0.000, 13:34:02.616
138, 36030.63, 71856.03, -187500.02, -187500.02, -187500.02, -187500.02, -187500.02, 187500.00, 0.000, 0.000, 0.000, 13:34:02.616
139, 35609.43, 71522.88, -187500.02, -187500.02, -187500.02, -187500.02, -187500.02, 187500.00, 0.000, 0.000, 0.000, 13:34:02.617
140, 34903.84, 70949.82, -187500.02, -187500.02, -187500.02, -187500.02, -187500.02, 187500.00, 0.000, 0.000, 0.000, 13:34:02.617
141, 35156.70, 71139.37, -187500.02, -187500.02, -187500.02, -187500.02, -187500.02, 187500.00, 0.000, 0.000, 0.000, 13:34:02.617
142, 35952.76, 71788.19, -187500.02, -187500.02, -187500.02, -187500.02, -187500.02, 187500.00, 0.000, 0.000, 0.000, 13:34:02.617
143, 35813.64, 71677.68, -187500.02, -187500.02, -187500.02, -187500.02, -187500.02, 187500.00, 0.000, 0.000, 0.000, 13:34:02.618
144, 34975.07, 70991.87, -187500.02, -187500.02, -187500.02, -187500.02, -187500.02, 187500.00, 0.000, 0.000, 0.000, 13:34:02.618
145, 35072.30, 71065.98, -187500.02, -187500.02, -187500.02, -187500.02, -187500.02, 187500.00, 0.300, 0.968, -0.072, 13:34:02.618
146, 35790.21, 71672.21, -187500.02, -187500.02, -187500.02, -187500.02, -187500.02, 187500.00, 0.000, 0.000, 0.000, 13:34:02.619
147, 35929.49, 71788.21, -187500.02, -187500.02, -187500.02, -187500.02, -187500.02, 187500.00, 0.000, 0.000, 0.000, 13:34:02.619
148, 35043.31, 71050.52, -187500.02, -187500.02, -187500.02, -187500.02, -187500.02, 187500.00, 0.000, 0.000, 0.000, 13:34:02.619
149, 35012.87, 71007.38, -187500.02, -187500.02, -187500.02, -187500.02, -187500.02, 187500.00, 0.000, 0.000, 0.000, 13:34:02.619
150, 35656.98, 71544.51, -187500.02, -187500.02, -187500.02, -187500.02, -187500.02, 187500.00, 0.000, 0.000, 0.000, 13:34:02.619
151, 36050.10, 71861.77, -187500.02, -187500.02, -187500.02, -187500.02, -187500.02, 187500.00, 0.000, 0.000, 0.000, 13:34:02.620
152, 35161.35, 71135.34, -187500.02, -187500.02, -187500.02, -187500.02, -187500.02, 187500.00, 0.000, 0.000, 0.000, 13:34:02.620
153, 34940.96, 70957.42, -187500.02, -187500.02, -187500.02, -187500.02, -187500.02, 187500.00, 0.000, 0.000, 0.000, 13:34:02.620
154, 35486.81, 71421.55, -187500.02, -187500.02, -187500.02, -187500.02, -187500.02, 187500.00, 0.000, 0.000, 0.000, 13:34:02.620
155, 36086.64, 71909.47, -187500.02, -187500.02, -187500.02, -187500.02, -187500.02, 187500.00, 0.302, 0.974, -0.072, 13:34:02.620
156, 35292.64, 71257.85, -187500.02, -187500.02, -187500.02, -187500.02, -187500.02, 187500.00, 0.000, 0.000, 0.000, 13:34:02.621
157, 34912.57, 70927.63, -187500.02, -187500.02, -187500.02, -187500.02, -187500.02, 187500.00, 0.000, 0.000, 0.000, 13:34:02.621
158, 35337.01, 71293.75, -187500.02, -187500.02, -187500.02, -187500.02, -187500.02, 187500.00, 0.000, 0.000, 0.000, 13:34:02.621
159, 36065.48, 71898.05, -187500.02, -187500.02, -187500.02, -187500.02, -187500.02, 187500.00, 0.000, 0.000, 0.000, 13:34:02.621
160, 35486.01, 71409.22, -187500.02, -187500.02, -187500.02, -187500.02, -187500.02, 187500.00, 0.000, 0.000, 0.000, 13:34:02.621
161, 34912.73, 70929.34, -187500.02, -187500.02, -187500.02, -187500.02, -187500.02, 187500.00, 0.000, 0.000, 0.000, 13:34:02.622
162, 35248.66, 71201.39, -187500.02, -187500.02, -187500.02, -187500.02, -187500.02, 187500.00, 0.000, 0.000, 0.000, 13:34:02.622
163, 36036.66, 71849.32, -187500.02, -187500.02, -187500.02, -187500.02, -187500.02, 187500.00, 0.000, 0.000, 0.000, 13:34:02.622
164, 35683.22, 71559.58, -187500.02, -187500.02, -187500.02, -187500.02, -187500.02, 187500.00, 0.000, 0.000, 0.000, 13:34:02.622
165, 34928.89, 70943.18, -187500.02, -187500.02, -187500.02, -187500.02, -187500.02, 187500.00, 0.302, 0.978, -0.070, 13:34:02.622
166, 35129.77, 71113.84, -187500.02, -187500.02, -187500.02, -187500.02, -187500.02, 187500.00, 0.000, 0.000, 0.000, 13:34:02.622
167, 35900.63, 71756.07, -187500.02, -187500.02, -187500.02, -187500.02, -187500.02, 187500.00, 0.000, 0.000, 0.000, 13:34:02.623
168, 35850.27, 71706.72, -187500.02, -187500.02, -187500.02, -187500.02, -187500.02, 187500.00, 0.000, 0.000, 0.000, 13:34:02.623
169, 34995.39, 70999.04, -187500.02, -187500.02, -187500.02, -187500.02, -187500.02, 187500.00, 0.000, 0.000, 0.000, 13:34:02.623
170, 35059.45, 71045.87, -187500.02, -187500.02, -187500.02, -187500.02, -187500.02, 187500.00, 0.000, 0.000, 0.000, 13:34:02.623
171, 35766.46, 71636.73, -187500.02, -187500.02, -187500.02, -187500.02, -187500.02, 187500.00, 0.000, 0.000, 0.000, 13:34:02.623
172, 35986.38, 71821.70, -187500.02, -187500.02, -187500.02, -187500.02, -187500.02, 187500.00, 0.000, 0.000, 0.000, 13:34:02.624
173, 35076.52, 71078.61, -187500.02, -187500.02, -187500.02, -187500.02, -187500.02, 187500.00, 0.000, 0.000, 0.000, 13:34:02.624
174, 34980.25, 70998.62, -187500.02, -187500.02, -187500.02, -187500.02, -187500.02, 187500.00, 0.000, 0.000, 0.000, 13:34:02.624
175, 35602.44, 71521.31, -187500.02, -187500.02, -187500.02, -187500.02, -187500.02, 187500.00, 0.304, 0.980, -0.066, 13:34:02.624
176, 36064.07, 71890.00, -187500.02, -187500.02, -187500.02, -187500.02, -187500.02, 187500.00, 0.000, 0.000, 0.000, 13:34:02.624
177, 35195.10, 71176.73, -187500.02, -187500.02, -187500.02, -187500.02, -187500.02, 187500.00, 0.000, 0.000, 0.000, 13:34:02.624
178, 34947.98, 70959.39, -187500.02, -187500.02, -187500.02, -187500.02, -187500.02, 187500.00, 0.000, 0.000, 0.000, 13:34:02.625
179, 35454.40, 71395.90, -187500.02, -187500.02, -187500.02, -187500.02, -187500.02, 187500.00, 0.000, 0.000, 0.000, 13:34:02.625
180, 36090.60, 71930.64, -187500.02, -187500.02, -187500.02, -187500.02, -187500.02, 187500.00, 0.000, 0.000, 0.000, 13:34:02.625
181, 35358.60, 71323.19, -187500.02, -187500.02, -187500.02, -187500.02, -187500.02, 187500.00, 0.000, 0.000, 0.000, 13:34:02.625
182, 34914.38, 70938.58, -187500.02, -187500.02, -187500.02, -187500.02, -187500.02, 187500.00, 0.000, 0.000, 0.000, 13:34:02.625
183, 35312.25, 71280.38, -187500.02, -187500.02, -187500.02, -187500.02, -187500.02, 187500.00, 0.000, 0.000, 0.000, 13:34:02.625
184, 36067.33, 71908.20, -187500.02, -187500.02, -187500.02, -187500.02, -187500.02, 187500.00, 0.000, 0.000, 0.000, 13:34:02.626
185, 35536.68, 71473.26, -187500.02, -187500.02, -187500.02, -187500.02, -187500.02, 187500.00, 0.300, 0.976, -0.068, 13:34:02.626
186, 34902.67, 70950.05, -187500.02, -187500.02, -187500.02, -187500.02, -187500.02, 187500.00, 0.000, 0.000, 0.000, 13:34:02.626
187, 35206.21, 71180.67, -187500.02, -187500.02, -187500.02, -187500.02, -187500.02, 187500.00, 0.000, 0.000, 0.000, 13:34:02.626
188, 35996.32, 71833.72, -187500.02, -187500.02, -187500.02, -187500.02, -187500.02, 187500.00, 0.000, 0.000, 0.000, 13:34:02.627
189, 35719.70, 71618.25, -187500.02, -187500.02, -187500.02, -187500.02, -187500.02, 187500.00, 0.000, 0.000, 0.000, 13:34:02.628
190, 34939.33, 70969.05, -187500.02, -187500.02, -187500.02, -187500.02, -187500.02, 187500.00, 0.000, 0.000, 0.000, 13:34:02.628
191, 35110.97, 71102.98, -187500.02, -187500.02, -187500.02, -187500.02, -187500.02, 187500.00, 0.000, 0.000, 0.000, 13:34:02.628
192, 35870.17, 71737.27, -187500.02, -187500.02, -187500.02, -187500.02, -187500.02, 187500.00, 0.000, 0.000, 0.000, 13:34:02.629
193, 35879.82, 71752.63, -187500.02, -187500.02, -187500.02, -187500.02, -187500.02, 187500.00, 0.000, 0.000, 0.000, 13:34:02.629
194, 35009.07, 71029.21, -187500.02, -187500.02, -187500.02, -187500.02, -187500.02, 187500.00, 0.000, 0.000, 0.000, 13:34:02.629
195, 35036.22, 71036.44, -187500.02, -187500.02, -187500.02, -187500.02, -187500.02, 187500.00, 0.298, 0.976, -0.072, 13:34:02.629
196, 35733.31, 71612.84, -187500.02, -187500.02, -187500.02, -187500.02, -187500.02, 187500.00, 0.000, 0.000, 0.000, 13:34:02.629
197, 36016.62, 71843.80, -187500.02, -187500.02, -187500.02, -187500.02, -187500.02, 187500.00, 0.000, 0.000, 0.000, 13:34:02.630
198, 35106.05, 71107.89, -187500.02, -187500.02, -187500.02, -187500.02, -187500.02, 187500.00, 0.000, 0.000, 0.000, 13:34:02.630
199, 34974.80, 70988.71, -187500.02, -187500.02, -187500.02, -187500.02, -187500.02, 187500.00, 0.000, 0.000, 0.000, 13:34:02.630
200, 35575.66, 71486.62, -187500.02, -187500.02, -187500.02, -187500.02, -187500.02, 187500.00, 0.000, 0.000, 0.000, 13:34:02.631
201, 36086.00, 71918.48, -187500.02, -187500.02, -187500.02, -187500.02, -187500.02, 187500.00, 0.000, 0.000, 0.000, 13:34:02.631
202, 35239.96, 71237.87, -187500.02, -187500.02, -187500.02, -187500.02, -187500.02, 187500.00, 0.000, 0.000, 0.000, 13:34:02.631
203, 34933.88, 70973.18, -187500.02, -187500.02, -187500.02, -187500.02, -187500.02, 187500.00, 0.000, 0.000, 0.000, 13:34:02.631
204, 35417.93, 71376.00, -187500.02, -187500.02, -187500.02, -187500.02, -187500.02, 187500.00, 0.000, 0.000, 0.000, 13:34:02.632
205, 36097.80, 71927.66, -187500.02, -187500.02, -187500.02, -187500.02, -187500.02, 187500.00, 0.298, 0.976, -0.068, 13:34:02.632
206, 35402.12, 71347.33, -187500.02, -187500.02, -187500.02, -187500.02, -187500.02, 187500.00, 0.000, 0.000, 0.000, 13:34:02.632
207, 34903.28, 70939.36, -187500.02, -187500.02, -187500.02, -187500.02, -187500.02, 187500.00, 0.000, 0.000, 0.000, 13:34:02.632
208, 35275.39, 71265.12, -187500.02, -187500.02, -187500.02, -187500.02, -187500.02, 187500.00, 0.000, 0.000, 0.000, 13:34:02.632
209, 36048.00, 71907.93, -187500.02, -187500.02, -187500.02, -187500.02, -187500.02, 187500.00, 0.000, 0.000, 0.000, 13:34:02.633
210, 35588.02, 71529.85, -187500.02, -187500.02, -187500.02, -187500.02, -187500.02, 187500.00, 0.000, 0.000, 0.000, 13:34:02.633
211, 34921.20, 70964.26, -187500.02, -187500.02, -187500.02, -187500.02, -187500.02, 187500.00, 0.000, 0.000, 0.000, 13:34:02.633
212, 35166.16, 71162.79, -187500.02, -187500.02, -187500.02, -187500.02, -187500.02, 187500.00, 0.000, 0.000, 0.000, 13:34:02.633
213, 35933.22, 71812.27, -187500.02, -187500.02, -187500.02, -187500.02, -187500.02, 187500.00, 0.000, 0.000, 0.000, 13:34:02.634
214, 35752.53, 71668.12, -187500.02, -187500.02, -187500.02, -187500.02, -187500.02, 187500.00, 0.302, 0.978, -0.062, 13:34:02.634
215, 34946.44, 70996.91, -187500.02, -187500.02, -187500.02, -187500.02, -187500.02, 187500.00, 0.000, 0.000, 0.000, 13:34:02.634
216, 35077.46, 71094.48, -187500.02, -187500.02, -187500.02, -187500.02, -187500.02, 187500.00, 0.000, 0.000, 0.000, 13:34:02.634
217, 35822.78, 71698.25, -187500.02, -187500.02, -187500.02, -187500.02, -187500.02, 187500.00, 0.000, 0.000, 0.000, 13:34:02.635
218, 35924.82, 71787.68, -187500.02, -187500.02, -187500.02, -187500.02, -187500.02, 187500.00, 0.000, 0.000, 0.000, 13:34:02.635
219, 35028.25, 71060.95, -187500.02, -187500.02, -187500.02, -187500.02, -187500.02, 187500.00, 0.000, 0.000, 0.000, 13:34:02.635
220, 35004.55, 71037.38, -187500.02, -187500.02, -187500.02, -187500.02, -187500.02, 187500.00, 0.000, 0.000, 0.000, 13:34:02.635
221, 35655.23, 71594.45, -187500.02, -187500.02, -187500.02, -187500.02, -187500.02, 187500.00, 0.000, 0.000, 0.000, 13:34:02.636
222, 36033.67, 71890.72, -187500.02, -187500.02, -187500.02, -187500.02, -187500.02, 187500.00, 0.000, 0.000, 0.000, 13:34:02.636
223, 35141.39, 71155.52, -187500.02, -187500.02, -187500.02, -187500.02, -187500.02, 187500.00, 0.000, 0.000, 0.000, 13:34:02.636
224, 34941.74, 70991.98, -187500.02, -187500.02, -187500.02, -187500.02, -187500.02, 187500.00, 0.308, 0.978, -0.066, 13:34:02.636
225, 35499.57, 71465.27, -187500.02, -187500.02, -187500.02, -187500.02, -187500.02, 187500.00, 0.000, 0.000, 0.000, 13:34:02.637
226, 36085.08, 71935.78, -187500.02, -187500.02, -187500.02, -187500.02, -187500.02, 187500.00, 0.000, 0.000, 0.000, 13:34:02.637
227, 35280.35, 71278.66, -187500.02, -187500.02, -187500.02, -187500.02, -187500.02, 187500.00, 0.000, 0.000, 0.000, 13:34:02.637
228, 34916.46, 70969.42, -187500.02, -187500.02, -187500.02, -187500.02, -187500.02, 187500.00, 0.000, 0.000, 0.000, 13:34:02.637
229, 35359.72, 71340.73, -187500.02, -187500.02, -187500.02, -187500.02, -187500.02, 187500.00, 0.000, 0.000, 0.000, 13:34:02.638
230, 36065.39, 71936.27, -187500.02, -187500.02, -187500.02, -187500.02, -187500.02, 187500.00, 0.000, 0.000, 0.000, 13:34:02.638
231, 35442.36, 71426.07, -187500.02, -187500.02, -187500.02, -187500.02, -187500.02, 187500.00, 0.000, 0.000, 0.000, 13:34:02.638
232, 34906.96, 70967.08, -187500.02, -187500.02, -187500.02, -187500.02, -187500.02, 187500.00, 0.000, 0.000, 0.000, 13:34:02.638
233, 35237.77, 71242.54, -187500.02, -187500.02, -187500.02, -187500.02, -187500.02, 187500.00, 0.000, 0.000, 0.000, 13:34:02.638
234, 36010.65, 71882.34, -187500.02, -187500.02, -187500.02, -187500.02, -187500.02, 187500.00, 0.304, 0.976, -0.070, 13:34:02.639
235, 35613.10, 71552.70, -187500.02, -187500.02, -187500.02, -187500.02, -187500.02, 187500.00, 0.000, 0.000, 0.000, 13:34:02.639
236, 34901.20, 70962.63, -187500.02, -187500.02, -187500.02, -187500.02, -187500.02, 187500.00, 0.000, 0.000, 0.000, 13:34:02.639
237, 35121.61, 71154.63, -187500.02, -187500.02, -187500.02, -187500.02, -187500.02, 187500.00, 0.000, 0.000, 0.000, 13:34:02.639
238, 35893.19, 71798.63, -187500.02, -187500.02, -187500.02, -187500.02, -187500.02, 187500.00, 0.000, 0.000, 0.000, 13:34:02.639
239, 35788.11, 71714.97, -187500.02, -187500.02, -187500.02, -187500.02, -187500.02, 187500.00, 0.000, 0.000, 0.000, 13:34:02.640
240, 34950.21, 71015.91, -187500.02, -187500.02, -187500.02, -187500.02, -187500.02, 187500.00, 0.000, 0.000, 0.000, 13:34:02.640
241, 35041.32, 71079.91, -187500.02, -187500.02, -187500.02, -187500.02, -187500.02, 187500.00, 0.000, 0.000, 0.000, 13:34:02.640
242, 35767.08, 71691.19, -187500.02, -187500.02, -187500.02, -187500.02, -187500.02, 187500.00, 0.000, 0.000, 0.000, 13:34:02.640
243, 35929.67, 71831.11, -187500.02, -187500.02, -187500.02, -187500.02, -187500.02, 187500.00, 0.000, 0.000, 0.000, 13:34:03.090
244, 35029.72, 71091.22, -187500.02, -187500.02, -187500.02, -187500.02, -187500.02, 187500.00, 0.298, 0.976, -0.066, 13:34:03.090
245, 34990.85, 71035.27, -187500.02, -187500.02, -187500.02, -187500.02, -187500.02, 187500.00, 0.000, 0.000, 0.000, 13:34:03.090
246, 35643.86, 71567.55, -187500.02, -187500.02, -187500.02, -187500.02, -187500.02, 187500.00, 0.000, 0.000, 0.000, 13:34:03.090
247, 36060.87, 71913.52, -187500.02, -187500.02, -187500.02, -187500.02, -187500.02, 187500.00, 0.000, 0.000, 0.000, 13:34:03.090
248, 35177.55, 71202.44, -187500.02, -187500.02, -187500.02, -187500.02, -187500.02, 187500.00, 0.000, 0.000, 0.000, 13:34:03.091
249, 34955.54, 71015.60, -187500.02, -187500.02, -187500.02, -187500.02, -187500.02, 187500.00, 0.000, 0.000, 0.000, 13:34:03.091
250, 35473.36, 71455.02, -187500.02, -187500.02, -187500.02, -187500.02, -187500.02, 187500.00, 0.000, 0.000, 0.000, 13:34:03.091
251, 36091.45, 71958.89, -187500.02, -187500.02, -187500.02, -187500.02, -187500.02, 187500.00, 0.000, 0.000, 0.000, 13:34:03.091
252, 35329.01, 71342.59, -187500.02, -187500.02, -187500.02, -187500.02, -187500.02, 187500.00, 0.000, 0.000, 0.000, 13:34:03.091
253, 34904.93, 70997.37, -187500.02, -187500.02, -187500.02, -187500.02, -187500.02, 187500.00, 0.000, 0.000, 0.000, 13:34:03.092
254, 35318.97, 71335.01, -187500.02, -187500.02, -187500.02, -187500.02, -187500.02, 187500.00, 0.300, 0.976, -0.068, 13:34:03.092
255, 36073.17, 71937.70, -187500.02, -187500.02, -187500.02, -187500.02, -187500.02, 187500.00, 0.000, 0.000, 0.000, 13:34:03.092
0, 35502.10, 71468.16, -187500.02, -187500.02, -187500.02, -187500.02, -187500.02, 187500.00, 0.000, 0.000, 0.000, 13:34:03.092
1, 34910.07, 70978.16, -187500.02, -187500.02, -187500.02, -187500.02, -187500.02, 187500.00, 0.000, 0.000, 0.000, 13:34:03.092
2, 35211.08, 71232.95, -187500.02, -187500.02, -187500.02, -187500.02, -187500.02, 187500.00, 0.000, 0.000, 0.000, 13:34:03.092
3, 35988.18, 71881.95, -187500.02, -187500.02, -187500.02, -187500.02, -187500.02, 187500.00, 0.000, 0.000, 0.000, 13:34:03.093
4, 35669.89, 71628.15, -187500.02, -187500.02, -187500.02, -187500.02, -187500.02, 187500.00, 0.000, 0.000, 0.000, 13:34:03.093
5, 34926.01, 71003.87, -187500.02, -187500.02, -187500.02, -187500.02, -187500.02, 187500.00, 0.000, 0.000, 0.000, 13:34:03.093
6, 35123.06, 71151.39, -187500.02, -187500.02, -187500.02, -187500.02, -187500.02, 187500.00, 0.000, 0.000, 0.000, 13:34:03.093
7, 35892.39, 71781.82, -187500.02, -187500.02, -187500.02, -187500.02, -187500.02, 187500.00, 0.000, 0.000, 0.000, 13:34:03.093
8, 35856.29, 71751.35, -187500.02, -187500.02, -187500.02, -187500.02, -187500.02, 187500.00, 0.292, 0.974, -0.062, 13:34:03.093
9, 34985.57, 71038.83, -187500.02, -187500.02, -187500.02, -187500.02, -187500.02, 187500.00, 0.000, 0.000, 0.000, 13:34:03.094
10, 35038.06, 71068.46, -187500.02, -187500.02, -187500.02, -187500.02, -187500.02, 187500.00, 0.000, 0.000, 0.000, 13:34:03.094
11, 35731.12, 71660.56, -187500.02, -187500.02, -187500.02, -187500.02, -187500.02, 187500.00, 0.000, 0.000, 0.000, 13:34:03.094
12, 35972.36, 71870.89, -187500.02, -187500.02, -187500.02, -187500.02, -187500.02, 187500.00, 0.000, 0.000, 0.000, 13:34:03.094
13, 35059.54, 71135.56, -187500.02, -187500.02, -187500.02, -187500.02, -187500.02, 187500.00, 0.000, 0.000, 0.000, 13:34:03.094
14, 34955.33, 71038.45, -187500.02, -187500.02, -187500.02, -187500.02, -187500.02, 187500.00, 0.000, 0.000, 0.000, 13:34:03.095
15, 35560.30, 71546.23, -187500.02, -187500.02, -187500.02, -187500.02, -187500.02, 187500.00, 0.000, 0.000, 0.000, 13:34:03.095
16, 36026.61, 71936.88, -187500.02, -187500.02, -187500.02, -187500.02, -187500.02, 187500.00, 0.000, 0.000, 0.000, 13:34:03.095
17, 35177.20, 71235.79, -187500.02, -187500.02, -187500.02, -187500.02, -187500.02, 187500.00, 0.300, 0.980, -0.066, 13:34:03.095
18, 34908.26, 70998.39, -187500.02, -187500.02, -187500.02, -187500.02, -187500.02, 187500.00, 0.000, 0.000, 0.000, 13:34:03.095
19, 35431.49, 71424.28, -187500.02, -187500.02, -187500.02, -187500.02, -187500.02, 187500.00, 0.000, 0.000, 0.000, 13:34:03.096
20, 36101.08, 71969.53, -187500.02, -187500.02, -187500.02, -187500.02, -187500.02, 187500.00, 0.000, 0.000, 0.000, 13:34:03.096
21, 35356.75, 71375.51, -187500.02, -187500.02, -187500.02, -187500.02, -187500.02, 187500.00, 0.000, 0.000, 0.000, 13:34:03.097
22, 34880.88, 70977.67, -187500.02, -187500.02, -187500.02, -187500.02, -187500.02, 187500.00, 0.000, 0.000, 0.000, 13:34:03.097
23, 35270.76, 71304.39, -187500.02, -187500.02, -187500.02, -187500.02, -187500.02, 187500.00, 0.000, 0.000, 0.000, 13:34:03.097
24, 36053.72, 71926.91, -187500.02, -187500.02, -187500.02, -187500.02, -187500.02, 187500.00, 0.000, 0.000, 0.000, 13:34:03.098
25, 35562.23, 71525.22, -187500.02, -187500.02, -187500.02, -187500.02, -187500.02, 187500.00, 0.000, 0.000, 0.000, 13:34:03.098
26, 34913.63, 70994.77, -187500.02, -187500.02, -187500.02, -187500.02, -187500.02, 187500.00, 0.000, 0.000, 0.000, 13:34:03.098
27, 35183.41, 71214.35, -187500.02, -187500.02, -187500.02, -187500.02, -187500.02, 187500.00, 0.302, 0.982, -0.070, 13:34:03.098
28, 35974.89, 71859.09, -187500.02, -187500.02, -187500.02, -187500.02, -187500.02, 187500.00, 0.000, 0.000, 0.000, 13:34:03.099
29, 35740.13, 71664.07, -187500.02, -187500.02, -187500.02, -187500.02, -187500.02, 187500.00, 0.000, 0.000, 0.000, 13:34:03.099
30, 34953.66, 71024.55, -187500.02, -187500.02, -187500.02, -187500.02, -187500.02, 187500.00, 0.000, 0.000, 0.000, 13:34:03.099
31, 35111.48, 71149.13, -187500.02, -187500.02, -187500.02, -187500.02, -187500.02, 187500.00, 0.000, 0.000, 0.000, 13:34:03.100
32, 35860.42, 71771.80, -187500.02, -187500.02, -187500.02, -187500.02, -187500.02, 187500.00, 0.000, 0.000, 0.000, 13:34:03.100
33, 35901.95, 71806.79, -187500.02, -187500.02, -187500.02, -187500.02, -187500.02, 187500.00, 0.000, 0.000, 0.000, 13:34:03.100
34, 35008.39, 71089.54, -187500.02, -187500.02, -187500.02, -187500.02, -187500.02, 187500.00, 0.000, 0.000, 0.000, 13:34:03.101
35, 35004.89, 71080.29, -187500.02, -187500.02, -187500.02, -187500.02, -187500.02, 187500.00, 0.000, 0.000, 0.000, 13:34:03.101
36, 35686.19, 71628.78, -187500.02, -187500.02, -187500.02, -187500.02, -187500.02, 187500.00, 0.000, 0.000, 0.000, 13:34:03.101
37, 36006.13, 71894.85, -187500.02, -187500.02, -187500.02, -187500.02, -187500.02, 187500.00, 0.302, 0.980, -0.068, 13:34:03.101
38, 35081.53, 71172.27, -187500.02, -187500.02, -187500.02, -187500.02, -187500.02, 187500.00, 0.000, 0.000, 0.000, 13:34:03.102
39, 34941.95, 71039.52, -187500.02, -187500.02, -187500.02, -187500.02, -187500.02, 187500.00, 0.000, 0.000, 0.000, 13:34:03.102
40, 35548.19, 71514.20, -187500.02, -187500.02, -187500.02, -187500.02, -187500.02, 187500.00, 0.000, 0.000, 0.000, 13:34:03.102
41, 36093.84, 71954.09, -187500.02, -187500.02, -187500.02, -187500.02, -187500.02, 187500.00, 0.000, 0.000, 0.000, 13:34:03.102
42, 35267.95, 71288.52, -187500.02, -187500.02, -187500.02, -187500.02, -187500.02, 187500.00, 0.000, 0.000, 0.000, 13:34:03.103
43, 34926.48, 71011.13, -187500.02, -187500.02, -187500.02, -187500.02, -187500.02, 187500.00, 0.000, 0.000, 0.000, 13:34:03.103
44, 35384.55, 71395.52, -187500.02, -187500.02, -187500.02, -187500.02, -187500.02, 187500.00, 0.000, 0.000, 0.000, 13:34:03.104
45, 36068.18, 71951.13, -187500.02, -187500.02, -187500.02, -187500.02, -187500.02, 187500.00, 0.000, 0.000, 0.000, 13:34:03.104
46, 35432.72, 71421.78, -187500.02, -187500.02, -187500.02, -187500.02, -187500.02, 187500.00, 0.000, 0.000, 0.000, 13:34:03.104
47, 34926.37, 71001.23, -187500.02, -187500.02, -187500.02, -187500.02, -187500.02, 187500.00, 0.300, 0.982, -0.068, 13:34:03.104
48, 35269.09, 71279.71, -187500.02, -187500.02, -187500.02, -187500.02, -187500.02, 187500.00, 0.000, 0.000, 0.000, 13:34:03.104
49, 36053.68, 71913.96, -187500.02, -187500.02, -187500.02, -187500.02, -187500.02, 187500.00, 0.000, 0.000, 0.000, 13:34:03.104
50, 35621.17, 71582.66, -187500.02, -187500.02, -187500.02, -187500.02, -187500.02, 187500.00, 0.000, 0.000, 0.000, 13:34:03.105
51, 34920.33, 71021.13, -187500.02, -187500.02, -187500.02, -187500.02, -187500.02, 187500.00, 0.000, 0.000, 0.000, 13:34:03.109
52, 35167.00, 71204.97, -187500.02, -187500.02, -187500.02, -187500.02, -187500.02, 187500.00, 0.000, 0.000, 0.000, 13:34:03.109
53, 35963.15, 71850.89, -187500.02, -187500.02, -187500.02, -187500.02, -187500.02, 187500.00, 0.000, 0.000, 0.000, 13:34:03.109
54, 35809.95, 71728.76, -187500.02, -187500.02, -187500.02, -187500.02, -187500.02, 187500.00, 0.000, 0.000, 0.000, 13:34:03.109
55, 34986.43, 71057.13, -187500.02, -187500.02, -187500.02, -187500.02, -187500.02, 187500.00, 0.000, 0.000, 0.000, 13:34:03.110
56, 35098.29, 71152.69, -187500.02, -187500.02, -187500.02, -187500.02, -187500.02, 187500.00, 0.000, 0.000, 0.000, 13:34:03.110
57, 35829.46, 71754.88, -187500.02, -187500.02, -187500.02, -187500.02, -187500.02, 187500.00, 0.298, 0.976, -0.070, 13:34:03.110
58, 35952.51, 71851.94, -187500.02, -187500.02, -187500.02, -187500.02, -187500.02, 187500.00, 0.000, 0.000, 0.000, 13:34:03.110
59, 35054.26, 71121.77, -187500.02, -187500.02, -187500.02, -187500.02, -187500.02, 187500.00, 0.000, 0.000, 0.000, 13:34:03.110
60, 35028.40, 71092.05, -187500.02, -187500.02, -187500.02, -187500.02, -187500.02, 187500.00, 0.000, 0.000, 0.000, 13:34:03.111
61, 35666.63, 71627.98, -187500.02, -187500.02, -187500.02, -187500.02, -187500.02, 187500.00, 0.000, 0.000, 0.000, 13:34:03.111
62, 36054.73, 71939.06, -187500.02, -187500.02, -187500.02, -187500.02, -187500.02, 187500.00, 0.000, 0.000, 0.000, 13:34:03.111
63, 35189.96, 71226.42, -187500.02, -187500.02, -187500.02, -187500.02, -187500.02, 187500.00, 0.000, 0.000, 0.000, 13:34:03.111
64, 34992.04, 71055.41, -187500.02, -187500.02, -187500.02, -187500.02, -187500.02, 187500.00, 0.000, 0.000, 0.000, 13:34:03.112
65, 35523.94, 71492.12, -187500.02, -187500.02, -187500.02, -187500.02, -187500.02, 187500.00, 0.000, 0.000, 0.000, 13:34:03.112
66, 36106.20, 71968.32, -187500.02, -187500.02, -187500.02, -187500.02, -187500.02, 187500.00, 0.000, 0.000, 0.000, 13:34:03.112
67, 35300.80, 71341.98, -187500.02, -187500.02, -187500.02, -187500.02, -187500.02, 187500.00, 0.300, 0.976, -0.068, 13:34:03.113
68, 34923.17, 71021.39, -187500.02, -187500.02, -187500.02, -187500.02, -187500.02, 187500.00, 0.000, 0.000, 0.000, 13:34:03.113
69, 35377.67, 71390.77, -187500.02, -187500.02, -187500.02, -187500.02, -187500.02, 187500.00, 0.000, 0.000, 0.000, 13:34:03.113
70, 36098.58, 71972.57, -187500.02, -187500.02, -187500.02, -187500.02, -187500.02, 187500.00, 0.000, 0.000, 0.000, 13:34:03.114
71, 35493.92, 71477.68, -187500.02, -187500.02, -187500.02, -187500.02, -187500.02, 187500.00, 0.000, 0.000, 0.000, 13:34:03.114
72, 34933.36, 71032.14, -187500.02, -187500.02, -187500.02, -187500.02, -187500.02, 187500.00, 0.000, 0.000, 0.000, 13:34:03.114
73, 35255.27, 71294.20, -187500.02, -187500.02, -187500.02, -187500.02, -187500.02, 187500.00, 0.000, 0.000, 0.000, 13:34:03.115
74, 36029.58, 71920.52, -187500.02, -187500.02, -187500.02, -187500.02, -187500.02, 187500.00, 0.000, 0.000, 0.000, 13:34:03.115
75, 35649.33, 71633.29, -187500.02, -187500.02, -187500.02, -187500.02, -187500.02, 187500.00, 0.000, 0.000, 0.000, 13:34:03.115
76, 34932.09, 71048.66, -187500.02, -187500.02, -187500.02, -187500.02, -187500.02, 187500.00, 0.296, 0.972, -0.080, 13:34:03.115
77, 35149.77, 71200.09, -187500.02, -187500.02, -187500.02, -187500.02, -187500.02, 187500.00, 0.000, 0.000, 0.000, 13:34:03.116
78, 35925.29, 71837.90, -187500.02, -187500.02, -187500.02, -187500.02, -187500.02, 187500.00, 0.000, 0.000, 0.000, 13:34:03.116
79, 35849.47, 71782.80, -187500.02, -187500.02, -187500.02, -187500.02, -187500.02, 187500.00, 0.000, 0.000, 0.000, 13:34:03.116
80, 34999.77, 71090.23, -187500.02, -187500.02, -187500.02, -187500.02, -187500.02, 187500.00, 0.000, 0.000, 0.000, 13:34:03.116
81, 35071.59, 71140.93, -187500.02, -187500.02, -187500.02, -187500.02, -187500.02, 187500.00, 0.000, 0.000, 0.000, 13:34:03.117
82, 35793.86, 71725.34, -187500.02, -187500.02, -187500.02, -187500.02, -187500.02, 187500.00, 0.000, 0.000, 0.000, 13:34:03.117
83, 35993.93, 71882.27, -187500.02, -187500.02, -187500.02, -187500.02, -187500.02, 187500.00, 0.000, 0.000, 0.000, 13:34:03.117
84, 35084.04, 71150.31, -187500.02, -187500.02, -187500.02, -187500.02, -187500.02, 187500.00, 0.000, 0.000, 0.000, 13:34:03.118
85, 35008.82, 71078.37, -187500.02, -187500.02, -187500.02, -187500.02, -187500.02, 187500.00, 0.000, 0.000, 0.000, 13:34:03.118
86, 35635.18, 71586.96, -187500.02, -187500.02, -187500.02, -187500.02, -187500.02, 187500.00, 0.300, 0.970, -0.082, 13:34:03.118
87, 36075.98, 71938.02, -187500.02, -187500.02, -187500.02, -187500.02, -187500.02, 187500.00, 0.000, 0.000, 0.000, 13:34:03.118
88, 35217.63, 71260.89, -187500.02, -187500.02, -187500.02, -187500.02, -187500.02, 187500.00, 0.000, 0.000, 0.000, 13:34:03.118
89, 34972.05, 71056.95, -187500.02, -187500.02, -187500.02, -187500.02, -187500.02, 187500.00, 0.000, 0.000, 0.000, 13:34:03.119
90, 35482.81, 71477.77, -187500.02, -187500.02, -187500.02, -187500.02, -187500.02, 187500.00, 0.000, 0.000, 0.000, 13:34:03.119
91, 36107.97, 71993.20, -187500.02, -187500.02, -187500.02, -187500.02, -187500.02, 187500.00, 0.000, 0.000, 0.000, 13:34:03.119
92, 35371.95, 71405.57, -187500.02, -187500.02, -187500.02, -187500.02, -187500.02, 187500.00, 0.000, 0.000, 0.000, 13:34:03.120
93, 34957.16, 71051.25, -187500.02, -187500.02, -187500.02, -187500.02, -187500.02, 187500.00, 0.000, 0.000, 0.000, 13:34:03.120
94, 35359.77, 71370.93, -187500.02, -187500.02, -187500.02, -187500.02, -187500.02, 187500.00, 0.000, 0.000, 0.000, 13:34:03.120
95, 36096.41, 71966.38, -187500.02, -187500.02, -187500.02, -187500.02, -187500.02, 187500.00, 0.000, 0.000, 0.000, 13:34:03.120
96, 35545.17, 71530.12, -187500.02, -187500.02, -187500.02, -187500.02, -187500.02, 187500.00, 0.304, 0.974, -0.080, 13:34:03.120
97, 34941.12, 71043.01, -187500.02, -187500.02, -187500.02, -187500.02, -187500.02, 187500.00, 0.000, 0.000, 0.000, 13:34:03.121
98, 35227.53, 71273.83, -187500.02, -187500.02, -187500.02, -187500.02, -187500.02, 187500.00, 0.000, 0.000, 0.000, 13:34:03.121
99, 36000.37, 71903.46, -187500.02, -187500.02, -187500.02, -187500.02, -187500.02, 187500.00, 0.000, 0.000, 0.000, 13:34:03.121
100, 35716.34, 71678.27, -187500.02, -187500.02, -187500.02, -187500.02, -187500.02, 187500.00, 0.000, 0.000, 0.000, 13:34:03.122
101, 34954.66, 71065.09, -187500.02, -187500.02, -187500.02, -187500.02, -187500.02, 187500.00, 0.000, 0.000, 0.000, 13:34:03.122
102, 35120.58, 71197.44, -187500.02, -187500.02, -187500.02, -187500.02, -187500.02, 187500.00, 0.000, 0.000, 0.000, 13:34:03.122
103, 35874.13, 71811.86, -187500.02, -187500.02, -187500.02, -187500.02, -187500.02, 187500.00, 0.000, 0.000, 0.000, 13:34:03.122
104, 35888.81, 71822.27, -187500.02, -187500.02, -187500.02, -187500.02, -187500.02, 187500.00, 0.000, 0.000, 0.000, 13:34:03.122
105, 35024.02, 71115.80, -187500.02, -187500.02, -187500.02, -187500.02, -187500.02, 187500.00, 0.000, 0.000, 0.000, 13:34:03.123
106, 35060.18, 71146.72, -187500.02, -187500.02, -187500.02, -187500.02, -187500.02, 187500.00, 0.302, 0.982, -0.078, 13:34:03.123
107, 35744.48, 71710.05, -187500.02, -187500.02, -187500.02, -187500.02, -187500.02, 187500.00, 0.000, 0.000, 0.000, 13:34:03.575
108, 36021.42, 71923.17, -187500.02, -187500.02, -187500.02, -187500.02, -187500.02, 187500.00, 0.000, 0.000, 0.000, 13:34:03.575
109, 35109.16, 71196.36, -187500.02, -187500.02, -187500.02, -187500.02, -187500.02, 187500.00, 0.000, 0.000, 0.000, 13:34:03.575
110, 34985.95, 71082.26, -187500.02, -187500.02, -187500.02, -187500.02, -187500.02, 187500.00, 0.000, 0.000, 0.000, 13:34:03.575
111, 35586.43, 71564.23, -187500.02, -187500.02, -187500.02, -187500.02, -187500.02, 187500.00, 0.000, 0.000, 0.000, 13:34:03.576
112, 36099.09, 71981.55, -187500.02, -187500.02, -187500.02, -187500.02, -187500.02, 187500.00, 0.000, 0.000, 0.000, 13:34:03.576
113, 35262.87, 71307.12, -187500.02, -187500.02, -187500.02, -187500.02, -187500.02, 187500.00, 0.000, 0.000, 0.000, 13:34:03.576
114, 34976.97, 71063.03, -187500.02, -187500.02, -187500.02, -187500.02, -187500.02, 187500.00, 0.000, 0.000, 0.000, 13:34:03.577
115, 35462.58, 71459.53, -187500.02, -187500.02, -187500.02, -187500.02, -187500.02, 187500.00, 0.000, 0.000, 0.000, 13:34:03.577
116, 36124.20, 71998.05, -187500.02, -187500.02, -187500.02, -187500.02, -187500.02, 187500.00, 0.302, 0.980, -0.072, 13:34:03.577
117, 35416.38, 71439.62, -187500.02, -187500.02, -187500.02, -187500.02, -187500.02, 187500.00, 0.000, 0.000, 0.000, 13:34:03.577
118, 34932.36, 71041.11, -187500.02, -187500.02, -187500.02, -187500.02, -187500.02, 187500.00, 0.000, 0.000, 0.000, 13:34:03.578
119, 35312.36, 71334.77, -187500.02, -187500.02, -187500.02, -187500.02, -187500.02, 187500.00, 0.000, 0.000, 0.000, 13:34:03.578
120, 36074.48, 71953.70, -187500.02, -187500.02, -187500.02, -187500.02, -187500.02, 187500.00, 0.000, 0.000, 0.000, 13:34:03.578
121, 35591.73, 71581.64, -187500.02, -187500.02, -187500.02, -187500.02, -187500.02, 187500.00, 0.000, 0.000, 0.000, 13:34:03.579
122, 34939.44, 71045.30, -187500.02, -187500.02, -187500.02, -187500.02, -187500.02, 187500.00, 0.000, 0.000, 0.000, 13:34:03.579
123, 35204.73, 71251.19, -187500.02, -187500.02, -187500.02, -187500.02, -187500.02, 187500.00, 0.000, 0.000, 0.000, 13:34:03.579
124, 35988.41, 71882.67, -187500.02, -187500.02, -187500.02, -187500.02, -187500.02, 187500.00, 0.000, 0.000, 0.000, 13:34:03.580
125, 35784.45, 71725.29, -187500.02, -187500.02, -187500.02, -187500.02, -187500.02, 187500.00, 0.000, 0.000, 0.000, 13:34:03.580
126, 34983.96, 71078.59, -187500.02, -187500.02, -187500.02, -187500.02, -187500.02, 187500.00, 0.304, 0.982, -0.076, 13:34:03.581
127, 35119.24, 71174.12, -187500.02, -187500.02, -187500.02, -187500.02, -187500.02, 187500.00, 0.000, 0.000, 0.000, 13:34:03.581
128, 35862.48, 71775.27, -187500.02, -187500.02, -187500.02, -187500.02, -187500.02, 187500.00, 0.000, 0.000, 0.000, 13:34:03.582
129, 35946.43, 71851.31, -187500.02, -187500.02, -187500.02, -187500.02, -187500.02, 187500.00, 0.000, 0.000, 0.000, 13:34:03.582
130, 35043.46, 71142.54, -187500.02, -187500.02, -187500.02, -187500.02, -187500.02, 187500.00, 0.000, 0.000, 0.000, 13:34:03.584
131, 35035.75, 71124.77, -187500.02, -187500.02, -187500.02, -187500.02, -187500.02, 187500.00, 0.000, 0.000, 0.000, 13:34:03.585
132, 35703.25, 71662.38, -187500.02, -187500.02, -187500.02, -187500.02, -187500.02, 187500.00, 0.000, 0.000, 0.000, 13:34:03.585
133, 36034.79, 71942.84, -187500.02, -187500.02, -187500.02, -187500.02, -187500.02, 187500.00, 0.000, 0.000, 0.000, 13:34:03.586
134, 35147.43, 71237.80, -187500.02, -187500.02, -187500.02, -187500.02, -187500.02, 187500.00, 0.000, 0.000, 0.000, 13:34:03.586
135, 34996.97, 71094.44, -187500.02, -187500.02, -187500.02, -187500.02, -187500.02, 187500.00, 0.000, 0.000, 0.000, 13:34:03.587
136, 35561.67, 71542.99, -187500.02, -187500.02, -187500.02, -187500.02, -187500.02, 187500.00, 0.300, 0.982, -0.074, 13:34:03.587
137, 36092.90, 71983.88, -187500.02, -187500.02, -187500.02, -187500.02, -187500.02, 187500.00, 0.000, 0.000, 0.000, 13:34:03.588
138, 35294.32, 71358.57, -187500.02, -187500.02, -187500.02, -187500.02, -187500.02, 187500.00, 0.000, 0.000, 0.000, 13:34:03.588
139, 34958.48, 71072.09, -187500.02, -187500.02, -187500.02, -187500.02, -187500.02, 187500.00, 0.000, 0.000, 0.000, 13:34:03.589
140, 35417.07, 71442.05, -187500.02, -187500.02, -187500.02, -187500.02, -187500.02, 187500.00, 0.000, 0.000, 0.000, 13:34:03.589
141, 36109.89, 71995.39, -187500.02, -187500.02, -187500.02, -187500.02, -187500.02, 187500.00, 0.000, 0.000, 0.000, 13:34:03.590
142, 35477.11, 71490.66, -187500.02, -187500.02, -187500.02, -187500.02, -187500.02, 187500.00, 0.000, 0.000, 0.000, 13:34:03.590
143, 34943.57, 71059.91, -187500.02, -187500.02, -187500.02, -187500.02, -187500.02, 187500.00, 0.000, 0.000, 0.000, 13:34:03.590
144, 35289.11, 71327.05, -187500.02, -187500.02, -187500.02, -187500.02, -187500.02, 187500.00, 0.000, 0.000, 0.000, 13:34:03.591
145, 36073.95, 71946.44, -187500.02, -187500.02, -187500.02, -187500.02, -187500.02, 187500.00, 0.302, 0.980, -0.074, 13:34:03.591
146, 35636.82, 71627.34, -187500.02, -187500.02, -187500.02, -187500.02, -187500.02, 187500.00, 0.000, 0.000, 0.000, 13:34:03.591
147, 34925.11, 71070.74, -187500.02, -187500.02, -187500.02, -187500.02, -187500.02, 187500.00, 0.000, 0.000, 0.000, 13:34:03.592
148, 35179.10, 71240.35, -187500.02, -187500.02, -187500.02, -187500.02, -187500.02, 187500.00, 0.000, 0.000, 0.000, 13:34:03.592
149, 35964.05, 71861.39, -187500.02, -187500.02, -187500.02, -187500.02, -187500.02, 187500.00, 0.000, 0.000, 0.000, 13:34:03.592
150, 35825.84, 71760.97, -187500.02, -187500.02, -187500.02, -187500.02, -187500.02, 187500.00, 0.000, 0.000, 0.000, 13:34:03.593
151, 34982.80, 71099.40, -187500.02, -187500.02, -187500.02, -187500.02, -187500.02, 187500.00, 0.000, 0.000, 0.000, 13:34:03.593
152, 35087.45, 71179.20, -187500.02, -187500.02, -187500.02, -187500.02, -187500.02, 187500.00, 0.000, 0.000, 0.000, 13:34:03.593
153, 35825.17, 71769.17, -187500.02, -187500.02, -187500.02, -187500.02, -187500.02, 187500.00, 0.000, 0.000, 0.000, 13:34:03.594
154, 35968.16, 71885.69, -187500.02, -187500.02, -187500.02, -187500.02, -187500.02, 187500.00, 0.000, 0.000, 0.000, 13:34:03.594
155, 35052.70, 71167.75, -187500.02, -187500.02, -187500.02, -187500.02, -187500.02, 187500.00, 0.304, 0.976, -0.078, 13:34:03.595
156, 35008.08, 71122.38, -187500.02, -187500.02, -187500.02, -187500.02, -187500.02, 187500.00, 0.000, 0.000, 0.000, 13:34:03.595
157, 35664.87, 71641.90, -187500.02, -187500.02, -187500.02, -187500.02, -187500.02, 187500.00, 0.000, 0.000, 0.000, 13:34:03.596
158, 36075.69, 71961.22, -187500.02, -187500.02, -187500.02, -187500.02, -187500.02, 187500.00, 0.000, 0.000, 0.000, 13:34:03.596
159, 35183.75, 71266.30, -187500.02, -187500.02, -187500.02, -187500.02, -187500.02, 187500.00, 0.000, 0.000, 0.000, 13:34:03.597
160, 34962.13, 71088.63, -187500.02, -187500.02, -187500.02, -187500.02, -187500.02, 187500.00, 0.000, 0.000, 0.000, 13:34:03.597
161, 35499.11, 71527.16, -187500.02, -187500.02, -187500.02, -187500.02, -187500.02, 187500.00, 0.000, 0.000, 0.000, 13:34:03.597
162, 36091.05, 72000.45, -187500.02, -187500.02, -187500.02, -187500.02, -187500.02, 187500.00, 0.000, 0.000, 0.000, 13:34:03.598
163, 35321.66, 71397.41, -187500.02, -187500.02, -187500.02, -187500.02, -187500.02, 187500.00, 0.000, 0.000, 0.000, 13:34:03.598
164, 34919.68, 71067.46, -187500.02, -187500.02, -187500.02, -187500.02, -187500.02, 187500.00, 0.000, 0.000, 0.000, 13:34:03.598
165, 35334.26, 71403.90, -187500.02, -187500.02, -187500.02, -187500.02, -187500.02, 187500.00, 0.306, 0.974, -0.072, 13:34:03.600
166, 36084.25, 71994.92, -187500.02, -187500.02, -187500.02, -187500.02, -187500.02, 187500.00, 0.000, 0.000, 0.000, 13:34:03.601
167, 35530.36, 71538.99, -187500.02, -187500.02, -187500.02, -187500.02, -187500.02, 187500.00, 0.000, 0.000, 0.000, 13:34:03.601
168, 34943.73, 71069.00, -187500.02, -187500.02, -187500.02, -187500.02, -187500.02, 187500.00, 0.000, 0.000, 0.000, 13:34:03.601
169, 35241.84, 71306.82, -187500.02, -187500.02, -187500.02, -187500.02, -187500.02, 187500.00, 0.000, 0.000, 0.000, 13:34:03.602
170, 36008.46, 71922.62, -187500.02, -187500.02, -187500.02, -187500.02, -187500.02, 187500.00, 0.000, 0.000, 0.000, 13:34:03.602
171, 35699.00, 71679.70, -187500.02, -187500.02, -187500.02, -187500.02, -187500.02, 187500.00, 0.000, 0.000, 0.000, 13:34:03.603
172, 34953.05, 71090.52, -187500.02, -187500.02, -187500.02, -187500.02, -187500.02, 187500.00, 0.000, 0.000, 0.000, 13:34:03.603
173, 35134.55, 71227.23, -187500.02, -187500.02, -187500.02, -187500.02, -187500.02, 187500.00, 0.000, 0.000, 0.000, 13:34:03.603
174, 35920.21, 71834.95, -187500.02, -187500.02, -187500.02, -187500.02, -187500.02, 187500.00, 0.000, 0.000, 0.000, 13:34:03.604
175, 35883.22, 71807.50, -187500.02, -187500.02, -187500.02, -187500.02, -187500.02, 187500.00, 0.302, 0.980, -0.074, 13:34:03.604
176, 35004.89, 71131.20, -187500.02, -187500.02, -187500.02, -187500.02, -187500.02, 187500.00, 0.000, 0.000, 0.000, 13:34:03.604
177, 35060.86, 71169.54, -187500.02, -187500.02, -187500.02, -187500.02, -187500.02, 187500.00, 0.000, 0.000, 0.000, 13:34:03.605
178, 35771.42, 71727.30, -187500.02, -187500.02, -187500.02, -187500.02, -187500.02, 187500.00, 0.000, 0.000, 0.000, 13:34:03.605
179, 35994.46, 71912.80, -187500.02, -187500.02, -187500.02, -187500.02, -187500.02, 187500.00, 0.000, 0.000, 0.000, 13:34:03.605
180, 35081.75, 71210.53, -187500.02, -187500.02, -187500.02, -187500.02, -187500.02, 187500.00, 0.000, 0.000, 0.000, 13:34:03.605
181, 34995.97, 71124.39, -187500.02, -187500.02, -187500.02, -187500.02, -187500.02, 187500.00, 0.000, 0.000, 0.000, 13:34:03.606
182, 35613.50, 71598.09, -187500.02, -187500.02, -187500.02, -187500.02, -187500.02, 187500.00, 0.000, 0.000, 0.000, 13:34:03.606
183, 36085.86, 71964.23, -187500.02, -187500.02, -187500.02, -187500.02, -187500.02, 187500.00, 0.000, 0.000, 0.000, 13:34:03.606
184, 35223.15, 71303.72, -187500.02, -187500.02, -187500.02, -187500.02, -187500.02, 187500.00, 0.000, 0.000, 0.000, 13:34:03.607
185, 34956.76, 71096.13, -187500.02, -187500.02, -187500.02, -187500.02, -187500.02, 187500.00, 0.302, 0.978, -0.072, 13:34:03.607
186, 35460.59, 71493.46, -187500.02, -187500.02, -187500.02, -187500.02, -187500.02, 187500.00, 0.000, 0.000, 0.000, 13:34:03.607
187, 36100.17, 71993.47, -187500.02, -187500.02, -187500.02, -187500.02, -187500.02, 187500.00, 0.000, 0.000, 0.000, 13:34:03.607
188, 35367.01, 71429.94, -187500.02, -187500.02, -187500.02, -187500.02, -187500.02, 187500.00, 0.000, 0.000, 0.000, 13:34:03.608
189, 34910.38, 71078.34, -187500.02, -187500.02, -187500.02, -187500.02, -187500.02, 187500.00, 0.000, 0.000, 0.000, 13:34:03.608
190, 35302.37, 71398.22, -187500.02, -187500.02, -187500.02, -187500.02, -187500.02, 187500.00, 0.000, 0.000, 0.000, 13:34:03.608
191, 36056.07, 71980.73, -187500.02, -187500.02, -187500.02, -187500.02, -187500.02, 187500.00, 0.000, 0.000, 0.000, 13:34:03.609
192, 35561.42, 71579.11, -187500.02, -187500.02, -187500.02, -187500.02, -187500.02, 187500.00, 0.000, 0.000, 0.000, 13:34:03.609
193, 34935.64, 71086.93, -187500.02, -187500.02, -187500.02, -187500.02, -187500.02, 187500.00, 0.000, 0.000, 0.000, 13:34:03.609
194, 35210.97, 71302.40, -187500.02, -187500.02, -187500.02, -187500.02, -187500.02, 187500.00, 0.000, 0.000, 0.000, 13:34:03.609
195, 35995.23, 71920.89, -187500.02, -187500.02, -187500.02, -187500.02, -187500.02, 187500.00, 0.302, 0.976, -0.074, 13:34:03.610
196, 35730.25, 71729.65, -187500.02, -187500.02, -187500.02, -187500.02, -187500.02, 187500.00, 0.000, 0.000, 0.000, 13:34:03.610
197, 34942.04, 71113.44, -187500.02, -187500.02, -187500.02, -187500.02, -187500.02, 187500.00, 0.000, 0.000, 0.000, 13:34:03.610
198, 35109.88, 71216.41, -187500.02, -187500.02, -187500.02, -187500.02, -187500.02, 187500.00, 0.000, 0.000, 0.000, 13:34:03.611
199, 35873.27, 71809.02, -187500.02, -187500.02, -187500.02, -187500.02, -187500.02, 187500.00, 0.000, 0.000, 0.000, 13:34:03.611
200, 35903.45, 71845.68, -187500.02, -187500.02, -187500.02, -187500.02, -187500.02, 187500.00, 0.000, 0.000, 0.000, 13:34:03.611
201, 34999.32, 71157.02, -187500.02, -187500.02, -187500.02, -187500.02, -187500.02, 187500.00, 0.000, 0.000, 0.000, 13:34:03.612
202, 35032.47, 71160.73, -187500.02, -187500.02, -187500.02, -187500.02, -187500.02, 187500.00, 0.000, 0.000, 0.000, 13:34:03.612
203, 35740.24, 71706.85, -187500.02, -187500.02, -187500.02, -187500.02, -187500.02, 187500.00, 0.000, 0.000, 0.000, 13:34:03.613
204, 36045.70, 71946.28, -187500.02, -187500.02, -187500.02, -187500.02, -187500.02, 187500.00, 0.298, 0.978, -0.074, 13:34:03.613
205, 35116.29, 71238.88, -187500.02, -187500.02, -187500.02, -187500.02, -187500.02, 187500.00, 0.000, 0.000, 0.000, 13:34:03.613
206, 34965.41, 71109.16, -187500.02, -187500.02, -187500.02, -187500.02, -187500.02, 187500.00, 0.000, 0.000, 0.000, 13:34:03.614
207, 35573.09, 71571.73, -187500.02, -187500.02, -187500.02, -187500.02, -187500.02, 187500.00, 0.000, 0.000, 0.000, 13:34:03.614
208, 36105.62, 71985.02, -187500.02, -187500.02, -187500.02, -187500.02, -187500.02, 187500.00, 0.000, 0.000, 0.000, 13:34:03.615
209, 35268.05, 71340.98, -187500.02, -187500.02, -187500.02, -187500.02, -187500.02, 187500.00, 0.000, 0.000, 0.000, 13:34:03.615
210, 34950.77, 71096.29, -187500.02, -187500.02, -187500.02, -187500.02, -187500.02, 187500.00, 0.000, 0.000, 0.000, 13:34:03.616
211, 35440.84, 71471.66, -187500.02, -187500.02, -187500.02, -187500.02, -187500.02, 187500.00, 0.000, 0.000, 0.000, 13:34:03.616
212, 36125.31, 71997.60, -187500.02, -187500.02, -187500.02, -187500.02, -187500.02, 187500.00, 0.000, 0.000, 0.000, 13:34:03.617
213, 35426.15, 71470.75, -187500.02, -187500.02, -187500.02, -187500.02, -187500.02, 187500.00, 0.000, 0.000, 0.000, 13:34:03.617
214, 34914.52, 71071.37, -187500.02, -187500.02, -187500.02, -187500.02, -187500.02, 187500.00, 0.302, 0.972, -0.080, 13:34:03.617
215, 35283.03, 71356.31, -187500.02, -187500.02, -187500.02, -187500.02, -187500.02, 187500.00, 0.000, 0.000, 0.000, 13:34:03.618
216, 36045.32, 71960.63, -187500.02, -187500.02, -187500.02, -187500.02, -187500.02, 187500.00, 0.000, 0.000, 0.000, 13:34:03.618
217, 35594.59, 71623.62, -187500.02, -187500.02, -187500.02, -187500.02, -187500.02, 187500.00, 0.000, 0.000, 0.000, 13:34:03.618
218, 34906.45, 71089.97, -187500.02, -187500.02, -187500.02, -187500.02, -187500.02, 187500.00, 0.000, 0.000, 0.000, 13:34:03.619
219, 35154.24, 71267.02, -187500.02, -187500.02, -187500.02, -187500.02, -187500.02, 187500.00, 0.000, 0.000, 0.000, 13:34:03.619
220, 35955.75, 71877.87, -187500.02, -187500.02, -187500.02, -187500.02, -187500.02, 187500.00, 0.000, 0.000, 0.000, 13:34:03.619
221, 35778.41, 71754.33, -187500.02, -187500.02, -187500.02, -187500.02, -187500.02, 187500.00, 0.000, 0.000, 0.000, 13:34:03.619
222, 34925.14, 71111.98, -187500.02, -187500.02, -187500.02, -187500.02, -187500.02, 187500.00, 0.000, 0.000, 0.000, 13:34:03.620
223, 35046.95, 71196.65, -187500.02, -187500.02, -187500.02, -187500.02, -187500.02, 187500.00, 0.000, 0.000, 0.000, 13:34:03.620
224, 35832.04, 71784.46, -187500.02, -187500.02, -187500.02, -187500.02, -187500.02, 187500.00, 0.302, 0.968, -0.080, 13:34:03.620
225, 35947.53, 71872.32, -187500.02, -187500.02, -187500.02, -187500.02, -187500.02, 187500.00, 0.000, 0.000, 0.000, 13:34:03.620
226, 35036.05, 71175.30, -187500.02, -187500.02, -187500.02, -187500.02, -187500.02, 187500.00, 0.000, 0.000, 0.000, 13:34:03.621
227, 35018.23, 71147.23, -187500.02, -187500.02, -187500.02, -187500.02, -187500.02, 187500.00, 0.000, 0.000, 0.000, 13:34:04.050
228, 35682.97, 71663.60, -187500.02, -187500.02, -187500.02, -187500.02, -187500.02, 187500.00, 0.000, 0.000, 0.000, 13:34:04.051
229, 36045.50, 71957.48, -187500.02, -187500.02, -187500.02, -187500.02, -187500.02, 187500.00, 0.000, 0.000, 0.000, 13:34:04.051
230, 35152.18, 71271.48, -187500.02, -187500.02, -187500.02, -187500.02, -187500.02, 187500.00, 0.000, 0.000, 0.000, 13:34:04.051
231, 34975.47, 71118.80, -187500.02, -187500.02, -187500.02, -187500.02, -187500.02, 187500.00, 0.000, 0.000, 0.000, 13:34:04.052
232, 35534.54, 71551.62, -187500.02, -187500.02, -187500.02, -187500.02, -187500.02, 187500.00, 0.000, 0.000, 0.000, 13:34:04.052
233, 36095.59, 71993.89, -187500.02, -187500.02, -187500.02, -187500.02, -187500.02, 187500.00, 0.000, 0.000, 0.000, 13:34:04.052
234, 35294.21, 71383.60, -187500.02, -187500.02, -187500.02, -187500.02, -187500.02, 187500.00, 0.308, 0.978, -0.078, 13:34:04.053
235, 34934.46, 71091.24, -187500.02, -187500.02, -187500.02, -187500.02, -187500.02, 187500.00, 0.000, 0.000, 0.000, 13:34:04.053
236, 35400.16, 71439.28, -187500.02, -187500.02, -187500.02, -187500.02, -187500.02, 187500.00, 0.000, 0.000, 0.000, 13:34:04.054
237, 36120.30, 72001.02, -187500.02, -187500.02, -187500.02, -187500.02, -187500.02, 187500.00, 0.000, 0.000, 0.000, 13:34:04.054
238, 35475.04, 71523.03, -187500.02, -187500.02, -187500.02, -187500.02, -187500.02, 187500.00, 0.000, 0.000, 0.000, 13:34:04.054
239, 34911.52, 71084.16, -187500.02, -187500.02, -187500.02, -187500.02, -187500.02, 187500.00, 0.000, 0.000, 0.000, 13:34:04.055
240, 35260.01, 71336.13, -187500.02, -187500.02, -187500.02, -187500.02, -187500.02, 187500.00, 0.000, 0.000, 0.000, 13:34:04.055
241, 36049.25, 71948.85, -187500.02, -187500.02, -187500.02, -187500.02, -187500.02, 187500.00, 0.000, 0.000, 0.000, 13:34:04.055
242, 35658.25, 71658.95, -187500.02, -187500.02, -187500.02, -187500.02, -187500.02, 187500.00, 0.000, 0.000, 0.000, 13:34:04.056
243, 34918.30, 71081.74, -187500.02, -187500.02, -187500.02, -187500.02, -187500.02, 187500.00, 0.000, 0.000, 0.000, 13:34:04.056
244, 35149.23, 71253.70, -187500.02, -187500.02, -187500.02, -187500.02, -187500.02, 187500.00, 0.306, 0.974, -0.068, 13:34:04.056
245, 35956.20, 71878.09, -187500.02, -187500.02, -187500.02, -187500.02, -187500.02, 187500.00, 0.000, 0.000, 0.000, 13:34:04.057
246, 35843.86, 71801.76, -187500.02, -187500.02, -187500.02, -187500.02, -187500.02, 187500.00, 0.000, 0.000, 0.000, 13:34:04.057
247, 34951.40, 71124.73, -187500.02, -187500.02, -187500.02, -187500.02, -187500.02, 187500.00, 0.000, 0.000, 0.000, 13:34:04.057
248, 35040.14, 71185.34, -187500.02, -187500.02, -187500.02, -187500.02, -187500.02, 187500.00, 0.000, 0.000, 0.000, 13:34:04.058
249, 35789.54, 71758.51, -187500.02, -187500.02, -187500.02, -187500.02, -187500.02, 187500.00, 0.000, 0.000, 0.000, 13:34:04.058
250, 35989.17, 71909.20, -187500.02, -187500.02, -187500.02, -187500.02, -187500.02, 187500.00, 0.000, 0.000, 0.000, 13:34:04.058
251, 35047.60, 71200.30, -187500.02, -187500.02, -187500.02, -187500.02, -187500.02, 187500.00, 0.000, 0.000, 0.000, 13:34:04.059
252, 34972.30, 71145.98, -187500.02, -187500.02, -187500.02, -187500.02, -187500.02, 187500.00, 0.000, 0.000, 0.000, 13:34:04.059
253, 35636.93, 71656.12, -187500.02, -187500.02, -187500.02, -187500.02, -187500.02, 187500.00, 0.000, 0.000, 0.000, 13:34:04.059
254, 36084.79, 72012.20, -187500.02, -187500.02, -187500.02, -187500.02, -187500.02, 187500.00, 0.312, 0.972, -0.074, 13:34:04.059
255, 35176.41, 71324.15, -187500.02, -187500.02, -187500.02, -187500.02, -187500.02, 187500.00, 0.000, 0.000, 0.000, 13:34:04.060
0, 34941.09, 71118.73, -187500.02, -187500.02, -187500.02, -187500.02, -187500.02, 187500.00, 0.000, 0.000, 0.000, 13:34:04.060
1, 35514.89, 71546.99, -187500.02, -187500.02, -187500.02, -187500.02, -187500.02, 187500.00, 0.000, 0.000, 0.000, 13:34:04.060
2, 36160.74, 72050.06, -187500.02, -187500.02, -187500.02, -187500.02, -187500.02, 187500.00, 0.000, 0.000, 0.000, 13:34:04.061
3, 35326.62, 71429.16, -187500.02, -187500.02, -187500.02, -187500.02, -187500.02, 187500.00, 0.000, 0.000, 0.000, 13:34:04.061
4, 34879.32, 71081.30, -187500.02, -187500.02, -187500.02, -187500.02, -187500.02, 187500.00, 0.000, 0.000, 0.000, 13:34:04.061
5, 35359.43, 71440.94, -187500.02, -187500.02, -187500.02, -187500.02, -187500.02, 187500.00, 0.000, 0.000, 0.000, 13:34:04.061
6, 36165.05, 72056.23, -187500.02, -187500.02, -187500.02, -187500.02, -187500.02, 187500.00, 0.000, 0.000, 0.000, 13:34:04.062
7, 35521.28, 71562.66, -187500.02, -187500.02, -187500.02, -187500.02, -187500.02, 187500.00, 0.000, 0.000, 0.000, 13:34:04.062
8, 34862.77, 71051.23, -187500.02, -187500.02, -187500.02, -187500.02, -187500.02, 187500.00, 0.310, 0.984, -0.074, 13:34:04.062
9, 35221.01, 71329.16, -187500.02, -187500.02, -187500.02, -187500.02, -187500.02, 187500.00, 0.000, 0.000, 0.000, 13:34:04.063
10, 36120.93, 72022.98, -187500.02, -187500.02, -187500.02, -187500.02, -187500.02, 187500.00, 0.000, 0.000, 0.000, 13:34:04.063
11, 35730.92, 71729.41, -187500.02, -187500.02, -187500.02, -187500.02, -187500.02, 187500.00, 0.000, 0.000, 0.000, 13:34:04.063
12, 34858.30, 71055.26, -187500.02, -187500.02, -187500.02, -187500.02, -187500.02, 187500.00, 0.000, 0.000, 0.000, 13:34:04.064
13, 35099.59, 71229.13, -187500.02, -187500.02, -187500.02, -187500.02, -187500.02, 187500.00, 0.000, 0.000, 0.000, 13:34:04.064
14, 36025.40, 71932.72, -187500.02, -187500.02, -187500.02, -187500.02, -187500.02, 187500.00, 0.000, 0.000, 0.000, 13:34:04.065
15, 35952.18, 71881.45, -187500.02, -187500.02, -187500.02, -187500.02, -187500.02, 187500.00, 0.000, 0.000, 0.000, 13:34:04.065
16, 34896.23, 71085.27, -187500.02, -187500.02, -187500.02, -187500.02, -187500.02, 187500.00, 0.000, 0.000, 0.000, 13:34:04.066
17, 34984.01, 71146.92, -187500.02, -187500.02, -187500.02, -187500.02, -187500.02, 187500.00, 0.298, 0.974, -0.076, 13:34:04.066
18, 35854.39, 71832.36, -187500.02, -187500.02, -187500.02, -187500.02, -187500.02, 187500.00, 0.000, 0.000, 0.000, 13:34:04.067
19, 36106.58, 72034.51, -187500.02, -187500.02, -187500.02, -187500.02, -187500.02, 187500.00, 0.000, 0.000, 0.000, 13:34:04.067
20, 34956.65, 71151.16, -187500.02, -187500.02, -187500.02, -187500.02, -187500.02, 187500.00, 0.000, 0.000, 0.000, 13:34:04.067
21, 34858.59, 71060.02, -187500.02, -187500.02, -187500.02, -187500.02, -187500.02, 187500.00, 0.000, 0.000, 0.000, 13:34:04.068
22, 35663.35, 71702.98, -187500.02, -187500.02, -187500.02, -187500.02, -187500.02, 187500.00, 0.000, 0.000, 0.000, 13:34:04.068
23, 36231.95, 72151.00, -187500.02, -187500.02, -187500.02, -187500.02, -187500.02, 187500.00, 0.000, 0.000, 0.000, 13:34:04.068
24, 35137.95, 71281.30, -187500.02, -187500.02, -187500.02, -187500.02, -187500.02, 187500.00, 0.000, 0.000, 0.000, 13:34:04.069
25, 34807.77, 70998.66, -187500.02, -187500.02, -187500.02, -187500.02, -187500.02, 187500.00, 0.000, 0.000, 0.000, 13:34:04.069
26, 35470.90, 71549.95, -187500.02, -187500.02, -187500.02, -187500.02, -187500.02, 187500.00, 0.000, 0.000, 0.000, 13:34:04.069
27, 36289.38, 72209.50, -187500.02, -187500.02, -187500.02, -187500.02, -187500.02, 187500.00, 0.302, 0.978, -0.080, 13:34:04.069
28, 35371.50, 71435.34, -187500.02, -187500.02, -187500.02, -187500.02, -187500.02, 187500.00, 0.000, 0.000, 0.000, 13:34:04.070
29, 34803.88, 70949.04, -187500.02, -187500.02, -187500.02, -187500.02, -187500.02, 187500.00, 0.000, 0.000, 0.000, 13:34:04.070
30, 35345.93, 71407.83, -187500.02, -187500.02, -187500.02, -187500.02, -187500.02, 187500.00, 0.000, 0.000, 0.000, 13:34:04.070
31, 36258.39, 72194.27, -187500.02, -187500.02, -187500.02, -187500.02, -187500.02, 187500.00, 0.000, 0.000, 0.000, 13:34:04.070
32, 35548.64, 71610.85, -187500.02, -187500.02, -187500.02, -187500.02, -187500.02, 187500.00, 0.000, 0.000, 0.000, 13:34:04.071
33, 34756.09, 70928.81, -187500.02, -187500.02, -187500.02, -187500.02, -187500.02, 187500.00, 0.000, 0.000, 0.000, 13:34:04.071
34, 35170.94, 71270.62, -187500.02, -187500.02, -187500.02, -187500.02, -187500.02, 187500.00, 0.000, 0.000, 0.000, 13:34:04.071
35, 36164.70, 72118.08, -187500.02, -187500.02, -187500.02, -187500.02, -187500.02, 187500.00, 0.000, 0.000, 0.000, 13:34:04.072
36, 35782.08, 71815.73, -187500.02, -187500.02, -187500.02, -187500.02, -187500.02, 187500.00, 0.000, 0.000, 0.000, 13:34:04.072
37, 34756.52, 70941.39, -187500.02, -187500.02, -187500.02, -187500.02, -187500.02, 187500.00, 0.306, 0.984, -0.082, 13:34:04.072
38, 35017.96, 71154.41, -187500.02, -187500.02, -187500.02, -187500.02, -187500.02, 187500.00, 0.000, 0.000, 0.000, 13:34:04.072
39, 36005.71, 72009.79, -187500.02, -187500.02, -187500.02, -187500.02, -187500.02, 187500.00, 0.000, 0.000, 0.000, 13:34:04.072
40, 36005.11, 71998.41, -187500.02, -187500.02, -187500.02, -187500.02, -187500.02, 187500.00, 0.000, 0.000, 0.000, 13:34:04.073
41, 34856.96, 70997.50, -187500.02, -187500.02, -187500.02, -187500.02, -187500.02, 187500.00, 0.000, 0.000, 0.000, 13:34:04.073
42, 34916.08, 71048.13, -187500.02, -187500.02, -187500.02, -187500.02, -187500.02, 187500.00, 0.000, 0.000, 0.000, 13:34:04.073
43, 35828.37, 71859.76, -187500.02, -187500.02, -187500.02, -187500.02, -187500.02, 187500.00, 0.000, 0.000, 0.000, 13:34:04.073
44, 36157.61, 72138.53, -187500.02, -187500.02, -187500.02, -187500.02, -187500.02, 187500.00, 0.000, 0.000, 0.000, 13:34:04.074
45, 34936.51, 71084.49, -187500.02, -187500.02, -187500.02, -187500.02, -187500.02, 187500.00, 0.000, 0.000, 0.000, 13:34:04.074
46, 34787.63, 70949.20, -187500.02, -187500.02, -187500.02, -187500.02, -187500.02, 187500.00, 0.000, 0.000, 0.000, 13:34:04.074
47, 35636.19, 71689.51, -187500.02, -187500.02, -187500.02, -187500.02, -187500.02, 187500.00, 0.300, 0.976, -0.080, 13:34:04.074
48, 36283.83, 72247.56, -187500.02, -187500.02, -187500.02, -187500.02, -187500.02, 187500.00, 0.000, 0.000, 0.000, 13:34:04.075
49, 35145.93, 71244.24, -187500.02, -187500.02, -187500.02, -187500.02, -187500.02, 187500.00, 0.000, 0.000, 0.000, 13:34:04.075
50, 34763.06, 70883.44, -187500.02, -187500.02, -187500.02, -187500.02, -187500.02, 187500.00, 0.000, 0.000, 0.000, 13:34:04.075
51, 35460.93, 71513.47, -187500.02, -187500.02, -187500.02, -187500.02, -187500.02, 187500.00, 0.000, 0.000, 0.000, 13:34:04.075
52, 36313.94, 72275.23, -187500.02, -187500.02, -187500.02, -187500.02, -187500.02, 187500.00, 0.000, 0.000, 0.000, 13:34:04.076
53, 35340.25, 71426.20, -187500.02, -187500.02, -187500.02, -187500.02, -187500.02, 187500.00, 0.000, 0.000, 0.000, 13:34:04.076
54, 34684.32, 70822.23, -187500.02, -187500.02, -187500.02, -187500.02, -187500.02, 187500.00, 0.000, 0.000, 0.000, 13:34:04.076
55, 35270.76, 71337.34, -187500.02, -187500.02, -187500.02, -187500.02, -187500.02, 187500.00, 0.000, 0.000, 0.000, 13:34:04.077
56, 36278.40, 72238.34, -187500.02, -187500.02, -187500.02, -187500.02, -187500.02, 187500.00, 0.000, 0.000, 0.000, 13:34:04.077
57, 35602.66, 71628.76, -187500.02, -187500.02, -187500.02, -187500.02, -187500.02, 187500.00, 0.300, 0.978, -0.078, 13:34:04.077
58, 34699.05, 70803.08, -187500.02, -187500.02, -187500.02, -187500.02, -187500.02, 187500.00, 0.000, 0.000, 0.000, 13:34:04.077
59, 35132.65, 71185.70, -187500.02, -187500.02, -187500.02, -187500.02, -187500.02, 187500.00, 0.000, 0.000, 0.000, 13:34:04.078
60, 36193.15, 72145.55, -187500.02, -187500.02, -187500.02, -187500.02, -187500.02, 187500.00, 0.000, 0.000, 0.000, 13:34:04.078
61, 35851.66, 71848.80, -187500.02, -187500.02, -187500.02, -187500.02, -187500.02, 187500.00, 0.000, 0.000, 0.000, 13:34:04.078
62, 34739.73, 70844.34, -187500.02, -187500.02, -187500.02, -187500.02, -187500.02, 187500.00, 0.000, 0.000, 0.000, 13:34:04.078
63, 34993.42, 71065.49, -187500.02, -187500.02, -187500.02, -187500.02, -187500.02, 187500.00, 0.000, 0.000, 0.000, 13:34:04.079
64, 36019.48, 71998.70, -187500.02, -187500.02, -187500.02, -187500.02, -187500.02, 187500.00, 0.000, 0.000, 0.000, 13:34:04.079
65, 36070.73, 72054.06, -187500.02, -187500.02, -187500.02, -187500.02, -187500.02, 187500.00, 0.000, 0.000, 0.000, 13:34:04.079
66, 34839.13, 70947.41, -187500.02, -187500.02, -187500.02, -187500.02, -187500.02, 187500.00, 0.000, 0.000, 0.000, 13:34:04.079
67, 34886.73, 70974.41, -187500.02, -187500.02, -187500.02, -187500.02, -187500.02, 187500.00, 0.296, 0.968, -0.080, 13:34:04.080
68, 35824.26, 71840.78, -187500.02, -187500.02, -187500.02, -187500.02, -187500.02, 187500.00, 0.000, 0.000, 0.000, 13:34:04.080
69, 36217.96, 72202.75, -187500.02, -187500.02, -187500.02, -187500.02, -187500.02, 187500.00, 0.000, 0.000, 0.000, 13:34:04.080
70, 34990.43, 71097.86, -187500.02, -187500.02, -187500.02, -187500.02, -187500.02, 187500.00, 0.000, 0.000, 0.000, 13:34:04.080
71, 34801.98, 70910.20, -187500.02, -187500.02, -187500.02, -187500.02, -187500.02, 187500.00, 0.000, 0.000, 0.000, 13:34:04.081
72, 35600.23, 71674.29, -187500.02, -187500.02, -187500.02, -187500.02, -187500.02, 187500.00, 0.000, 0.000, 0.000, 13:34:04.081
73, 36281.91, 72304.20, -187500.02, -187500.02, -187500.02, -187500.02, -187500.02, 187500.00, 0.000, 0.000, 0.000, 13:34:04.081
74, 35196.35, 71292.52, -187500.02, -187500.02, -187500.02, -187500.02, -187500.02, 187500.00, 0.000, 0.000, 0.000, 13:34:04.081
75, 34762.95, 70867.97, -187500.02, -187500.02, -187500.02, -187500.02, -187500.02, 187500.00, 0.000, 0.000, 0.000, 13:34:04.081
76, 35438.87, 71501.84, -187500.02, -187500.02, -187500.02, -187500.02, -187500.02, 187500.00, 0.294, 0.968, -0.078, 13:34:04.082
77, 36313.20, 72320.99, -187500.02, -187500.02, -187500.02, -187500.02, -187500.02, 187500.00, 0.000, 0.000, 0.000, 13:34:04.082
78, 35430.62, 71509.51, -187500.02, -187500.02, -187500.02, -187500.02, -187500.02, 187500.00, 0.000, 0.000, 0.000, 13:34:04.082
79, 34768.23, 70870.07, -187500.02, -187500.02, -187500.02, -187500.02, -187500.02, 187500.00, 0.000, 0.000, 0.000, 13:34:04.082
80, 35295.26, 71365.20, -187500.02, -187500.02, -187500.02, -187500.02, -187500.02, 187500.00, 0.000, 0.000, 0.000, 13:34:04.082
81, 36251.60, 72268.66, -187500.02, -187500.02, -187500.02, -187500.02, -187500.02, 187500.00, 0.000, 0.000, 0.000, 13:34:04.083
82, 35668.98, 71729.27, -187500.02, -187500.02, -187500.02, -187500.02, -187500.02, 187500.00, 0.000, 0.000, 0.000, 13:34:04.083
83, 34775.71, 70879.32, -187500.02, -187500.02, -187500.02, -187500.02, -187500.02, 187500.00, 0.000, 0.000, 0.000, 13:34:04.083
84, 35132.31, 71226.83, -187500.02, -187500.02, -187500.02, -187500.02, -187500.02, 187500.00, 0.000, 0.000, 0.000, 13:34:04.083
85, 36090.85, 72157.77, -187500.02, -187500.02, -187500.02, -187500.02, -187500.02, 187500.00, 0.000, 0.000, 0.000, 13:34:04.084
86, 35889.05, 71951.11, -187500.02, -187500.02, -187500.02, -187500.02, -187500.02, 187500.00, 0.296, 0.974, -0.072, 13:34:04.084
87, 34859.73, 70942.55, -187500.02, -187500.02, -187500.02, -187500.02, -187500.02, 187500.00, 0.000, 0.000, 0.000, 13:34:04.084
88, 35062.04, 71126.69, -187500.02, -187500.02, -187500.02, -187500.02, -187500.02, 187500.00, 0.000, 0.000, 0.000, 13:34:04.084
89, 35992.21, 72032.54, -187500.02, -187500.02, -187500.02, -187500.02, -187500.02, 187500.00, 0.000, 0.000, 0.000, 13:34:04.085
90, 36099.03, 72137.44, -187500.02, -187500.02, -187500.02, -187500.02, -187500.02, 187500.00, 0.000, 0.000, 0.000, 13:34:04.085
91, 34943.84, 71046.00, -187500.02, -187500.02, -187500.02, -187500.02, -187500.02, 187500.00, 0.000, 0.000, 0.000, 13:34:04.536
92, 34942.10, 71026.89, -187500.02, -187500.02, -187500.02, -187500.02, -187500.02, 187500.00, 0.000, 0.000, 0.000, 13:34:04.537
93, 35769.36, 71850.55, -187500.02, -187500.02, -187500.02, -187500.02, -187500.02, 187500.00, 0.000, 0.000, 0.000, 13:34:04.537
94, 36205.36, 72269.36, -187500.02, -187500.02, -187500.02, -187500.02, -187500.02, 187500.00, 0.000, 0.000, 0.000, 13:34:04.538
95, 35083.66, 71183.11, -187500.02, -187500.02, -187500.02, -187500.02, -187500.02, 187500.00, 0.000, 0.000, 0.000, 13:34:04.538
96, 34860.20, 70956.37, -187500.02, -187500.02, -187500.02, -187500.02, -187500.02, 187500.00, 0.302, 0.982, -0.078, 13:34:04.538
97, 35575.75, 71683.96, -187500.02, -187500.02, -187500.02, -187500.02, -187500.02, 187500.00, 0.000, 0.000, 0.000, 13:34:04.538
98, 36269.55, 72339.38, -187500.02, -187500.02, -187500.02, -187500.02, -187500.02, 187500.00, 0.000, 0.000, 0.000, 13:34:04.539
99, 35267.90, 71363.66, -187500.02, -187500.02, -187500.02, -187500.02, -187500.02, 187500.00, 0.000, 0.000, 0.000, 13:34:04.539
100, 34800.97, 70893.12, -187500.02, -187500.02, -187500.02, -187500.02, -187500.02, 187500.00, 0.000, 0.000, 0.000, 13:34:04.539
101, 35415.04, 71492.43, -187500.02, -187500.02, -187500.02, -187500.02, -187500.02, 187500.00, 0.000, 0.000, 0.000, 13:34:04.540
102, 36271.11, 72321.37, -187500.02, -187500.02, -187500.02, -187500.02, -187500.02, 187500.00, 0.000, 0.000, 0.000, 13:34:04.540
103, 35472.30, 71571.09, -187500.02, -187500.02, -187500.02, -187500.02, -187500.02, 187500.00, 0.000, 0.000, 0.000, 13:34:04.540
104, 34774.20, 70873.55, -187500.02, -187500.02, -187500.02, -187500.02, -187500.02, 187500.00, 0.000, 0.000, 0.000, 13:34:04.541
105, 35263.18, 71342.05, -187500.02, -187500.02, -187500.02, -187500.02, -187500.02, 187500.00, 0.000, 0.000, 0.000, 13:34:04.541
106, 36211.41, 72257.17, -187500.02, -187500.02, -187500.02, -187500.02, -187500.02, 187500.00, 0.298, 0.980, -0.082, 13:34:04.541
107, 35705.91, 71789.24, -187500.02, -187500.02, -187500.02, -187500.02, -187500.02, 187500.00, 0.000, 0.000, 0.000, 13:34:04.542
108, 34755.89, 70882.97, -187500.02, -187500.02, -187500.02, -187500.02, -187500.02, 187500.00, 0.000, 0.000, 0.000, 13:34:04.542
109, 35106.34, 71195.31, -187500.02, -187500.02, -187500.02, -187500.02, -187500.02, 187500.00, 0.000, 0.000, 0.000, 13:34:04.542
110, 36112.24, 72142.22, -187500.02, -187500.02, -187500.02, -187500.02, -187500.02, 187500.00, 0.000, 0.000, 0.000, 13:34:04.543
111, 35940.38, 71992.27, -187500.02, -187500.02, -187500.02, -187500.02, -187500.02, 187500.00, 0.000, 0.000, 0.000, 13:34:04.543
112, 34803.01, 70916.00, -187500.02, -187500.02, -187500.02, -187500.02, -187500.02, 187500.00, 0.000, 0.000, 0.000, 13:34:04.543
113, 34986.80, 71056.71, -187500.02, -187500.02, -187500.02, -187500.02, -187500.02, 187500.00, 0.000, 0.000, 0.000, 13:34:04.544
114, 35956.38, 71979.39, -187500.02, -187500.02, -187500.02, -187500.02, -187500.02, 187500.00, 0.000, 0.000, 0.000, 13:34:04.544
115, 36162.46, 72181.52, -187500.02, -187500.02, -187500.02, -187500.02, -187500.02, 187500.00, 0.000, 0.000, 0.000, 13:34:04.544
116, 34902.72, 71025.33, -187500.02, -187500.02, -187500.02, -187500.02, -187500.02, 187500.00, 0.292, 0.978, -0.080, 13:34:04.545
117, 34839.60, 70957.29, -187500.02, -187500.02, -187500.02, -187500.02, -187500.02, 187500.00, 0.000, 0.000, 0.000, 13:34:04.545
118, 35763.21, 71814.56, -187500.02, -187500.02, -187500.02, -187500.02, -187500.02, 187500.00, 0.000, 0.000, 0.000, 13:34:04.545
119, 36325.16, 72327.88, -187500.02, -187500.02, -187500.02, -187500.02, -187500.02, 187500.00, 0.000, 0.000, 0.000, 13:34:04.546
120, 35067.45, 71189.41, -187500.02, -187500.02, -187500.02, -187500.02, -187500.02, 187500.00, 0.000, 0.000, 0.000, 13:34:04.546
121, 34754.04, 70872.30, -187500.02, -187500.02, -187500.02, -187500.02, -187500.02, 187500.00, 0.000, 0.000, 0.000, 13:34:04.547
122, 35558.54, 71615.21, -187500.02, -187500.02, -187500.02, -187500.02, -187500.02, 187500.00, 0.000, 0.000, 0.000, 13:34:04.547
123, 36380.97, 72371.34, -187500.02, -187500.02, -187500.02, -187500.02, -187500.02, 187500.00, 0.000, 0.000, 0.000, 13:34:04.548
124, 35265.22, 71384.02, -187500.02, -187500.02, -187500.02, -187500.02, -187500.02, 187500.00, 0.000, 0.000, 0.000, 13:34:04.548
125, 34669.70, 70815.33, -187500.02, -187500.02, -187500.02, -187500.02, -187500.02, 187500.00, 0.000, 0.000, 0.000, 13:34:04.548
126, 35361.78, 71431.66, -187500.02, -187500.02, -187500.02, -187500.02, -187500.02, 187500.00, 0.286, 0.982, -0.084, 13:34:04.549
127, 36399.99, 72385.32, -187500.02, -187500.02, -187500.02, -187500.02, -187500.02, 187500.00, 0.000, 0.000, 0.000, 13:34:04.549
128, 35556.44, 71642.10, -187500.02, -187500.02, -187500.02, -187500.02, -187500.02, 187500.00, 0.000, 0.000, 0.000, 13:34:04.549
129, 34645.96, 70807.73, -187500.02, -187500.02, -187500.02, -187500.02, -187500.02, 187500.00, 0.000, 0.000, 0.000, 13:34:04.550
130, 35185.73, 71280.13, -187500.02, -187500.02, -187500.02, -187500.02, -187500.02, 187500.00, 0.000, 0.000, 0.000, 13:34:04.550
131, 36331.78, 72303.64, -187500.02, -187500.02, -187500.02, -187500.02, -187500.02, 187500.00, 0.000, 0.000, 0.000, 13:34:04.551
132, 35847.95, 71876.30, -187500.02, -187500.02, -187500.02, -187500.02, -187500.02, 187500.00, 0.000, 0.000, 0.000, 13:34:04.551
133, 34663.66, 70825.68, -187500.02, -187500.02, -187500.02, -187500.02, -187500.02, 187500.00, 0.000, 0.000, 0.000, 13:34:04.551
134, 35024.47, 71133.51, -187500.02, -187500.02, -187500.02, -187500.02, -187500.02, 187500.00, 0.000, 0.000, 0.000, 13:34:04.551
135, 36216.17, 72183.34, -187500.02, -187500.02, -187500.02, -187500.02, -187500.02, 187500.00, 0.000, 0.000, 0.000, 13:34:04.552
136, 36128.53, 72120.34, -187500.02, -187500.02, -187500.02, -187500.02, -187500.02, 187500.00, 0.284, 0.978, -0.078, 13:34:04.553
137, 34705.95, 70905.50, -187500.02, -187500.02, -187500.02, -187500.02, -187500.02, 187500.00, 0.000, 0.000, 0.000, 13:34:04.553
138, 34842.79, 71011.20, -187500.02, -187500.02, -187500.02, -187500.02, -187500.02, 187500.00, 0.000, 0.000, 0.000, 13:34:04.553
139, 35997.77, 72003.30, -187500.02, -187500.02, -187500.02, -187500.02, -187500.02, 187500.00, 0.000, 0.000, 0.000, 13:34:04.554
140, 36352.50, 72305.52, -187500.02, -187500.02, -187500.02, -187500.02, -187500.02, 187500.00, 0.000, 0.000, 0.000, 13:34:04.554
141, 34832.53, 71044.55, -187500.02, -187500.02, -187500.02, -187500.02, -187500.02, 187500.00, 0.000, 0.000, 0.000, 13:34:04.554
142, 34700.90, 70914.23, -187500.02, -187500.02, -187500.02, -187500.02, -187500.02, 187500.00, 0.000, 0.000, 0.000, 13:34:04.555
143, 35767.89, 71808.44, -187500.02, -187500.02, -187500.02, -187500.02, -187500.02, 187500.00, 0.000, 0.000, 0.000, 13:34:04.555
144, 36519.20, 72426.76, -187500.02, -187500.02, -187500.02, -187500.02, -187500.02, 187500.00, 0.000, 0.000, 0.000, 13:34:04.556
145, 35063.38, 71230.65, -187500.02, -187500.02, -187500.02, -187500.02, -187500.02, 187500.00, 0.292, 0.980, -0.080, 13:34:04.556
146, 34587.18, 70829.95, -187500.02, -187500.02, -187500.02, -187500.02, -187500.02, 187500.00, 0.000, 0.000, 0.000, 13:34:04.556
147, 35515.45, 71595.61, -187500.02, -187500.02, -187500.02, -187500.02, -187500.02, 187500.00, 0.000, 0.000, 0.000, 13:34:04.557
148, 36570.87, 72450.43, -187500.02, -187500.02, -187500.02, -187500.02, -187500.02, 187500.00, 0.000, 0.000, 0.000, 13:34:04.557
149, 35323.11, 71454.70, -187500.02, -187500.02, -187500.02, -187500.02, -187500.02, 187500.00, 0.000, 0.000, 0.000, 13:34:04.558
150, 34488.88, 70784.95, -187500.02, -187500.02, -187500.02, -187500.02, -187500.02, 187500.00, 0.000, 0.000, 0.000, 13:34:04.558
151, 35274.32, 71406.13, -187500.02, -187500.02, -187500.02, -187500.02, -187500.02, 187500.00, 0.000, 0.000, 0.000, 13:34:04.558
152, 36549.19, 72421.02, -187500.02, -187500.02, -187500.02, -187500.02, -187500.02, 187500.00, 0.000, 0.000, 0.000, 13:34:04.559
153, 35653.63, 71706.61, -187500.02, -187500.02, -187500.02, -187500.02, -187500.02, 187500.00, 0.000, 0.000, 0.000, 13:34:04.559
154, 34459.88, 70753.33, -187500.02, -187500.02, -187500.02, -187500.02, -187500.02, 187500.00, 0.000, 0.000, 0.000, 13:34:04.559
155, 35035.98, 71224.99, -187500.02, -187500.02, -187500.02, -187500.02, -187500.02, 187500.00, 0.296, 0.982, -0.082, 13:34:04.559
156, 36403.30, 72324.77, -187500.02, -187500.02, -187500.02, -187500.02, -187500.02, 187500.00, 0.000, 0.000, 0.000, 13:34:04.560
157, 35968.61, 71974.11, -187500.02, -187500.02, -187500.02, -187500.02, -187500.02, 187500.00, 0.000, 0.000, 0.000, 13:34:04.560
158, 34478.08, 70802.52, -187500.02, -187500.02, -187500.02, -187500.02, -187500.02, 187500.00, 0.000, 0.000, 0.000, 13:34:04.560
159, 34801.51, 71063.37, -187500.02, -187500.02, -187500.02, -187500.02, -187500.02, 187500.00, 0.000, 0.000, 0.000, 13:34:04.560
160, 36189.17, 72147.36, -187500.02, -187500.02, -187500.02, -187500.02, -187500.02, 187500.00, 0.000, 0.000, 0.000, 13:34:04.560
161, 36278.51, 72179.79, -187500.02, -187500.02, -187500.02, -187500.02, -187500.02, 187500.00, 0.000, 0.000, 0.000, 13:34:04.561
162, 34628.80, 70902.81, -187500.02, -187500.02, -187500.02, -187500.02, -187500.02, 187500.00, 0.000, 0.000, 0.000, 13:34:04.561
163, 34689.41, 70941.88, -187500.02, -187500.02, -187500.02, -187500.02, -187500.02, 187500.00, 0.000, 0.000, 0.000, 13:34:04.561
164, 36001.48, 71936.59, -187500.02, -187500.02, -187500.02, -187500.02, -187500.02, 187500.00, 0.000, 0.000, 0.000, 13:34:04.561
165, 36537.93, 72344.50, -187500.02, -187500.02, -187500.02, -187500.02, -187500.02, 187500.00, 0.296, 0.982, -0.086, 13:34:04.562
166, 34796.50, 71051.63, -187500.02, -187500.02, -187500.02, -187500.02, -187500.02, 187500.00, 0.000, 0.000, 0.000, 13:34:04.562
167, 34517.64, 70845.10, -187500.02, -187500.02, -187500.02, -187500.02, -187500.02, 187500.00, 0.000, 0.000, 0.000, 13:34:04.563
168, 35706.42, 71727.53, -187500.02, -187500.02, -187500.02, -187500.02, -187500.02, 187500.00, 0.000, 0.000, 0.000, 13:34:04.563
169, 36650.87, 72434.34, -187500.02, -187500.02, -187500.02, -187500.02, -187500.02, 187500.00, 0.000, 0.000, 0.000, 13:34:04.563
170, 35067.65, 71265.70, -187500.02, -187500.02, -187500.02, -187500.02, -187500.02, 187500.00, 0.000, 0.000, 0.000, 13:34:04.564
171, 34430.20, 70783.01, -187500.02, -187500.02, -187500.02, -187500.02, -187500.02, 187500.00, 0.000, 0.000, 0.000, 13:34:04.564
172, 35432.12, 71527.68, -187500.02, -187500.02, -187500.02, -187500.02, -187500.02, 187500.00, 0.000, 0.000, 0.000, 13:34:04.564
173, 36682.03, 72452.69, -187500.02, -187500.02, -187500.02, -187500.02, -187500.02, 187500.00, 0.000, 0.000, 0.000, 13:34:04.564
174, 35415.71, 71510.23, -187500.02, -187500.02, -187500.02, -187500.02, -187500.02, 187500.00, 0.000, 0.000, 0.000, 13:34:04.565
175, 34386.14, 70754.02, -187500.02, -187500.02, -187500.02, -187500.02, -187500.02, 187500.00, 0.294, 0.982, -0.086, 13:34:04.565
176, 35174.47, 71340.95, -187500.02, -187500.02, -187500.02, -187500.02, -187500.02, 187500.00, 0.000, 0.000, 0.000, 13:34:04.565
177, 36577.09, 72384.13, -187500.02, -187500.02, -187500.02, -187500.02, -187500.02, 187500.00, 0.000, 0.000, 0.000, 13:34:04.565
178, 35752.69, 71762.53, -187500.02, -187500.02, -187500.02, -187500.02, -187500.02, 187500.00, 0.000, 0.000, 0.000, 13:34:04.565
179, 34392.38, 70756.03, -187500.02, -187500.02, -187500.02, -187500.02, -187500.02, 187500.00, 0.000, 0.000, 0.000, 13:34:04.566
180, 34946.21, 71166.41, -187500.02, -187500.02, -187500.02, -187500.02, -187500.02, 187500.00, 0.000, 0.000, 0.000, 13:34:04.566
181, 36403.19, 72252.26, -187500.02, -187500.02, -187500.02, -187500.02, -187500.02, 187500.00, 0.000, 0.000, 0.000, 13:34:04.566
182, 36082.11, 72007.23, -187500.02, -187500.02, -187500.02, -187500.02, -187500.02, 187500.00, 0.000, 0.000, 0.000, 13:34:04.567
183, 34461.40, 70813.74, -187500.02, -187500.02, -187500.02, -187500.02, -187500.02, 187500.00, 0.000, 0.000, 0.000, 13:34:04.567
184, 34744.96, 71026.94, -187500.02, -187500.02, -187500.02, -187500.02, -187500.02, 187500.00, 0.000, 0.000, 0.000, 13:34:04.567
185, 36156.49, 72074.67, -187500.02, -187500.02, -187500.02, -187500.02, -187500.02, 187500.00, 0.292, 0.980, -0.084, 13:34:04.567
186, 36367.49, 72218.98, -187500.02, -187500.02, -187500.02, -187500.02, -187500.02, 187500.00, 0.000, 0.000, 0.000, 13:34:04.568
187, 34636.02, 70953.06, -187500.02, -187500.02, -187500.02, -187500.02, -187500.02, 187500.00, 0.000, 0.000, 0.000, 13:34:04.568
188, 34609.73, 70944.26, -187500.02, -187500.02, -187500.02, -187500.02, -187500.02, 187500.00, 0.000, 0.000, 0.000, 13:34:04.568
189, 35879.22, 71881.71, -187500.02, -187500.02, -187500.02, -187500.02, -187500.02, 187500.00, 0.000, 0.000, 0.000, 13:34:04.569
190, 36538.30, 72360.51, -187500.02, -187500.02, -187500.02, -187500.02, -187500.02, 187500.00, 0.000, 0.000, 0.000, 13:34:04.569
191, 34856.07, 71124.27, -187500.02, -187500.02, -187500.02, -187500.02, -187500.02, 187500.00, 0.000, 0.000, 0.000, 13:34:04.569
192, 34495.07, 70843.77, -187500.02, -187500.02, -187500.02, -187500.02, -187500.02, 187500.00, 0.000, 0.000, 0.000, 13:34:04.569
193, 35622.93, 71669.86, -187500.02, -187500.02, -187500.02, -187500.02, -187500.02, 187500.00, 0.000, 0.000, 0.000, 13:34:04.570
194, 36657.62, 72423.74, -187500.02, -187500.02, -187500.02, -187500.02, -187500.02, 187500.00, 0.000, 0.000, 0.000, 13:34:04.570
195, 35164.97, 71337.11, -187500.02, -187500.02, -187500.02, -187500.02, -187500.02, 187500.00, 0.286, 0.976, -0.092, 13:34:04.570
196, 34422.64, 70804.80, -187500.02, -187500.02, -187500.02, -187500.02, -187500.02, 187500.00, 0.000, 0.000, 0.000, 13:34:04.571
197, 35361.60, 71488.92, -187500.02, -187500.02, -187500.02, -187500.02, -187500.02, 187500.00, 0.000, 0.000, 0.000, 13:34:04.571
198, 36652.48, 72432.23, -187500.02, -187500.02, -187500.02, -187500.02, -187500.02, 187500.00, 0.000, 0.000, 0.000, 13:34:04.571
199, 35521.21, 71598.85, -187500.02, -187500.02, -187500.02, -187500.02, -187500.02, 187500.00, 0.000, 0.000, 0.000, 13:34:04.572
200, 34400.50, 70786.48, -187500.02, -187500.02, -187500.02, -187500.02, -187500.02, 187500.00, 0.000, 0.000, 0.000, 13:34:04.573
201, 35102.16, 71295.45, -187500.02, -187500.02, -187500.02, -187500.02, -187500.02, 187500.00, 0.000, 0.000, 0.000, 13:34:04.573
202, 36515.13, 72319.38, -187500.02, -187500.02, -187500.02, -187500.02, -187500.02, 187500.00, 0.000, 0.000, 0.000, 13:34:04.573
203, 35831.05, 71825.90, -187500.02, -187500.02, -187500.02, -187500.02, -187500.02, 187500.00, 0.000, 0.000, 0.000, 13:34:04.574
204, 34423.34, 70812.65, -187500.02, -187500.02, -187500.02, -187500.02, -187500.02, 187500.00, 0.288, 0.970, -0.092, 13:34:04.574
205, 34897.31, 71157.40, -187500.02, -187500.02, -187500.02, -187500.02, -187500.02, 187500.00, 0.000, 0.000, 0.000, 13:34:04.574
206, 36321.16, 72194.86, -187500.02, -187500.02, -187500.02, -187500.02, -187500.02, 187500.00, 0.000, 0.000, 0.000, 13:34:04.575
207, 36158.21, 72067.52, -187500.02, -187500.02, -187500.02, -187500.02, -187500.02, 187500.00, 0.000, 0.000, 0.000, 13:34:04.576
208, 34516.12, 70891.15, -187500.02, -187500.02, -187500.02, -187500.02, -187500.02, 187500.00, 0.000, 0.000, 0.000, 13:34:04.576
209, 34697.06, 71015.18, -187500.02, -187500.02, -187500.02, -187500.02, -187500.02, 187500.00, 0.000, 0.000, 0.000, 13:34:04.576
210, 36054.01, 71982.88, -187500.02, -187500.02, -187500.02, -187500.02, -187500.02, 187500.00, 0.000, 0.000, 0.000, 13:34:04.577
211, 36392.02, 72225.57, -187500.02, -187500.02, -187500.02, -187500.02, -187500.02, 187500.00, 0.000, 0.000, 0.000, 13:34:04.577
212, 34684.70, 71015.85, -187500.02, -187500.02, -187500.02, -187500.02, -187500.02, 187500.00, 0.000, 0.000, 0.000, 13:34:05.013
213, 34566.43, 70925.44, -187500.02, -187500.02, -187500.02, -187500.02, -187500.02, 187500.00, 0.000, 0.000, 0.000, 13:34:05.014
214, 35798.80, 71803.45, -187500.02, -187500.02, -187500.02, -187500.02, -187500.02, 187500.00, 0.288, 0.978, -0.088, 13:34:05.015
215, 36570.71, 72344.57, -187500.02, -187500.02, -187500.02, -187500.02, -187500.02, 187500.00, 0.000, 0.000, 0.000, 13:34:05.016
216, 34937.14, 71178.66, -187500.02, -187500.02, -187500.02, -187500.02, -187500.02, 187500.00, 0.000, 0.000, 0.000, 13:34:05.016
217, 34456.55, 70835.09, -187500.02, -187500.02, -187500.02, -187500.02, -187500.02, 187500.00, 0.000, 0.000, 0.000, 13:34:05.017
218, 35523.05, 71579.63, -187500.02, -187500.02, -187500.02, -187500.02, -187500.02, 187500.00, 0.000, 0.000, 0.000, 13:34:05.017
219, 36635.60, 72370.43, -187500.02, -187500.02, -187500.02, -187500.02, -187500.02, 187500.00, 0.000, 0.000, 0.000, 13:34:05.017
220, 35259.36, 71407.65, -187500.02, -187500.02, -187500.02, -187500.02, -187500.02, 187500.00, 0.000, 0.000, 0.000, 13:34:05.018
221, 34413.84, 70811.64, -187500.02, -187500.02, -187500.02, -187500.02, -187500.02, 187500.00, 0.000, 0.000, 0.000, 13:34:05.018
222, 35263.25, 71401.70, -187500.02, -187500.02, -187500.02, -187500.02, -187500.02, 187500.00, 0.000, 0.000, 0.000, 13:34:05.019
223, 36586.18, 72337.30, -187500.02, -187500.02, -187500.02, -187500.02, -187500.02, 187500.00, 0.000, 0.000, 0.000, 13:34:05.019
224, 35584.20, 71637.65, -187500.02, -187500.02, -187500.02, -187500.02, -187500.02, 187500.00, 0.292, 0.974, -0.094, 13:34:05.020
225, 34377.32, 70803.40, -187500.02, -187500.02, -187500.02, -187500.02, -187500.02, 187500.00, 0.000, 0.000, 0.000, 13:34:05.020
226, 35007.82, 71239.23, -187500.02, -187500.02, -187500.02, -187500.02, -187500.02, 187500.00, 0.000, 0.000, 0.000, 13:34:05.020
227, 36434.21, 72238.73, -187500.02, -187500.02, -187500.02, -187500.02, -187500.02, 187500.00, 0.000, 0.000, 0.000, 13:34:05.021
228, 35925.80, 71879.84, -187500.02, -187500.02, -187500.02, -187500.02, -187500.02, 187500.00, 0.000, 0.000, 0.000, 13:34:05.021
229, 34472.94, 70855.50, -187500.02, -187500.02, -187500.02, -187500.02, -187500.02, 187500.00, 0.000, 0.000, 0.000, 13:34:05.021
230, 34852.47, 71108.67, -187500.02, -187500.02, -187500.02, -187500.02, -187500.02, 187500.00, 0.000, 0.000, 0.000, 13:34:05.022
231, 36224.67, 72081.78, -187500.02, -187500.02, -187500.02, -187500.02, -187500.02, 187500.00, 0.000, 0.000, 0.000, 13:34:05.022
232, 36216.38, 72068.91, -187500.02, -187500.02, -187500.02, -187500.02, -187500.02, 187500.00, 0.000, 0.000, 0.000, 13:34:05.022
233, 34591.27, 70918.64, -187500.02, -187500.02, -187500.02, -187500.02, -187500.02, 187500.00, 0.000, 0.000, 0.000, 13:34:05.023
234, 34685.35, 70986.52, -187500.02, -187500.02, -187500.02, -187500.02, -187500.02, 187500.00, 0.292, 0.974, -0.096, 13:34:05.023
235, 35962.93, 71905.63, -187500.02, -187500.02, -187500.02, -187500.02, -187500.02, 187500.00, 0.000, 0.000, 0.000, 13:34:05.023
236, 36412.76, 72231.74, -187500.02, -187500.02, -187500.02, -187500.02, -187500.02, 187500.00, 0.000, 0.000, 0.000, 13:34:05.023
237, 34781.39, 71070.14, -187500.02, -187500.02, -187500.02, -187500.02, -187500.02, 187500.00, 0.000, 0.000, 0.000, 13:34:05.024
238, 34576.83, 70908.74, -187500.02, -187500.02, -187500.02, -187500.02, -187500.02, 187500.00, 0.000, 0.000, 0.000, 13:34:05.024
239, 35699.40, 71713.85, -187500.02, -187500.02, -187500.02, -187500.02, -187500.02, 187500.00, 0.000, 0.000, 0.000, 13:34:05.025
240, 36545.61, 72316.20, -187500.02, -187500.02, -187500.02, -187500.02, -187500.02, 187500.00, 0.000, 0.000, 0.000, 13:34:05.025
241, 35033.92, 71228.32, -187500.02, -187500.02, -187500.02, -187500.02, -187500.02, 187500.00, 0.000, 0.000, 0.000, 13:34:05.025
242, 34482.39, 70826.06, -187500.02, -187500.02, -187500.02, -187500.02, -187500.02, 187500.00, 0.000, 0.000, 0.000, 13:34:05.028
243, 35434.40, 71520.75, -187500.02, -187500.02, -187500.02, -187500.02, -187500.02, 187500.00, 0.000, 0.000, 0.000, 13:34:05.029
244, 36584.95, 72346.11, -187500.02, -187500.02, -187500.02, -187500.02, -187500.02, 187500.00, 0.286, 0.972, -0.100, 13:34:05.029
245, 35350.20, 71461.56, -187500.02, -187500.02, -187500.02, -187500.02, -187500.02, 187500.00, 0.000, 0.000, 0.000, 13:34:05.029
246, 34441.87, 70817.23, -187500.02, -187500.02, -187500.02, -187500.02, -187500.02, 187500.00, 0.000, 0.000, 0.000, 13:34:05.030
247, 35195.14, 71352.98, -187500.02, -187500.02, -187500.02, -187500.02, -187500.02, 187500.00, 0.000, 0.000, 0.000, 13:34:05.030
248, 36518.68, 72297.59, -187500.02, -187500.02, -187500.02, -187500.02, -187500.02, 187500.00, 0.000, 0.000, 0.000, 13:34:05.031
249, 35686.79, 71709.65, -187500.02, -187500.02, -187500.02, -187500.02, -187500.02, 187500.00, 0.000, 0.000, 0.000, 13:34:05.031
250, 34440.71, 70826.59, -187500.02, -187500.02, -187500.02, -187500.02, -187500.02, 187500.00, 0.000, 0.000, 0.000, 13:34:05.031
251, 34962.42, 71198.64, -187500.02, -187500.02, -187500.02, -187500.02, -187500.02, 187500.00, 0.000, 0.000, 0.000, 13:34:05.032
252, 36365.35, 72187.15, -187500.02, -187500.02, -187500.02, -187500.02, -187500.02, 187500.00, 0.000, 0.000, 0.000, 13:34:05.032
253, 36028.53, 71928.56, -187500.02, -187500.02, -187500.02, -187500.02, -187500.02, 187500.00, 0.000, 0.000, 0.000, 13:34:05.032
254, 34528.26, 70873.00, -187500.02, -187500.02, -187500.02, -187500.02, -187500.02, 187500.00, 0.296, 0.980, -0.102, 13:34:05.033
255, 34817.45, 71087.93, -187500.02, -187500.02, -187500.02, -187500.02, -187500.02, 187500.00, 0.000, 0.000, 0.000, 13:34:05.033
0, 36148.11, 72041.97, -187500.02, -187500.02, -187500.02, -187500.02, -187500.02, 187500.00, 0.000, 0.000, 0.000, 13:34:05.033
1, 36262.02, 72135.52, -187500.02, -187500.02, -187500.02, -187500.02, -187500.02, 187500.00, 0.000, 0.000, 0.000, 13:34:05.034
2, 34633.63, 70991.33, -187500.02, -187500.02, -187500.02, -187500.02, -187500.02, 187500.00, 0.000, 0.000, 0.000, 13:34:05.034
3, 34669.14, 70998.05, -187500.02, -187500.02, -187500.02, -187500.02, -187500.02, 187500.00, 0.000, 0.000, 0.000, 13:34:05.034
4, 35909.30, 71868.10, -187500.02, -187500.02, -187500.02, -187500.02, -187500.02, 187500.00, 0.000, 0.000, 0.000, 13:34:05.035
5, 36452.34, 72267.91, -187500.02, -187500.02, -187500.02, -187500.02, -187500.02, 187500.00, 0.000, 0.000, 0.000, 13:34:05.035
6, 34814.81, 71131.92, -187500.02, -187500.02, -187500.02, -187500.02, -187500.02, 187500.00, 0.000, 0.000, 0.000, 13:34:05.035
7, 34553.74, 70920.00, -187500.02, -187500.02, -187500.02, -187500.02, -187500.02, 187500.00, 0.294, 0.974, -0.102, 13:34:05.036
8, 35663.19, 71678.17, -187500.02, -187500.02, -187500.02, -187500.02, -187500.02, 187500.00, 0.000, 0.000, 0.000, 13:34:05.036
9, 36610.32, 72349.02, -187500.02, -187500.02, -187500.02, -187500.02, -187500.02, 187500.00, 0.000, 0.000, 0.000, 13:34:05.036
10, 35149.57, 71329.69, -187500.02, -187500.02, -187500.02, -187500.02, -187500.02, 187500.00, 0.000, 0.000, 0.000, 13:34:05.037
11, 34473.25, 70852.45, -187500.02, -187500.02, -187500.02, -187500.02, -187500.02, 187500.00, 0.000, 0.000, 0.000, 13:34:05.037
12, 35379.70, 71486.40, -187500.02, -187500.02, -187500.02, -187500.02, -187500.02, 187500.00, 0.000, 0.000, 0.000, 13:34:05.037
13, 36604.76, 72338.49, -187500.02, -187500.02, -187500.02, -187500.02, -187500.02, 187500.00, 0.000, 0.000, 0.000, 13:34:05.037
14, 35456.57, 71536.11, -187500.02, -187500.02, -187500.02, -187500.02, -187500.02, 187500.00, 0.000, 0.000, 0.000, 13:34:05.038
15, 34420.61, 70827.47, -187500.02, -187500.02, -187500.02, -187500.02, -187500.02, 187500.00, 0.000, 0.000, 0.000, 13:34:05.038
16, 35116.36, 71319.97, -187500.02, -187500.02, -187500.02, -187500.02, -187500.02, 187500.00, 0.000, 0.000, 0.000, 13:34:05.038
17, 36496.22, 72276.22, -187500.02, -187500.02, -187500.02, -187500.02, -187500.02, 187500.00, 0.290, 0.984, -0.102, 13:34:05.039
18, 35802.66, 71776.73, -187500.02, -187500.02, -187500.02, -187500.02, -187500.02, 187500.00, 0.000, 0.000, 0.000, 13:34:05.039
19, 34462.90, 70839.36, -187500.02, -187500.02, -187500.02, -187500.02, -187500.02, 187500.00, 0.000, 0.000, 0.000, 13:34:05.039
20, 34935.42, 71162.52, -187500.02, -187500.02, -187500.02, -187500.02, -187500.02, 187500.00, 0.000, 0.000, 0.000, 13:34:05.040
21, 36333.39, 72155.45, -187500.02, -187500.02, -187500.02, -187500.02, -187500.02, 187500.00, 0.000, 0.000, 0.000, 13:34:05.040
22, 36108.93, 71999.15, -187500.02, -187500.02, -187500.02, -187500.02, -187500.02, 187500.00, 0.000, 0.000, 0.000, 13:34:05.041
23, 34532.86, 70905.54, -187500.02, -187500.02, -187500.02, -187500.02, -187500.02, 187500.00, 0.000, 0.000, 0.000, 13:34:05.041
24, 34765.99, 71054.92, -187500.02, -187500.02, -187500.02, -187500.02, -187500.02, 187500.00, 0.000, 0.000, 0.000, 13:34:05.041
25, 36111.70, 71995.75, -187500.02, -187500.02, -187500.02, -187500.02, -187500.02, 187500.00, 0.000, 0.000, 0.000, 13:34:05.041
26, 36367.61, 72180.89, -187500.02, -187500.02, -187500.02, -187500.02, -187500.02, 187500.00, 0.000, 0.000, 0.000, 13:34:05.042
27, 34704.95, 71015.29, -187500.02, -187500.02, -187500.02, -187500.02, -187500.02, 187500.00, 0.286, 0.976, -0.098, 13:34:05.042
28, 34619.57, 70947.30, -187500.02, -187500.02, -187500.02, -187500.02, -187500.02, 187500.00, 0.000, 0.000, 0.000, 13:34:05.042
29, 35822.20, 71797.73, -187500.02, -187500.02, -187500.02, -187500.02, -187500.02, 187500.00, 0.000, 0.000, 0.000, 13:34:05.043
30, 36519.96, 72290.59, -187500.02, -187500.02, -187500.02, -187500.02, -187500.02, 187500.00, 0.000, 0.000, 0.000, 13:34:05.043
31, 34918.70, 71183.76, -187500.02, -187500.02, -187500.02, -187500.02, -187500.02, 187500.00, 0.000, 0.000, 0.000, 13:34:05.043
32, 34500.12, 70890.43, -187500.02, -187500.02, -187500.02, -187500.02, -187500.02, 187500.00, 0.000, 0.000, 0.000, 13:34:05.044
33, 35555.12, 71614.05, -187500.02, -187500.02, -187500.02, -187500.02, -187500.02, 187500.00, 0.000, 0.000, 0.000, 13:34:05.045
34, 36609.70, 72359.34, -187500.02, -187500.02, -187500.02, -187500.02, -187500.02, 187500.00, 0.000, 0.000, 0.000, 13:34:05.045
35, 35213.29, 71388.88, -187500.02, -187500.02, -187500.02, -187500.02, -187500.02, 187500.00, 0.000, 0.000, 0.000, 13:34:05.045
36, 34444.77, 70850.78, -187500.02, -187500.02, -187500.02, -187500.02, -187500.02, 187500.00, 0.000, 0.000, 0.000, 13:34:05.046
37, 35291.44, 71444.51, -187500.02, -187500.02, -187500.02, -187500.02, -187500.02, 187500.00, 0.288, 0.978, -0.106, 13:34:05.046
38, 36558.82, 72346.72, -187500.02, -187500.02, -187500.02, -187500.02, -187500.02, 187500.00, 0.000, 0.000, 0.000, 13:34:05.046
39, 35539.74, 71620.15, -187500.02, -187500.02, -187500.02, -187500.02, -187500.02, 187500.00, 0.000, 0.000, 0.000, 13:34:05.047
40, 34466.25, 70841.30, -187500.02, -187500.02, -187500.02, -187500.02, -187500.02, 187500.00, 0.000, 0.000, 0.000, 13:34:05.047
41, 35097.73, 71280.41, -187500.02, -187500.02, -187500.02, -187500.02, -187500.02, 187500.00, 0.000, 0.000, 0.000, 13:34:05.047
42, 36466.78, 72251.41, -187500.02, -187500.02, -187500.02, -187500.02, -187500.02, 187500.00, 0.000, 0.000, 0.000, 13:34:05.048
43, 35886.86, 71846.15, -187500.02, -187500.02, -187500.02, -187500.02, -187500.02, 187500.00, 0.000, 0.000, 0.000, 13:34:05.048
44, 34496.77, 70877.67, -187500.02, -187500.02, -187500.02, -187500.02, -187500.02, 187500.00, 0.000, 0.000, 0.000, 13:34:05.048
45, 34887.88, 71150.96, -187500.02, -187500.02, -187500.02, -187500.02, -187500.02, 187500.00, 0.000, 0.000, 0.000, 13:34:05.049
46, 36264.88, 72120.20, -187500.02, -187500.02, -187500.02, -187500.02, -187500.02, 187500.00, 0.000, 0.000, 0.000, 13:34:05.049
47, 36167.71, 72060.48, -187500.02, -187500.02, -187500.02, -187500.02, -187500.02, 187500.00, 0.288, 0.976, -0.098, 13:34:05.049
48, 34585.10, 70948.48, -187500.02, -187500.02, -187500.02, -187500.02, -187500.02, 187500.00, 0.000, 0.000, 0.000, 13:34:05.050
49, 34738.79, 71028.90, -187500.02, -187500.02, -187500.02, -187500.02, -187500.02, 187500.00, 0.000, 0.000, 0.000, 13:34:05.050
50, 36016.62, 71935.91, -187500.02, -187500.02, -187500.02, -187500.02, -187500.02, 187500.00, 0.000, 0.000, 0.000, 13:34:05.050
51, 36402.45, 72217.01, -187500.02, -187500.02, -187500.02, -187500.02, -187500.02, 187500.00, 0.000, 0.000, 0.000, 13:34:05.050
52, 34773.77, 71066.34, -187500.02, -187500.02, -187500.02, -187500.02, -187500.02, 187500.00, 0.000, 0.000, 0.000, 13:34:05.051
53, 34590.62, 70935.02, -187500.02, -187500.02, -187500.02, -187500.02, -187500.02, 187500.00, 0.000, 0.000, 0.000, 13:34:05.051
54, 35727.00, 71748.34, -187500.02, -187500.02, -187500.02, -187500.02, -187500.02, 187500.00, 0.000, 0.000, 0.000, 13:34:05.051
55, 36524.16, 72321.26, -187500.02, -187500.02, -187500.02, -187500.02, -187500.02, 187500.00, 0.000, 0.000, 0.000, 13:34:05.052
56, 35004.24, 71231.45, -187500.02, -187500.02, -187500.02, -187500.02, -187500.02, 187500.00, 0.000, 0.000, 0.000, 13:34:05.052
57, 34502.35, 70868.10, -187500.02, -187500.02, -187500.02, -187500.02, -187500.02, 187500.00, 0.294, 0.972, -0.100, 13:34:05.052
58, 35428.41, 71541.47, -187500.02, -187500.02, -187500.02, -187500.02, -187500.02, 187500.00, 0.000, 0.000, 0.000, 13:34:05.052
59, 36522.84, 72341.93, -187500.02, -187500.02, -187500.02, -187500.02, -187500.02, 187500.00, 0.000, 0.000, 0.000, 13:34:05.053
60, 35304.54, 71456.45, -187500.02, -187500.02, -187500.02, -187500.02, -187500.02, 187500.00, 0.000, 0.000, 0.000, 13:34:05.053
61, 34475.51, 70849.40, -187500.02, -187500.02, -187500.02, -187500.02, -187500.02, 187500.00, 0.000, 0.000, 0.000, 13:34:05.053
62, 35230.77, 71388.52, -187500.02, -187500.02, -187500.02, -187500.02, -187500.02, 187500.00, 0.000, 0.000, 0.000, 13:34:05.054
63, 36476.10, 72308.83, -187500.02, -187500.02, -187500.02, -187500.02, -187500.02, 187500.00, 0.000, 0.000, 0.000, 13:34:05.054
64, 35587.98, 71678.29, -187500.02, -187500.02, -187500.02, -187500.02, -187500.02, 187500.00, 0.000, 0.000, 0.000, 13:34:05.054
65, 34473.12, 70842.04, -187500.02, -187500.02, -187500.02, -187500.02, -187500.02, 187500.00, 0.000, 0.000, 0.000, 13:34:05.054
66, 35031.91, 71224.48, -187500.02, -187500.02, -187500.02, -187500.02, -187500.02, 187500.00, 0.000, 0.000, 0.000, 13:34:05.055
67, 36335.35, 72192.22, -187500.02, -187500.02, -187500.02, -187500.02, -187500.02, 187500.00, 0.298, 0.970, -0.104, 13:34:05.055
68, 35906.04, 71894.70, -187500.02, -187500.02, -187500.02, -187500.02, -187500.02, 187500.00, 0.000, 0.000, 0.000, 13:34:05.055
69, 34508.88, 70895.26, -187500.02, -187500.02, -187500.02, -187500.02, -187500.02, 187500.00, 0.000, 0.000, 0.000, 13:34:05.056
70, 34840.85, 71112.70, -187500.02, -187500.02, -187500.02, -187500.02, -187500.02, 187500.00, 0.000, 0.000, 0.000, 13:34:05.056
71, 36136.98, 72049.64, -187500.02, -187500.02, -187500.02, -187500.02, -187500.02, 187500.00, 0.000, 0.000, 0.000, 13:34:05.056
72, 36203.57, 72096.63, -187500.02, -187500.02, -187500.02, -187500.02, -187500.02, 187500.00, 0.000, 0.000, 0.000, 13:34:05.057
73, 34692.39, 71003.63, -187500.02, -187500.02, -187500.02, -187500.02, -187500.02, 187500.00, 0.000, 0.000, 0.000, 13:34:05.057
74, 34746.68, 71027.41, -187500.02, -187500.02, -187500.02, -187500.02, -187500.02, 187500.00, 0.000, 0.000, 0.000, 13:34:05.058
75, 35901.32, 71870.22, -187500.02, -187500.02, -187500.02, -187500.02, -187500.02, 187500.00, 0.000, 0.000, 0.000, 13:34:05.058
76, 36372.79, 72232.92, -187500.02, -187500.02, -187500.02, -187500.02, -187500.02, 187500.00, 0.292, 0.970, -0.098, 13:34:05.491
77, 34875.16, 71148.53, -187500.02, -187500.02, -187500.02, -187500.02, -187500.02, 187500.00, 0.000, 0.000, 0.000, 13:34:05.492
78, 34628.39, 70959.27, -187500.02, -187500.02, -187500.02, -187500.02, -187500.02, 187500.00, 0.000, 0.000, 0.000, 13:34:05.492
79, 35617.35, 71680.74, -187500.02, -187500.02, -187500.02, -187500.02, -187500.02, 187500.00, 0.000, 0.000, 0.000, 13:34:05.492
80, 36461.15, 72296.78, -187500.02, -187500.02, -187500.02, -187500.02, -187500.02, 187500.00, 0.000, 0.000, 0.000, 13:34:05.493
81, 35122.50, 71321.60, -187500.02, -187500.02, -187500.02, -187500.02, -187500.02, 187500.00, 0.000, 0.000, 0.000, 13:34:05.493
82, 34567.26, 70911.66, -187500.02, -187500.02, -187500.02, -187500.02, -187500.02, 187500.00, 0.000, 0.000, 0.000, 13:34:05.493
83, 35393.18, 71511.54, -187500.02, -187500.02, -187500.02, -187500.02, -187500.02, 187500.00, 0.000, 0.000, 0.000, 13:34:05.494
84, 36464.14, 72299.89, -187500.02, -187500.02, -187500.02, -187500.02, -187500.02, 187500.00, 0.000, 0.000, 0.000, 13:34:05.494
85, 35416.92, 71542.74, -187500.02, -187500.02, -187500.02, -187500.02, -187500.02, 187500.00, 0.000, 0.000, 0.000, 13:34:05.494
86, 34557.96, 70915.02, -187500.02, -187500.02, -187500.02, -187500.02, -187500.02, 187500.00, 0.294, 0.972, -0.090, 13:34:05.494
87, 35178.71, 71359.38, -187500.02, -187500.02, -187500.02, -187500.02, -187500.02, 187500.00, 0.000, 0.000, 0.000, 13:34:05.495
88, 36358.38, 72220.34, -187500.02, -187500.02, -187500.02, -187500.02, -187500.02, 187500.00, 0.000, 0.000, 0.000, 13:34:05.495
89, 35685.41, 71729.18, -187500.02, -187500.02, -187500.02, -187500.02, -187500.02, 187500.00, 0.000, 0.000, 0.000, 13:34:05.495
90, 34560.15, 70913.59, -187500.02, -187500.02, -187500.02, -187500.02, -187500.02, 187500.00, 0.000, 0.000, 0.000, 13:34:05.496
91, 34979.88, 71217.38, -187500.02, -187500.02, -187500.02, -187500.02, -187500.02, 187500.00, 0.000, 0.000, 0.000, 13:34:05.496
92, 36171.47, 72090.12, -187500.02, -187500.02, -187500.02, -187500.02, -187500.02, 187500.00, 0.000, 0.000, 0.000, 13:34:05.496
93, 35936.78, 71919.77, -187500.02, -187500.02, -187500.02, -187500.02, -187500.02, 187500.00, 0.000, 0.000, 0.000, 13:34:05.497
94, 34642.63, 70981.67, -187500.02, -187500.02, -187500.02, -187500.02, -187500.02, 187500.00, 0.000, 0.000, 0.000, 13:34:05.497
95, 34851.24, 71111.23, -187500.02, -187500.02, -187500.02, -187500.02, -187500.02, 187500.00, 0.000, 0.000, 0.000, 13:34:05.498
96, 35991.92, 71933.86, -187500.02, -187500.02, -187500.02, -187500.02, -187500.02, 187500.00, 0.296, 0.970, -0.094, 13:34:05.498
97, 36174.42, 72079.43, -187500.02, -187500.02, -187500.02, -187500.02, -187500.02, 187500.00, 0.000, 0.000, 0.000, 13:34:05.498
98, 34778.46, 71089.12, -187500.02, -187500.02, -187500.02, -187500.02, -187500.02, 187500.00, 0.000, 0.000, 0.000, 13:34:05.499
99, 34729.16, 71055.84, -187500.02, -187500.02, -187500.02, -187500.02, -187500.02, 187500.00, 0.000, 0.000, 0.000, 13:34:05.499
100, 35775.87, 71774.89, -187500.02, -187500.02, -187500.02, -187500.02, -187500.02, 187500.00, 0.000, 0.000, 0.000, 13:34:05.499
101, 36346.42, 72186.03, -187500.02, -187500.02, -187500.02, -187500.02, -187500.02, 187500.00, 0.000, 0.000, 0.000, 13:34:05.500
102, 34988.70, 71233.09, -187500.02, -187500.02, -187500.02, -187500.02, -187500.02, 187500.00, 0.000, 0.000, 0.000, 13:34:05.500
103, 34672.54, 71003.29, -187500.02, -187500.02, -187500.02, -187500.02, -187500.02, 187500.00, 0.000, 0.000, 0.000, 13:34:05.500
104, 35550.09, 71617.02, -187500.02, -187500.02, -187500.02, -187500.02, -187500.02, 187500.00, 0.000, 0.000, 0.000, 13:34:05.501
105, 36390.23, 72225.03, -187500.02, -187500.02, -187500.02, -187500.02, -187500.02, 187500.00, 0.000, 0.000, 0.000, 13:34:05.501
106, 35227.89, 71388.36, -187500.02, -187500.02, -187500.02, -187500.02, -187500.02, 187500.00, 0.296, 0.972, -0.092, 13:34:05.501
107, 34641.65, 70957.02, -187500.02, -187500.02, -187500.02, -187500.02, -187500.02, 187500.00, 0.000, 0.000, 0.000, 13:34:05.502
108, 35327.63, 71447.10, -187500.02, -187500.02, -187500.02, -187500.02, -187500.02, 187500.00, 0.000, 0.000, 0.000, 13:34:05.502
109, 36361.68, 72212.12, -187500.02, -187500.02, -187500.02, -187500.02, -187500.02, 187500.00, 0.000, 0.000, 0.000, 13:34:05.502
110, 35478.01, 71592.88, -187500.02, -187500.02, -187500.02, -187500.02, -187500.02, 187500.00, 0.000, 0.000, 0.000, 13:34:05.503
111, 34606.63, 70955.16, -187500.02, -187500.02, -187500.02, -187500.02, -187500.02, 187500.00, 0.000, 0.000, 0.000, 13:34:05.503
112, 35131.71, 71320.91, -187500.02, -187500.02, -187500.02, -187500.02, -187500.02, 187500.00, 0.000, 0.000, 0.000, 13:34:05.504
113, 36246.73, 72135.58, -187500.02, -187500.02, -187500.02, -187500.02, -187500.02, 187500.00, 0.000, 0.000, 0.000, 13:34:05.504
114, 35741.62, 71774.49, -187500.02, -187500.02, -187500.02, -187500.02, -187500.02, 187500.00, 0.000, 0.000, 0.000, 13:34:05.504
115, 34637.34, 70980.82, -187500.02, -187500.02, -187500.02, -187500.02, -187500.02, 187500.00, 0.000, 0.000, 0.000, 13:34:05.505
116, 34962.22, 71209.03, -187500.02, -187500.02, -187500.02, -187500.02, -187500.02, 187500.00, 0.296, 0.972, -0.098, 13:34:05.505
117, 36069.03, 72013.16, -187500.02, -187500.02, -187500.02, -187500.02, -187500.02, 187500.00, 0.000, 0.000, 0.000, 13:34:05.505
118, 35984.36, 71955.83, -187500.02, -187500.02, -187500.02, -187500.02, -187500.02, 187500.00, 0.000, 0.000, 0.000, 13:34:05.506
119, 34725.67, 71047.41, -187500.02, -187500.02, -187500.02, -187500.02, -187500.02, 187500.00, 0.000, 0.000, 0.000, 13:34:05.506
120, 34846.21, 71125.06, -187500.02, -187500.02, -187500.02, -187500.02, -187500.02, 187500.00, 0.000, 0.000, 0.000, 13:34:05.506
121, 35877.63, 71866.51, -187500.02, -187500.02, -187500.02, -187500.02, -187500.02, 187500.00, 0.000, 0.000, 0.000, 13:34:05.506
122, 36173.64, 72083.59, -187500.02, -187500.02, -187500.02, -187500.02, -187500.02, 187500.00, 0.000, 0.000, 0.000, 13:34:05.507
123, 34863.42, 71149.02, -187500.02, -187500.02, -187500.02, -187500.02, -187500.02, 187500.00, 0.000, 0.000, 0.000, 13:34:05.507
124, 34745.03, 71051.50, -187500.02, -187500.02, -187500.02, -187500.02, -187500.02, 187500.00, 0.000, 0.000, 0.000, 13:34:05.507
125, 35640.44, 71684.32, -187500.02, -187500.02, -187500.02, -187500.02, -187500.02, 187500.00, 0.000, 0.000, 0.000, 13:34:05.508
126, 36259.22, 72141.80, -187500.02, -187500.02, -187500.02, -187500.02, -187500.02, 187500.00, 0.294, 0.974, -0.104, 13:34:05.508
127, 35044.76, 71292.07, -187500.02, -187500.02, -187500.02, -187500.02, -187500.02, 187500.00, 0.000, 0.000, 0.000, 13:34:05.508
128, 34672.38, 71019.88, -187500.02, -187500.02, -187500.02, -187500.02, -187500.02, 187500.00, 0.000, 0.000, 0.000, 13:34:05.509
129, 35416.25, 71546.68, -187500.02, -187500.02, -187500.02, -187500.02, -187500.02, 187500.00, 0.000, 0.000, 0.000, 13:34:05.509
130, 36303.55, 72183.15, -187500.02, -187500.02, -187500.02, -187500.02, -187500.02, 187500.00, 0.000, 0.000, 0.000, 13:34:05.509
131, 35279.61, 71459.95, -187500.02, -187500.02, -187500.02, -187500.02, -187500.02, 187500.00, 0.000, 0.000, 0.000, 13:34:05.510
132, 34635.84, 70993.77, -187500.02, -187500.02, -187500.02, -187500.02, -187500.02, 187500.00, 0.000, 0.000, 0.000, 13:34:05.510
133, 35244.30, 71408.03, -187500.02, -187500.02, -187500.02, -187500.02, -187500.02, 187500.00, 0.000, 0.000, 0.000, 13:34:05.510
134, 36274.69, 72147.05, -187500.02, -187500.02, -187500.02, -187500.02, -187500.02, 187500.00, 0.000, 0.000, 0.000, 13:34:05.510
135, 35553.46, 71634.48, -187500.02, -187500.02, -187500.02, -187500.02, -187500.02, 187500.00, 0.290, 0.974, -0.100, 13:34:05.511
136, 34655.21, 70994.19, -187500.02, -187500.02, -187500.02, -187500.02, -187500.02, 187500.00, 0.000, 0.000, 0.000, 13:34:05.511
137, 35093.42, 71294.84, -187500.02, -187500.02, -187500.02, -187500.02, -187500.02, 187500.00, 0.000, 0.000, 0.000, 13:34:05.511
138, 36151.20, 72068.13, -187500.02, -187500.02, -187500.02, -187500.02, -187500.02, 187500.00, 0.000, 0.000, 0.000, 13:34:05.512
139, 35761.25, 71807.34, -187500.02, -187500.02, -187500.02, -187500.02, -187500.02, 187500.00, 0.000, 0.000, 0.000, 13:34:05.512
140, 34668.16, 71012.92, -187500.02, -187500.02, -187500.02, -187500.02, -187500.02, 187500.00, 0.000, 0.000, 0.000, 13:34:05.512
141, 34943.69, 71196.09, -187500.02, -187500.02, -187500.02, -187500.02, -187500.02, 187500.00, 0.000, 0.000, 0.000, 13:34:05.512
142, 35987.98, 71958.00, -187500.02, -187500.02, -187500.02, -187500.02, -187500.02, 187500.00, 0.000, 0.000, 0.000, 13:34:05.513
143, 36025.22, 71985.76, -187500.02, -187500.02, -187500.02, -187500.02, -187500.02, 187500.00, 0.000, 0.000, 0.000, 13:34:05.513
144, 34787.76, 71098.64, -187500.02, -187500.02, -187500.02, -187500.02, -187500.02, 187500.00, 0.000, 0.000, 0.000, 13:34:05.513
145, 34824.08, 71124.03, -187500.02, -187500.02, -187500.02, -187500.02, -187500.02, 187500.00, 0.286, 0.974, -0.098, 13:34:05.514
146, 35814.51, 71821.88, -187500.02, -187500.02, -187500.02, -187500.02, -187500.02, 187500.00, 0.000, 0.000, 0.000, 13:34:05.514
147, 36214.50, 72108.70, -187500.02, -187500.02, -187500.02, -187500.02, -187500.02, 187500.00, 0.000, 0.000, 0.000, 13:34:05.515
148, 34935.98, 71194.28, -187500.02, -187500.02, -187500.02, -187500.02, -187500.02, 187500.00, 0.000, 0.000, 0.000, 13:34:05.515
149, 34738.75, 71043.99, -187500.02, -187500.02, -187500.02, -187500.02, -187500.02, 187500.00, 0.000, 0.000, 0.000, 13:34:05.515
150, 35590.70, 71650.50, -187500.02, -187500.02, -187500.02, -187500.02, -187500.02, 187500.00, 0.000, 0.000, 0.000, 13:34:05.516
151, 36294.58, 72161.29, -187500.02, -187500.02, -187500.02, -187500.02, -187500.02, 187500.00, 0.000, 0.000, 0.000, 13:34:05.516
152, 35122.43, 71332.13, -187500.02, -187500.02, -187500.02, -187500.02, -187500.02, 187500.00, 0.000, 0.000, 0.000, 13:34:05.516
153, 34679.22, 71013.75, -187500.02, -187500.02, -187500.02, -187500.02, -187500.02, 187500.00, 0.000, 0.000, 0.000, 13:34:05.516
154, 35383.46, 71510.47, -187500.02, -187500.02, -187500.02, -187500.02, -187500.02, 187500.00, 0.000, 0.000, 0.000, 13:34:05.517
155, 36302.09, 72177.13, -187500.02, -187500.02, -187500.02, -187500.02, -187500.02, 187500.00, 0.288, 0.974, -0.100, 13:34:05.517
