%OpenBCI Raw EEG Data
%
%Sample Rate = 250.0 Hz
%First Column = SampleIndex
%Last Column = Timestamp 
%Other Columns = EEG data in microvolts followed by Accel Data (in G) interleaved with Aux Data
0, 0.00, 0.00, 0.00, 0.00, 0.00, 0.00, 0.00, 0.00, 0.368, 0.940, -0.100, 13:36:54.714
1, 37432.73, 77557.94, -187500.02, -187500.02, -187500.02, -187500.02, -187500.02, 187500.00, 0.000, 0.000, 0.000, 13:36:55.195
2, 36374.33, 76807.95, -187500.02, -187500.02, -187500.02, -187500.02, -187500.02, 187500.00, 0.000, 0.000, 0.000, 13:36:55.196
3, 36830.96, 77122.52, -187500.02, -187500.02, -187500.02, -187500.02, -187500.02, 187500.00, 0.000, 0.000, 0.000, 13:36:55.196
4, 38029.95, 78001.91, -187500.02, -187500.02, -187500.02, -187500.02, -187500.02, 187500.00, 0.000, 0.000, 0.000, 13:36:55.196
5, 37680.05, 77772.38, -187500.02, -187500.02, -187500.02, -187500.02, -187500.02, 187500.00, 0.000, 0.000, 0.000, 13:36:55.197
6, 36371.38, 76819.21, -187500.02, -187500.02, -187500.02, -187500.02, -187500.02, 187500.00, 0.000, 0.000, 0.000, 13:36:55.197
7, 36643.23, 76984.34, -187500.02, -187500.02, -187500.02, -187500.02, -187500.02, 187500.00, 0.396, 0.926, -0.144, 13:36:55.197
8, 37868.23, 77879.58, -187500.02, -187500.02, -187500.02, -187500.02, -187500.02, 187500.00, 0.000, 0.000, 0.000, 13:36:55.198
9, 37933.03, 77944.24, -187500.02, -187500.02, -187500.02, -187500.02, -187500.02, 187500.00, 0.000, 0.000, 0.000, 13:36:55.198
10, 36477.13, 76875.91, -187500.02, -187500.02, -187500.02, -187500.02, -187500.02, 187500.00, 0.000, 0.000, 0.000, 13:36:55.198
11, 36518.17, 76878.89, -187500.02, -187500.02, -187500.02, -187500.02, -187500.02, 187500.00, 0.000, 0.000, 0.000, 13:36:55.198
12, 37690.36, 77750.48, -187500.02, -187500.02, -187500.02, -187500.02, -187500.02, 187500.00, 0.000, 0.000, 0.000, 13:36:55.199
13, 38157.09, 78125.34, -187500.02, -187500.02, -187500.02, -187500.02, -187500.02, 187500.00, 0.000, 0.000, 0.000, 13:36:55.199
14, 36623.76, 76992.08, -187500.02, -187500.02, -187500.02, -187500.02, -187500.02, 187500.00, 0.000, 0.000, 0.000, 13:36:55.199
15, 36386.47, 76755.80, -187500.02, -187500.02, -187500.02, -187500.02, -187500.02, 187500.00, 0.000, 0.000, 0.000, 13:36:55.199
16, 37466.84, 77543.07, -187500.02, -187500.02, -187500.02, -187500.02, -187500.02, 187500.00, 0.000, 0.000, 0.000, 13:36:55.200
17, 38298.06, 78202.70, -187500.02, -187500.02, -187500.02, -187500.02, -187500.02, 187500.00, 0.404, 0.916, -0.168, 13:36:55.200
18, 36885.29, 77153.62, -187500.02, -187500.02, -187500.02, -187500.02, -187500.02, 187500.00, 0.000, 0.000, 0.000, 13:36:55.200
19, 36300.77, 76702.04, -187500.02, -187500.02, -187500.02, -187500.02, -187500.02, 187500.00, 0.000, 0.000, 0.000, 13:36:55.200
20, 37176.43, 77370.05, -187500.02, -187500.02, -187500.02, -187500.02, -187500.02, 187500.00, 0.000, 0.000, 0.000, 13:36:55.201
21, 38290.79, 78227.03, -187500.02, -187500.02, -187500.02, -187500.02, -187500.02, 187500.00, 0.000, 0.000, 0.000, 13:36:55.201
22, 37156.82, 77357.44, -187500.02, -187500.02, -187500.02, -187500.02, -187500.02, 187500.00, 0.000, 0.000, 0.000, 13:36:55.201
23, 36262.48, 76671.60, -187500.02, -187500.02, -187500.02, -187500.02, -187500.02, 187500.00, 0.000, 0.000, 0.000, 13:36:55.201
24, 37001.46, 77224.58, -187500.02, -187500.02, -187500.02, -187500.02, -187500.02, 187500.00, 0.000, 0.000, 0.000, 13:36:55.202
25, 38298.86, 78233.88, -187500.02, -187500.02, -187500.02, -187500.02, -187500.02, 187500.00, 0.000, 0.000, 0.000, 13:36:55.202
26, 37476.23, 77621.77, -187500.02, -187500.02, -187500.02, -187500.02, -187500.02, 187500.00, 0.000, 0.000, 0.000, 13:36:55.202
27, 36182.98, 76631.97, -187500.02, -187500.02, -187500.02, -187500.02, -187500.02, 187500.00, 0.410, 0.910, -0.182, 13:36:55.203
28, 36696.02, 77022.12, -187500.02, -187500.02, -187500.02, -187500.02, -187500.02, 187500.00, 0.000, 0.000, 0.000, 13:36:55.203
29, 38162.07, 78115.77, -187500.02, -187500.02, -187500.02, -187500.02, -187500.02, 187500.00, 0.000, 0.000, 0.000, 13:36:55.203
30, 37835.20, 77862.48, -187500.02, -187500.02, -187500.02, -187500.02, -187500.02, 187500.00, 0.000, 0.000, 0.000, 13:36:55.203
31, 36259.42, 76695.67, -187500.02, -187500.02, -187500.02, -187500.02, -187500.02, 187500.00, 0.000, 0.000, 0.000, 13:36:55.204
32, 36556.34, 76911.19, -187500.02, -187500.02, -187500.02, -187500.02, -187500.02, 187500.00, 0.000, 0.000, 0.000, 13:36:55.204
33, 38006.39, 77996.09, -187500.02, -187500.02, -187500.02, -187500.02, -187500.02, 187500.00, 0.000, 0.000, 0.000, 13:36:55.205
34, 38159.03, 78112.95, -187500.02, -187500.02, -187500.02, -187500.02, -187500.02, 187500.00, 0.000, 0.000, 0.000, 13:36:55.205
35, 36398.61, 76793.28, -187500.02, -187500.02, -187500.02, -187500.02, -187500.02, 187500.00, 0.000, 0.000, 0.000, 13:36:55.205
36, 36402.32, 76777.50, -187500.02, -187500.02, -187500.02, -187500.02, -187500.02, 187500.00, 0.000, 0.000, 0.000, 13:36:55.206
37, 37772.79, 77803.16, -187500.02, -187500.02, -187500.02, -187500.02, -187500.02, 187500.00, 0.416, 0.914, -0.188, 13:36:55.206
38, 38391.42, 78276.37, -187500.02, -187500.02, -187500.02, -187500.02, -187500.02, 187500.00, 0.000, 0.000, 0.000, 13:36:55.206
39, 36588.87, 76944.16, -187500.02, -187500.02, -187500.02, -187500.02, -187500.02, 187500.00, 0.000, 0.000, 0.000, 13:36:55.207
40, 36229.14, 76647.15, -187500.02, -187500.02, -187500.02, -187500.02, -187500.02, 187500.00, 0.000, 0.000, 0.000, 13:36:55.207
41, 37479.96, 77570.84, -187500.02, -187500.02, -187500.02, -187500.02, -187500.02, 187500.00, 0.000, 0.000, 0.000, 13:36:55.207
42, 38534.25, 78397.40, -187500.02, -187500.02, -187500.02, -187500.02, -187500.02, 187500.00, 0.000, 0.000, 0.000, 13:36:55.208
43, 36840.10, 77178.65, -187500.02, -187500.02, -187500.02, -187500.02, -187500.02, 187500.00, 0.000, 0.000, 0.000, 13:36:55.208
44, 36092.05, 76598.82, -187500.02, -187500.02, -187500.02, -187500.02, -187500.02, 187500.00, 0.000, 0.000, 0.000, 13:36:55.208
45, 37193.28, 77385.85, -187500.02, -187500.02, -187500.02, -187500.02, -187500.02, 187500.00, 0.000, 0.000, 0.000, 13:36:55.209
46, 38594.93, 78406.63, -187500.02, -187500.02, -187500.02, -187500.02, -187500.02, 187500.00, 0.000, 0.000, 0.000, 13:36:55.209
47, 37228.19, 77422.62, -187500.02, -187500.02, -187500.02, -187500.02, -187500.02, 187500.00, 0.422, 0.912, -0.192, 13:36:55.209
48, 36043.13, 76545.98, -187500.02, -187500.02, -187500.02, -187500.02, -187500.02, 187500.00, 0.000, 0.000, 0.000, 13:36:55.210
49, 36933.91, 77180.03, -187500.02, -187500.02, -187500.02, -187500.02, -187500.02, 187500.00, 0.000, 0.000, 0.000, 13:36:55.210
50, 38509.73, 78340.16, -187500.02, -187500.02, -187500.02, -187500.02, -187500.02, 187500.00, 0.000, 0.000, 0.000, 13:36:55.210
51, 37586.83, 77708.43, -187500.02, -187500.02, -187500.02, -187500.02, -187500.02, 187500.00, 0.000, 0.000, 0.000, 13:36:55.210
52, 36028.46, 76581.90, -187500.02, -187500.02, -187500.02, -187500.02, -187500.02, 187500.00, 0.000, 0.000, 0.000, 13:36:55.211
53, 36677.31, 77008.51, -187500.02, -187500.02, -187500.02, -187500.02, -187500.02, 187500.00, 0.000, 0.000, 0.000, 13:36:55.211
54, 38354.36, 78207.66, -187500.02, -187500.02, -187500.02, -187500.02, -187500.02, 187500.00, 0.000, 0.000, 0.000, 13:36:55.211
55, 38005.59, 77978.55, -187500.02, -187500.02, -187500.02, -187500.02, -187500.02, 187500.00, 0.000, 0.000, 0.000, 13:36:55.211
56, 36102.47, 76634.49, -187500.02, -187500.02, -187500.02, -187500.02, -187500.02, 187500.00, 0.000, 0.000, 0.000, 13:36:55.211
57, 36413.89, 76836.04, -187500.02, -187500.02, -187500.02, -187500.02, -187500.02, 187500.00, 0.430, 0.914, -0.188, 13:36:55.212
58, 38107.00, 78022.65, -187500.02, -187500.02, -187500.02, -187500.02, -187500.02, 187500.00, 0.000, 0.000, 0.000, 13:36:55.212
59, 38349.20, 78202.56, -187500.02, -187500.02, -187500.02, -187500.02, -187500.02, 187500.00, 0.000, 0.000, 0.000, 13:36:55.212
60, 36225.34, 76751.41, -187500.02, -187500.02, -187500.02, -187500.02, -187500.02, 187500.00, 0.000, 0.000, 0.000, 13:36:55.213
61, 36156.61, 76696.56, -187500.02, -187500.02, -187500.02, -187500.02, -187500.02, 187500.00, 0.000, 0.000, 0.000, 13:36:55.213
62, 37822.05, 77831.30, -187500.02, -187500.02, -187500.02, -187500.02, -187500.02, 187500.00, 0.000, 0.000, 0.000, 13:36:55.213
63, 38680.56, 78425.20, -187500.02, -187500.02, -187500.02, -187500.02, -187500.02, 187500.00, 0.000, 0.000, 0.000, 13:36:55.213
64, 36473.42, 76975.63, -187500.02, -187500.02, -187500.02, -187500.02, -187500.02, 187500.00, 0.000, 0.000, 0.000, 13:36:55.216
65, 35915.30, 76590.89, -187500.02, -187500.02, -187500.02, -187500.02, -187500.02, 187500.00, 0.000, 0.000, 0.000, 13:36:55.216
66, 37491.90, 77597.90, -187500.02, -187500.02, -187500.02, -187500.02, -187500.02, 187500.00, 0.000, 0.000, 0.000, 13:36:55.217
67, 38981.89, 78553.48, -187500.02, -187500.02, -187500.02, -187500.02, -187500.02, 187500.00, 0.424, 0.922, -0.182, 13:36:55.217
68, 36846.13, 77198.48, -187500.02, -187500.02, -187500.02, -187500.02, -187500.02, 187500.00, 0.000, 0.000, 0.000, 13:36:55.217
69, 35685.43, 76455.39, -187500.02, -187500.02, -187500.02, -187500.02, -187500.02, 187500.00, 0.000, 0.000, 0.000, 13:36:55.217
70, 37134.45, 77348.34, -187500.02, -187500.02, -187500.02, -187500.02, -187500.02, 187500.00, 0.000, 0.000, 0.000, 13:36:55.218
71, 39124.78, 78605.30, -187500.02, -187500.02, -187500.02, -187500.02, -187500.02, 187500.00, 0.000, 0.000, 0.000, 13:36:55.218
72, 37322.90, 77490.97, -187500.02, -187500.02, -187500.02, -187500.02, -187500.02, 187500.00, 0.000, 0.000, 0.000, 13:36:55.218
73, 35494.57, 76360.51, -187500.02, -187500.02, -187500.02, -187500.02, -187500.02, 187500.00, 0.000, 0.000, 0.000, 13:36:55.218
74, 36681.43, 77075.00, -187500.02, -187500.02, -187500.02, -187500.02, -187500.02, 187500.00, 0.000, 0.000, 0.000, 13:36:55.218
75, 39008.84, 78495.55, -187500.02, -187500.02, -187500.02, -187500.02, -187500.02, 187500.00, 0.000, 0.000, 0.000, 13:36:55.219
76, 37799.95, 77782.19, -187500.02, -187500.02, -187500.02, -187500.02, -187500.02, 187500.00, 0.412, 0.922, -0.158, 13:36:55.219
77, 35309.52, 76413.99, -187500.02, -187500.02, -187500.02, -187500.02, -187500.02, 187500.00, 0.000, 0.000, 0.000, 13:36:55.219
78, 36157.05, 77371.59, -187500.02, -187500.02, -187500.02, -187500.02, -187500.02, 187500.00, 0.000, 0.000, 0.000, 13:36:55.220
79, 38821.34, 79333.00, -187500.02, -187500.02, -187500.02, -187500.02, -187500.02, 187500.00, 0.000, 0.000, 0.000, 13:36:55.220
80, 38529.20, 79513.27, -187500.02, -187500.02, -187500.02, -187500.02, -187500.02, 187500.00, 0.000, 0.000, 0.000, 13:36:55.220
81, 35365.02, 77473.22, -187500.02, -187500.02, -187500.02, -187500.02, -187500.02, 187500.00, 0.000, 0.000, 0.000, 13:36:55.220
82, 35723.63, 77511.06, -187500.02, -187500.02, -187500.02, -187500.02, -187500.02, 187500.00, 0.000, 0.000, 0.000, 13:36:55.221
83, 38618.32, 78857.80, -187500.02, -187500.02, -187500.02, -187500.02, -187500.02, 187500.00, 0.000, 0.000, 0.000, 13:36:55.221
84, 39263.14, 78933.71, -187500.02, -187500.02, -187500.02, -187500.02, -187500.02, 187500.00, 0.000, 0.000, 0.000, 13:36:55.222
85, 35531.70, 77122.50, -187500.02, -187500.02, -187500.02, -187500.02, -187500.02, 187500.00, 0.000, 0.000, 0.000, 13:36:55.222
86, 35260.64, 77052.18, -187500.02, -187500.02, -187500.02, -187500.02, -187500.02, 187500.00, 0.422, 0.922, -0.178, 13:36:55.223
87, 38140.28, 78399.26, -187500.02, -187500.02, -187500.02, -187500.02, -187500.02, 187500.00, 0.000, 0.000, 0.000, 13:36:55.223
88, 39822.49, 79382.80, -187500.02, -187500.02, -187500.02, -187500.02, -187500.02, 187500.00, 0.000, 0.000, 0.000, 13:36:55.223
89, 36094.78, 78091.54, -187500.02, -187500.02, -187500.02, -187500.02, -187500.02, 187500.00, 0.000, 0.000, 0.000, 13:36:55.224
90, 34945.92, 77868.24, -187500.02, -187500.02, -187500.02, -187500.02, -187500.02, 187500.00, 0.000, 0.000, 0.000, 13:36:55.224
91, 37504.68, 78911.91, -187500.02, -187500.02, -187500.02, -187500.02, -187500.02, 187500.00, 0.000, 0.000, 0.000, 13:36:55.237
92, 39998.73, 79644.80, -187500.02, -187500.02, -187500.02, -187500.02, -187500.02, 187500.00, 0.000, 0.000, 0.000, 13:36:55.238
93, 36738.69, 77723.45, -187500.02, -187500.02, -187500.02, -187500.02, -187500.02, 187500.00, 0.000, 0.000, 0.000, 13:36:55.238
94, 34730.34, 76555.26, -187500.02, -187500.02, -187500.02, -187500.02, -187500.02, 187500.00, 0.000, 0.000, 0.000, 13:36:55.238
95, 36845.69, 77438.09, -187500.02, -187500.02, -187500.02, -187500.02, -187500.02, 187500.00, 0.000, 0.000, 0.000, 13:36:55.239
96, 39888.72, 78886.79, -187500.02, -187500.02, -187500.02, -187500.02, -187500.02, 187500.00, 0.414, 0.918, -0.172, 13:36:55.239
97, 37544.18, 77601.25, -187500.02, -187500.02, -187500.02, -187500.02, -187500.02, 187500.00, 0.000, 0.000, 0.000, 13:36:55.240
98, 34810.70, 76083.68, -187500.02, -187500.02, -187500.02, -187500.02, -187500.02, 187500.00, 0.000, 0.000, 0.000, 13:36:55.240
99, 36371.56, 76857.39, -187500.02, -187500.02, -187500.02, -187500.02, -187500.02, 187500.00, 0.000, 0.000, 0.000, 13:36:55.240
100, 39562.63, 78636.12, -187500.02, -187500.02, -187500.02, -187500.02, -187500.02, 187500.00, 0.000, 0.000, 0.000, 13:36:55.241
101, 38300.11, 77869.70, -187500.02, -187500.02, -187500.02, -187500.02, -187500.02, 187500.00, 0.000, 0.000, 0.000, 13:36:55.241
102, 35016.89, 75899.10, -187500.02, -187500.02, -187500.02, -187500.02, -187500.02, 187500.00, 0.000, 0.000, 0.000, 13:36:55.241
103, 35967.73, 76476.13, -187500.02, -187500.02, -187500.02, -187500.02, -187500.02, 187500.00, 0.000, 0.000, 0.000, 13:36:55.242
104, 39078.02, 78538.55, -187500.02, -187500.02, -187500.02, -187500.02, -187500.02, 187500.00, 0.000, 0.000, 0.000, 13:36:55.242
105, 38877.93, 78478.85, -187500.02, -187500.02, -187500.02, -187500.02, -187500.02, 187500.00, 0.000, 0.000, 0.000, 13:36:55.242
106, 35346.46, 76083.55, -187500.02, -187500.02, -187500.02, -187500.02, -187500.02, 187500.00, 0.414, 0.924, -0.178, 13:36:55.243
107, 35685.36, 76265.11, -187500.02, -187500.02, -187500.02, -187500.02, -187500.02, 187500.00, 0.000, 0.000, 0.000, 13:36:55.243
108, 38561.99, 78344.34, -187500.02, -187500.02, -187500.02, -187500.02, -187500.02, 187500.00, 0.000, 0.000, 0.000, 13:36:55.243
109, 39321.50, 78991.38, -187500.02, -187500.02, -187500.02, -187500.02, -187500.02, 187500.00, 0.000, 0.000, 0.000, 13:36:55.244
110, 35789.70, 76290.66, -187500.02, -187500.02, -187500.02, -187500.02, -187500.02, 187500.00, 0.000, 0.000, 0.000, 13:36:55.244
111, 35427.25, 75917.38, -187500.02, -187500.02, -187500.02, -187500.02, -187500.02, 187500.00, 0.000, 0.000, 0.000, 13:36:55.244
112, 37955.41, 77988.09, -187500.02, -187500.02, -187500.02, -187500.02, -187500.02, 187500.00, 0.000, 0.000, 0.000, 13:36:55.245
113, 39506.57, 79425.11, -187500.02, -187500.02, -187500.02, -187500.02, -187500.02, 187500.00, 0.000, 0.000, 0.000, 13:36:55.246
114, 36334.01, 76537.71, -187500.02, -187500.02, -187500.02, -187500.02, -187500.02, 187500.00, 0.000, 0.000, 0.000, 13:36:55.247
115, 35271.99, 75403.49, -187500.02, -187500.02, -187500.02, -187500.02, -187500.02, 187500.00, 0.000, 0.000, 0.000, 13:36:55.247
116, 37382.06, 77385.27, -187500.02, -187500.02, -187500.02, -187500.02, -187500.02, 187500.00, 0.416, 0.922, -0.174, 13:36:55.247
117, 39544.68, 79629.45, -187500.02, -187500.02, -187500.02, -187500.02, -187500.02, 187500.00, 0.000, 0.000, 0.000, 13:36:55.248
118, 36894.01, 77000.75, -187500.02, -187500.02, -187500.02, -187500.02, -187500.02, 187500.00, 0.000, 0.000, 0.000, 13:36:55.248
119, 35115.13, 75072.31, -187500.02, -187500.02, -187500.02, -187500.02, -187500.02, 187500.00, 0.000, 0.000, 0.000, 13:36:55.248
120, 36871.30, 76864.47, -187500.02, -187500.02, -187500.02, -187500.02, -187500.02, 187500.00, 0.000, 0.000, 0.000, 13:36:55.249
121, 39513.61, 79754.28, -187500.02, -187500.02, -187500.02, -187500.02, -187500.02, 187500.00, 0.000, 0.000, 0.000, 13:36:55.677
122, 37605.94, 77849.52, -187500.02, -187500.02, -187500.02, -187500.02, -187500.02, 187500.00, 0.000, 0.000, 0.000, 13:36:55.678
123, 35143.51, 75181.01, -187500.02, -187500.02, -187500.02, -187500.02, -187500.02, 187500.00, 0.000, 0.000, 0.000, 13:36:55.679
124, 36456.75, 76578.95, -187500.02, -187500.02, -187500.02, -187500.02, -187500.02, 187500.00, 0.000, 0.000, 0.000, 13:36:55.679
125, 39290.59, 79714.14, -187500.02, -187500.02, -187500.02, -187500.02, -187500.02, 187500.00, 0.000, 0.000, 0.000, 13:36:55.679
126, 38267.01, 78734.22, -187500.02, -187500.02, -187500.02, -187500.02, -187500.02, 187500.00, 0.422, 0.924, -0.182, 13:36:55.679
127, 35241.50, 75424.33, -187500.02, -187500.02, -187500.02, -187500.02, -187500.02, 187500.00, 0.000, 0.000, 0.000, 13:36:55.680
128, 36046.81, 76174.61, -187500.02, -187500.02, -187500.02, -187500.02, -187500.02, 187500.00, 0.000, 0.000, 0.000, 13:36:55.681
129, 38905.78, 79239.05, -187500.02, -187500.02, -187500.02, -187500.02, -187500.02, 187500.00, 0.000, 0.000, 0.000, 13:36:55.681
130, 38866.46, 79283.00, -187500.02, -187500.02, -187500.02, -187500.02, -187500.02, 187500.00, 0.000, 0.000, 0.000, 13:36:55.681
131, 35518.39, 75633.74, -187500.02, -187500.02, -187500.02, -187500.02, -187500.02, 187500.00, 0.000, 0.000, 0.000, 13:36:55.682
132, 35753.54, 75736.29, -187500.02, -187500.02, -187500.02, -187500.02, -187500.02, 187500.00, 0.000, 0.000, 0.000, 13:36:55.682
133, 38460.94, 78649.05, -187500.02, -187500.02, -187500.02, -187500.02, -187500.02, 187500.00, 0.000, 0.000, 0.000, 13:36:55.682
134, 39347.79, 79727.98, -187500.02, -187500.02, -187500.02, -187500.02, -187500.02, 187500.00, 0.000, 0.000, 0.000, 13:36:55.682
135, 35939.05, 76126.55, -187500.02, -187500.02, -187500.02, -187500.02, -187500.02, 187500.00, 0.428, 0.916, -0.194, 13:36:55.683
136, 35464.91, 75524.71, -187500.02, -187500.02, -187500.02, -187500.02, -187500.02, 187500.00, 0.000, 0.000, 0.000, 13:36:55.683
137, 37877.69, 78076.61, -187500.02, -187500.02, -187500.02, -187500.02, -187500.02, 187500.00, 0.000, 0.000, 0.000, 13:36:55.683
138, 39568.51, 79942.42, -187500.02, -187500.02, -187500.02, -187500.02, -187500.02, 187500.00, 0.000, 0.000, 0.000, 13:36:55.684
139, 36460.54, 76745.78, -187500.02, -187500.02, -187500.02, -187500.02, -187500.02, 187500.00, 0.000, 0.000, 0.000, 13:36:55.684
140, 35269.73, 75415.88, -187500.02, -187500.02, -187500.02, -187500.02, -187500.02, 187500.00, 0.000, 0.000, 0.000, 13:36:55.684
141, 37317.20, 77498.55, -187500.02, -187500.02, -187500.02, -187500.02, -187500.02, 187500.00, 0.000, 0.000, 0.000, 13:36:55.684
142, 39581.85, 79869.28, -187500.02, -187500.02, -187500.02, -187500.02, -187500.02, 187500.00, 0.000, 0.000, 0.000, 13:36:55.685
143, 37068.00, 77392.82, -187500.02, -187500.02, -187500.02, -187500.02, -187500.02, 187500.00, 0.000, 0.000, 0.000, 13:36:55.685
144, 35183.25, 75428.55, -187500.02, -187500.02, -187500.02, -187500.02, -187500.02, 187500.00, 0.000, 0.000, 0.000, 13:36:55.685
145, 36832.34, 77005.18, -187500.02, -187500.02, -187500.02, -187500.02, -187500.02, 187500.00, 0.424, 0.898, -0.194, 13:36:55.686
146, 39429.01, 79592.39, -187500.02, -187500.02, -187500.02, -187500.02, -187500.02, 187500.00, 0.000, 0.000, 0.000, 13:36:55.686
147, 37715.91, 78004.84, -187500.02, -187500.02, -187500.02, -187500.02, -187500.02, 187500.00, 0.000, 0.000, 0.000, 13:36:55.687
148, 35228.56, 75558.73, -187500.02, -187500.02, -187500.02, -187500.02, -187500.02, 187500.00, 0.000, 0.000, 0.000, 13:36:55.687
149, 36436.00, 76628.64, -187500.02, -187500.02, -187500.02, -187500.02, -187500.02, 187500.00, 0.000, 0.000, 0.000, 13:36:55.687
150, 39173.06, 79227.63, -187500.02, -187500.02, -187500.02, -187500.02, -187500.02, 187500.00, 0.000, 0.000, 0.000, 13:36:55.688
151, 38406.04, 78577.66, -187500.02, -187500.02, -187500.02, -187500.02, -187500.02, 187500.00, 0.000, 0.000, 0.000, 13:36:55.698
152, 35397.81, 75789.91, -187500.02, -187500.02, -187500.02, -187500.02, -187500.02, 187500.00, 0.000, 0.000, 0.000, 13:36:55.698
153, 36012.75, 76319.07, -187500.02, -187500.02, -187500.02, -187500.02, -187500.02, 187500.00, 0.000, 0.000, 0.000, 13:36:55.699
154, 38738.19, 78790.66, -187500.02, -187500.02, -187500.02, -187500.02, -187500.02, 187500.00, 0.000, 0.000, 0.000, 13:36:55.699
155, 38944.14, 79008.77, -187500.02, -187500.02, -187500.02, -187500.02, -187500.02, 187500.00, 0.436, 0.912, -0.194, 13:36:55.699
156, 35672.11, 76043.94, -187500.02, -187500.02, -187500.02, -187500.02, -187500.02, 187500.00, 0.000, 0.000, 0.000, 13:36:55.700
157, 35707.31, 76009.01, -187500.02, -187500.02, -187500.02, -187500.02, -187500.02, 187500.00, 0.000, 0.000, 0.000, 13:36:55.700
158, 38255.19, 78291.05, -187500.02, -187500.02, -187500.02, -187500.02, -187500.02, 187500.00, 0.000, 0.000, 0.000, 13:36:55.700
159, 39335.74, 79306.80, -187500.02, -187500.02, -187500.02, -187500.02, -187500.02, 187500.00, 0.000, 0.000, 0.000, 13:36:55.701
160, 36081.46, 76400.77, -187500.02, -187500.02, -187500.02, -187500.02, -187500.02, 187500.00, 0.000, 0.000, 0.000, 13:36:55.701
161, 35456.32, 75771.47, -187500.02, -187500.02, -187500.02, -187500.02, -187500.02, 187500.00, 0.000, 0.000, 0.000, 13:36:55.701
162, 37768.12, 77817.15, -187500.02, -187500.02, -187500.02, -187500.02, -187500.02, 187500.00, 0.000, 0.000, 0.000, 13:36:55.702
163, 39593.34, 79488.37, -187500.02, -187500.02, -187500.02, -187500.02, -187500.02, 187500.00, 0.000, 0.000, 0.000, 13:36:55.702
164, 36620.27, 76882.35, -187500.02, -187500.02, -187500.02, -187500.02, -187500.02, 187500.00, 0.000, 0.000, 0.000, 13:36:55.702
165, 35265.11, 75654.91, -187500.02, -187500.02, -187500.02, -187500.02, -187500.02, 187500.00, 0.432, 0.914, -0.182, 13:36:55.703
166, 37213.39, 77373.27, -187500.02, -187500.02, -187500.02, -187500.02, -187500.02, 187500.00, 0.000, 0.000, 0.000, 13:36:55.703
167, 39633.84, 79532.60, -187500.02, -187500.02, -187500.02, -187500.02, -187500.02, 187500.00, 0.000, 0.000, 0.000, 13:36:55.704
168, 37275.42, 77464.69, -187500.02, -187500.02, -187500.02, -187500.02, -187500.02, 187500.00, 0.000, 0.000, 0.000, 13:36:55.704
169, 35168.79, 75541.31, -187500.02, -187500.02, -187500.02, -187500.02, -187500.02, 187500.00, 0.000, 0.000, 0.000, 13:36:55.704
170, 36721.81, 76884.59, -187500.02, -187500.02, -187500.02, -187500.02, -187500.02, 187500.00, 0.000, 0.000, 0.000, 13:36:55.705
171, 39452.64, 79381.41, -187500.02, -187500.02, -187500.02, -187500.02, -187500.02, 187500.00, 0.000, 0.000, 0.000, 13:36:55.705
172, 37909.52, 78048.34, -187500.02, -187500.02, -187500.02, -187500.02, -187500.02, 187500.00, 0.000, 0.000, 0.000, 13:36:55.705
173, 35224.11, 75573.86, -187500.02, -187500.02, -187500.02, -187500.02, -187500.02, 187500.00, 0.000, 0.000, 0.000, 13:36:55.706
174, 36324.24, 76514.31, -187500.02, -187500.02, -187500.02, -187500.02, -187500.02, 187500.00, 0.000, 0.000, 0.000, 13:36:55.706
175, 39153.19, 79121.53, -187500.02, -187500.02, -187500.02, -187500.02, -187500.02, 187500.00, 0.464, 0.902, -0.210, 13:36:55.706
176, 38549.29, 78630.87, -187500.02, -187500.02, -187500.02, -187500.02, -187500.02, 187500.00, 0.000, 0.000, 0.000, 13:36:55.707
177, 35392.15, 75708.30, -187500.02, -187500.02, -187500.02, -187500.02, -187500.02, 187500.00, 0.000, 0.000, 0.000, 13:36:55.707
178, 35921.33, 76131.40, -187500.02, -187500.02, -187500.02, -187500.02, -187500.02, 187500.00, 0.000, 0.000, 0.000, 13:36:55.707
179, 38664.29, 78713.14, -187500.02, -187500.02, -187500.02, -187500.02, -187500.02, 187500.00, 0.000, 0.000, 0.000, 13:36:55.708
180, 39027.93, 79137.11, -187500.02, -187500.02, -187500.02, -187500.02, -187500.02, 187500.00, 0.000, 0.000, 0.000, 13:36:55.708
181, 35680.00, 75980.75, -187500.02, -187500.02, -187500.02, -187500.02, -187500.02, 187500.00, 0.000, 0.000, 0.000, 13:36:55.709
182, 35606.93, 75795.45, -187500.02, -187500.02, -187500.02, -187500.02, -187500.02, 187500.00, 0.000, 0.000, 0.000, 13:36:55.709
183, 38160.15, 78229.16, -187500.02, -187500.02, -187500.02, -187500.02, -187500.02, 187500.00, 0.000, 0.000, 0.000, 13:36:55.710
184, 39388.71, 79509.13, -187500.02, -187500.02, -187500.02, -187500.02, -187500.02, 187500.00, 0.000, 0.000, 0.000, 13:36:55.710
185, 36130.43, 76374.16, -187500.02, -187500.02, -187500.02, -187500.02, -187500.02, 187500.00, 0.424, 0.908, -0.204, 13:36:55.711
186, 35366.96, 75529.34, -187500.02, -187500.02, -187500.02, -187500.02, -187500.02, 187500.00, 0.000, 0.000, 0.000, 13:36:55.711
187, 37609.91, 77717.51, -187500.02, -187500.02, -187500.02, -187500.02, -187500.02, 187500.00, 0.000, 0.000, 0.000, 13:36:55.711
188, 39571.50, 79735.11, -187500.02, -187500.02, -187500.02, -187500.02, -187500.02, 187500.00, 0.000, 0.000, 0.000, 13:36:55.712
189, 36746.13, 76939.15, -187500.02, -187500.02, -187500.02, -187500.02, -187500.02, 187500.00, 0.000, 0.000, 0.000, 13:36:55.712
190, 35262.85, 75357.80, -187500.02, -187500.02, -187500.02, -187500.02, -187500.02, 187500.00, 0.000, 0.000, 0.000, 13:36:55.712
191, 37121.57, 77216.09, -187500.02, -187500.02, -187500.02, -187500.02, -187500.02, 187500.00, 0.000, 0.000, 0.000, 13:36:55.713
192, 39557.69, 79776.66, -187500.02, -187500.02, -187500.02, -187500.02, -187500.02, 187500.00, 0.000, 0.000, 0.000, 13:36:55.713
193, 37396.86, 77625.62, -187500.02, -187500.02, -187500.02, -187500.02, -187500.02, 187500.00, 0.000, 0.000, 0.000, 13:36:55.713
194, 35224.52, 75333.16, -187500.02, -187500.02, -187500.02, -187500.02, -187500.02, 187500.00, 0.000, 0.000, 0.000, 13:36:55.713
195, 36660.84, 76777.75, -187500.02, -187500.02, -187500.02, -187500.02, -187500.02, 187500.00, 0.412, 0.904, -0.192, 13:36:55.714
196, 39364.71, 79634.45, -187500.02, -187500.02, -187500.02, -187500.02, -187500.02, 187500.00, 0.000, 0.000, 0.000, 13:36:55.714
197, 38022.84, 78317.76, -187500.02, -187500.02, -187500.02, -187500.02, -187500.02, 187500.00, 0.000, 0.000, 0.000, 13:36:55.714
198, 35257.64, 75410.40, -187500.02, -187500.02, -187500.02, -187500.02, -187500.02, 187500.00, 0.000, 0.000, 0.000, 13:36:55.714
199, 36215.19, 76352.55, -187500.02, -187500.02, -187500.02, -187500.02, -187500.02, 187500.00, 0.000, 0.000, 0.000, 13:36:55.715
200, 39010.74, 79241.42, -187500.02, -187500.02, -187500.02, -187500.02, -187500.02, 187500.00, 0.000, 0.000, 0.000, 13:36:55.715
201, 38627.50, 78937.44, -187500.02, -187500.02, -187500.02, -187500.02, -187500.02, 187500.00, 0.000, 0.000, 0.000, 13:36:55.715
202, 35470.25, 75678.51, -187500.02, -187500.02, -187500.02, -187500.02, -187500.02, 187500.00, 0.000, 0.000, 0.000, 13:36:55.716
203, 35874.39, 76031.20, -187500.02, -187500.02, -187500.02, -187500.02, -187500.02, 187500.00, 0.000, 0.000, 0.000, 13:36:55.716
204, 38544.42, 78757.51, -187500.02, -187500.02, -187500.02, -187500.02, -187500.02, 187500.00, 0.420, 0.916, -0.190, 13:36:55.716
205, 39110.01, 79384.66, -187500.02, -187500.02, -187500.02, -187500.02, -187500.02, 187500.00, 0.000, 0.000, 0.000, 13:36:55.717
206, 35777.79, 76076.28, -187500.02, -187500.02, -187500.02, -187500.02, -187500.02, 187500.00, 0.000, 0.000, 0.000, 13:36:55.717
207, 35562.54, 75784.39, -187500.02, -187500.02, -187500.02, -187500.02, -187500.02, 187500.00, 0.000, 0.000, 0.000, 13:36:55.718
208, 38076.93, 78237.61, -187500.02, -187500.02, -187500.02, -187500.02, -187500.02, 187500.00, 0.000, 0.000, 0.000, 13:36:55.718
209, 39479.53, 79687.59, -187500.02, -187500.02, -187500.02, -187500.02, -187500.02, 187500.00, 0.000, 0.000, 0.000, 13:36:55.718
210, 36279.92, 76590.89, -187500.02, -187500.02, -187500.02, -187500.02, -187500.02, 187500.00, 0.000, 0.000, 0.000, 13:36:55.719
211, 35340.48, 75597.04, -187500.02, -187500.02, -187500.02, -187500.02, -187500.02, 187500.00, 0.000, 0.000, 0.000, 13:36:55.719
212, 37506.25, 77700.12, -187500.02, -187500.02, -187500.02, -187500.02, -187500.02, 187500.00, 0.000, 0.000, 0.000, 13:36:55.721
213, 39591.04, 79791.95, -187500.02, -187500.02, -187500.02, -187500.02, -187500.02, 187500.00, 0.000, 0.000, 0.000, 13:36:55.721
214, 36867.70, 77175.81, -187500.02, -187500.02, -187500.02, -187500.02, -187500.02, 187500.00, 0.420, 0.916, -0.190, 13:36:55.722
215, 35239.74, 75492.77, -187500.02, -187500.02, -187500.02, -187500.02, -187500.02, 187500.00, 0.000, 0.000, 0.000, 13:36:55.724
216, 37041.15, 77195.34, -187500.02, -187500.02, -187500.02, -187500.02, -187500.02, 187500.00, 0.000, 0.000, 0.000, 13:36:55.724
217, 39558.43, 79702.79, -187500.02, -187500.02, -187500.02, -187500.02, -187500.02, 187500.00, 0.000, 0.000, 0.000, 13:36:55.725
218, 37499.54, 77783.82, -187500.02, -187500.02, -187500.02, -187500.02, -187500.02, 187500.00, 0.000, 0.000, 0.000, 13:36:55.726
219, 35185.29, 75476.72, -187500.02, -187500.02, -187500.02, -187500.02, -187500.02, 187500.00, 0.000, 0.000, 0.000, 13:36:55.726
220, 36567.43, 76731.95, -187500.02, -187500.02, -187500.02, -187500.02, -187500.02, 187500.00, 0.000, 0.000, 0.000, 13:36:55.726
221, 39318.68, 79439.39, -187500.02, -187500.02, -187500.02, -187500.02, -187500.02, 187500.00, 0.000, 0.000, 0.000, 13:36:55.727
222, 38184.40, 78410.45, -187500.02, -187500.02, -187500.02, -187500.02, -187500.02, 187500.00, 0.000, 0.000, 0.000, 13:36:55.727
223, 35303.55, 75558.04, -187500.02, -187500.02, -187500.02, -187500.02, -187500.02, 187500.00, 0.000, 0.000, 0.000, 13:36:55.728
224, 36152.92, 76312.05, -187500.02, -187500.02, -187500.02, -187500.02, -187500.02, 187500.00, 0.420, 0.918, -0.188, 13:36:55.728
225, 38944.00, 79074.75, -187500.02, -187500.02, -187500.02, -187500.02, -187500.02, 187500.00, 0.000, 0.000, 0.000, 13:36:55.728
226, 38754.14, 78979.77, -187500.02, -187500.02, -187500.02, -187500.02, -187500.02, 187500.00, 0.000, 0.000, 0.000, 13:36:55.728
227, 35485.94, 75763.05, -187500.02, -187500.02, -187500.02, -187500.02, -187500.02, 187500.00, 0.000, 0.000, 0.000, 13:36:55.729
228, 35785.23, 75970.54, -187500.02, -187500.02, -187500.02, -187500.02, -187500.02, 187500.00, 0.000, 0.000, 0.000, 13:36:55.729
229, 38499.52, 78640.43, -187500.02, -187500.02, -187500.02, -187500.02, -187500.02, 187500.00, 0.000, 0.000, 0.000, 13:36:55.730
230, 39251.32, 79465.84, -187500.02, -187500.02, -187500.02, -187500.02, -187500.02, 187500.00, 0.000, 0.000, 0.000, 13:36:55.731
231, 35858.59, 76146.22, -187500.02, -187500.02, -187500.02, -187500.02, -187500.02, 187500.00, 0.000, 0.000, 0.000, 13:36:55.731
232, 35487.44, 75686.89, -187500.02, -187500.02, -187500.02, -187500.02, -187500.02, 187500.00, 0.000, 0.000, 0.000, 13:36:55.731
233, 37954.76, 78108.15, -187500.02, -187500.02, -187500.02, -187500.02, -187500.02, 187500.00, 0.000, 0.000, 0.000, 13:36:55.732
234, 39534.29, 79755.49, -187500.02, -187500.02, -187500.02, -187500.02, -187500.02, 187500.00, 0.422, 0.910, -0.186, 13:36:55.732
235, 36363.74, 76625.16, -187500.02, -187500.02, -187500.02, -187500.02, -187500.02, 187500.00, 0.000, 0.000, 0.000, 13:36:55.732
236, 35280.73, 75452.54, -187500.02, -187500.02, -187500.02, -187500.02, -187500.02, 187500.00, 0.000, 0.000, 0.000, 13:36:55.732
237, 37407.50, 77589.59, -187500.02, -187500.02, -187500.02, -187500.02, -187500.02, 187500.00, 0.000, 0.000, 0.000, 13:36:55.733
238, 39669.11, 79929.91, -187500.02, -187500.02, -187500.02, -187500.02, -187500.02, 187500.00, 0.000, 0.000, 0.000, 13:36:55.733
239, 37014.46, 77255.05, -187500.02, -187500.02, -187500.02, -187500.02, -187500.02, 187500.00, 0.000, 0.000, 0.000, 13:36:55.733
240, 35188.71, 75289.97, -187500.02, -187500.02, -187500.02, -187500.02, -187500.02, 187500.00, 0.000, 0.000, 0.000, 13:36:55.734
241, 36919.71, 77033.59, -187500.02, -187500.02, -187500.02, -187500.02, -187500.02, 187500.00, 0.000, 0.000, 0.000, 13:36:56.157
242, 39543.92, 79842.28, -187500.02, -187500.02, -187500.02, -187500.02, -187500.02, 187500.00, 0.000, 0.000, 0.000, 13:36:56.158
243, 37655.78, 77949.27, -187500.02, -187500.02, -187500.02, -187500.02, -187500.02, 187500.00, 0.000, 0.000, 0.000, 13:36:56.158
244, 35162.71, 75268.23, -187500.02, -187500.02, -187500.02, -187500.02, -187500.02, 187500.00, 0.430, 0.908, -0.192, 13:36:56.158
245, 36461.46, 76549.83, -187500.02, -187500.02, -187500.02, -187500.02, -187500.02, 187500.00, 0.000, 0.000, 0.000, 13:36:56.158
246, 39262.67, 79585.33, -187500.02, -187500.02, -187500.02, -187500.02, -187500.02, 187500.00, 0.000, 0.000, 0.000, 13:36:56.158
247, 38297.99, 78668.02, -187500.02, -187500.02, -187500.02, -187500.02, -187500.02, 187500.00, 0.000, 0.000, 0.000, 13:36:56.159
248, 35327.56, 75436.17, -187500.02, -187500.02, -187500.02, -187500.02, -187500.02, 187500.00, 0.000, 0.000, 0.000, 13:36:56.159
249, 36081.97, 76163.25, -187500.02, -187500.02, -187500.02, -187500.02, -187500.02, 187500.00, 0.000, 0.000, 0.000, 13:36:56.159
250, 38878.06, 79175.45, -187500.02, -187500.02, -187500.02, -187500.02, -187500.02, 187500.00, 0.000, 0.000, 0.000, 13:36:56.159
251, 38888.21, 79275.45, -187500.02, -187500.02, -187500.02, -187500.02, -187500.02, 187500.00, 0.000, 0.000, 0.000, 13:36:56.160
252, 35572.87, 75719.03, -187500.02, -187500.02, -187500.02, -187500.02, -187500.02, 187500.00, 0.000, 0.000, 0.000, 13:36:56.160
253, 35720.86, 75797.94, -187500.02, -187500.02, -187500.02, -187500.02, -187500.02, 187500.00, 0.000, 0.000, 0.000, 13:36:56.160
254, 38364.27, 78631.29, -187500.02, -187500.02, -187500.02, -187500.02, -187500.02, 187500.00, 0.430, 0.918, -0.188, 13:36:56.161
255, 39320.94, 79719.64, -187500.02, -187500.02, -187500.02, -187500.02, -187500.02, 187500.00, 0.000, 0.000, 0.000, 13:36:56.161
0, 35958.86, 76159.05, -187500.02, -187500.02, -187500.02, -187500.02, -187500.02, 187500.00, 0.000, 0.000, 0.000, 13:36:56.161
1, 35441.30, 75516.69, -187500.02, -187500.02, -187500.02, -187500.02, -187500.02, 187500.00, 0.000, 0.000, 0.000, 13:36:56.161
2, 37837.43, 78052.83, -187500.02, -187500.02, -187500.02, -187500.02, -187500.02, 187500.00, 0.000, 0.000, 0.000, 13:36:56.162
3, 39553.96, 79963.07, -187500.02, -187500.02, -187500.02, -187500.02, -187500.02, 187500.00, 0.000, 0.000, 0.000, 13:36:56.162
4, 36488.39, 76739.86, -187500.02, -187500.02, -187500.02, -187500.02, -187500.02, 187500.00, 0.000, 0.000, 0.000, 13:36:56.162
5, 35288.80, 75354.12, -187500.02, -187500.02, -187500.02, -187500.02, -187500.02, 187500.00, 0.000, 0.000, 0.000, 13:36:56.163
6, 37319.61, 77494.70, -187500.02, -187500.02, -187500.02, -187500.02, -187500.02, 187500.00, 0.000, 0.000, 0.000, 13:36:56.163
7, 39635.92, 80016.54, -187500.02, -187500.02, -187500.02, -187500.02, -187500.02, 187500.00, 0.432, 0.912, -0.182, 13:36:56.163
8, 37140.51, 77413.14, -187500.02, -187500.02, -187500.02, -187500.02, -187500.02, 187500.00, 0.000, 0.000, 0.000, 13:36:56.163
9, 35186.88, 75268.85, -187500.02, -187500.02, -187500.02, -187500.02, -187500.02, 187500.00, 0.000, 0.000, 0.000, 13:36:56.164
10, 36850.36, 76975.96, -187500.02, -187500.02, -187500.02, -187500.02, -187500.02, 187500.00, 0.000, 0.000, 0.000, 13:36:56.164
11, 39505.90, 79878.45, -187500.02, -187500.02, -187500.02, -187500.02, -187500.02, 187500.00, 0.000, 0.000, 0.000, 13:36:56.164
12, 37787.88, 78148.80, -187500.02, -187500.02, -187500.02, -187500.02, -187500.02, 187500.00, 0.000, 0.000, 0.000, 13:36:56.165
13, 35222.79, 75315.77, -187500.02, -187500.02, -187500.02, -187500.02, -187500.02, 187500.00, 0.000, 0.000, 0.000, 13:36:56.165
14, 36404.22, 76498.15, -187500.02, -187500.02, -187500.02, -187500.02, -187500.02, 187500.00, 0.000, 0.000, 0.000, 13:36:56.165
15, 39198.07, 79541.14, -187500.02, -187500.02, -187500.02, -187500.02, -187500.02, 187500.00, 0.000, 0.000, 0.000, 13:36:56.166
16, 38440.17, 78822.15, -187500.02, -187500.02, -187500.02, -187500.02, -187500.02, 187500.00, 0.000, 0.000, 0.000, 13:36:56.166
17, 35365.93, 75479.55, -187500.02, -187500.02, -187500.02, -187500.02, -187500.02, 187500.00, 0.430, 0.912, -0.174, 13:36:56.166
18, 36012.66, 76082.67, -187500.02, -187500.02, -187500.02, -187500.02, -187500.02, 187500.00, 0.000, 0.000, 0.000, 13:36:56.167
19, 38766.02, 79074.08, -187500.02, -187500.02, -187500.02, -187500.02, -187500.02, 187500.00, 0.000, 0.000, 0.000, 13:36:56.167
20, 38962.78, 79371.84, -187500.02, -187500.02, -187500.02, -187500.02, -187500.02, 187500.00, 0.000, 0.000, 0.000, 13:36:56.167
21, 35637.51, 75782.76, -187500.02, -187500.02, -187500.02, -187500.02, -187500.02, 187500.00, 0.000, 0.000, 0.000, 13:36:56.168
22, 35657.36, 75722.59, -187500.02, -187500.02, -187500.02, -187500.02, -187500.02, 187500.00, 0.000, 0.000, 0.000, 13:36:56.168
23, 38268.22, 78524.36, -187500.02, -187500.02, -187500.02, -187500.02, -187500.02, 187500.00, 0.000, 0.000, 0.000, 13:36:56.168
24, 39360.88, 79802.79, -187500.02, -187500.02, -187500.02, -187500.02, -187500.02, 187500.00, 0.000, 0.000, 0.000, 13:36:56.168
25, 36028.29, 76249.51, -187500.02, -187500.02, -187500.02, -187500.02, -187500.02, 187500.00, 0.000, 0.000, 0.000, 13:36:56.169
26, 35390.12, 75447.51, -187500.02, -187500.02, -187500.02, -187500.02, -187500.02, 187500.00, 0.000, 0.000, 0.000, 13:36:56.169
27, 37728.89, 77946.43, -187500.02, -187500.02, -187500.02, -187500.02, -187500.02, 187500.00, 0.452, 0.962, -0.190, 13:36:56.169
28, 39571.73, 80038.45, -187500.02, -187500.02, -187500.02, -187500.02, -187500.02, 187500.00, 0.000, 0.000, 0.000, 13:36:56.170
29, 36577.54, 76868.05, -187500.02, -187500.02, -187500.02, -187500.02, -187500.02, 187500.00, 0.000, 0.000, 0.000, 13:36:56.170
30, 35216.25, 75250.27, -187500.02, -187500.02, -187500.02, -187500.02, -187500.02, 187500.00, 0.000, 0.000, 0.000, 13:36:56.171
31, 37198.96, 77369.64, -187500.02, -187500.02, -187500.02, -187500.02, -187500.02, 187500.00, 0.000, 0.000, 0.000, 13:36:56.171
32, 39604.00, 80089.34, -187500.02, -187500.02, -187500.02, -187500.02, -187500.02, 187500.00, 0.000, 0.000, 0.000, 13:36:56.171
33, 37222.61, 77578.70, -187500.02, -187500.02, -187500.02, -187500.02, -187500.02, 187500.00, 0.000, 0.000, 0.000, 13:36:56.171
34, 35127.98, 75178.55, -187500.02, -187500.02, -187500.02, -187500.02, -187500.02, 187500.00, 0.000, 0.000, 0.000, 13:36:56.172
35, 36722.95, 76840.00, -187500.02, -187500.02, -187500.02, -187500.02, -187500.02, 187500.00, 0.000, 0.000, 0.000, 13:36:56.172
36, 39458.29, 79903.66, -187500.02, -187500.02, -187500.02, -187500.02, -187500.02, 187500.00, 0.000, 0.000, 0.000, 13:36:56.173
37, 37913.88, 78304.20, -187500.02, -187500.02, -187500.02, -187500.02, -187500.02, 187500.00, 0.422, 0.908, -0.178, 13:36:56.173
38, 35158.36, 75216.10, -187500.02, -187500.02, -187500.02, -187500.02, -187500.02, 187500.00, 0.000, 0.000, 0.000, 13:36:56.173
39, 36250.48, 76339.34, -187500.02, -187500.02, -187500.02, -187500.02, -187500.02, 187500.00, 0.000, 0.000, 0.000, 13:36:56.174
40, 39131.27, 79553.01, -187500.02, -187500.02, -187500.02, -187500.02, -187500.02, 187500.00, 0.000, 0.000, 0.000, 13:36:56.175
41, 38554.77, 79007.13, -187500.02, -187500.02, -187500.02, -187500.02, -187500.02, 187500.00, 0.000, 0.000, 0.000, 13:36:56.175
42, 35303.53, 75386.09, -187500.02, -187500.02, -187500.02, -187500.02, -187500.02, 187500.00, 0.000, 0.000, 0.000, 13:36:56.175
43, 35849.45, 75873.40, -187500.02, -187500.02, -187500.02, -187500.02, -187500.02, 187500.00, 0.000, 0.000, 0.000, 13:36:56.176
44, 38713.31, 79034.76, -187500.02, -187500.02, -187500.02, -187500.02, -187500.02, 187500.00, 0.000, 0.000, 0.000, 13:36:56.176
45, 39116.31, 79592.93, -187500.02, -187500.02, -187500.02, -187500.02, -187500.02, 187500.00, 0.000, 0.000, 0.000, 13:36:56.177
46, 35640.17, 75751.20, -187500.02, -187500.02, -187500.02, -187500.02, -187500.02, 187500.00, 0.000, 0.000, 0.000, 13:36:56.177
47, 35540.84, 75505.45, -187500.02, -187500.02, -187500.02, -187500.02, -187500.02, 187500.00, 0.434, 0.924, -0.178, 13:36:56.177
48, 38202.24, 78445.52, -187500.02, -187500.02, -187500.02, -187500.02, -187500.02, 187500.00, 0.000, 0.000, 0.000, 13:36:56.178
49, 39533.98, 80045.88, -187500.02, -187500.02, -187500.02, -187500.02, -187500.02, 187500.00, 0.000, 0.000, 0.000, 13:36:56.178
50, 36127.08, 76300.29, -187500.02, -187500.02, -187500.02, -187500.02, -187500.02, 187500.00, 0.000, 0.000, 0.000, 13:36:56.178
51, 35305.16, 75267.15, -187500.02, -187500.02, -187500.02, -187500.02, -187500.02, 187500.00, 0.000, 0.000, 0.000, 13:36:56.179
52, 37658.42, 77875.40, -187500.02, -187500.02, -187500.02, -187500.02, -187500.02, 187500.00, 0.000, 0.000, 0.000, 13:36:56.179
53, 39692.99, 80263.62, -187500.02, -187500.02, -187500.02, -187500.02, -187500.02, 187500.00, 0.000, 0.000, 0.000, 13:36:56.179
54, 36726.29, 76981.71, -187500.02, -187500.02, -187500.02, -187500.02, -187500.02, 187500.00, 0.000, 0.000, 0.000, 13:36:56.180
55, 35173.44, 75084.16, -187500.02, -187500.02, -187500.02, -187500.02, -187500.02, 187500.00, 0.000, 0.000, 0.000, 13:36:56.180
56, 37120.34, 77248.43, -187500.02, -187500.02, -187500.02, -187500.02, -187500.02, 187500.00, 0.000, 0.000, 0.000, 13:36:56.180
57, 39648.48, 80221.55, -187500.02, -187500.02, -187500.02, -187500.02, -187500.02, 187500.00, 0.440, 0.922, -0.174, 13:36:56.181
58, 37374.02, 77740.20, -187500.02, -187500.02, -187500.02, -187500.02, -187500.02, 187500.00, 0.000, 0.000, 0.000, 13:36:56.181
59, 35092.06, 75043.59, -187500.02, -187500.02, -187500.02, -187500.02, -187500.02, 187500.00, 0.000, 0.000, 0.000, 13:36:56.182
60, 36589.83, 76682.77, -187500.02, -187500.02, -187500.02, -187500.02, -187500.02, 187500.00, 0.000, 0.000, 0.000, 13:36:56.182
61, 39399.51, 79942.24, -187500.02, -187500.02, -187500.02, -187500.02, -187500.02, 187500.00, 0.000, 0.000, 0.000, 13:36:56.182
62, 38077.29, 78490.56, -187500.02, -187500.02, -187500.02, -187500.02, -187500.02, 187500.00, 0.000, 0.000, 0.000, 13:36:56.183
63, 35227.49, 75140.62, -187500.02, -187500.02, -187500.02, -187500.02, -187500.02, 187500.00, 0.000, 0.000, 0.000, 13:36:56.183
64, 36219.32, 76193.83, -187500.02, -187500.02, -187500.02, -187500.02, -187500.02, 187500.00, 0.000, 0.000, 0.000, 13:36:56.183
65, 39093.96, 79520.58, -187500.02, -187500.02, -187500.02, -187500.02, -187500.02, 187500.00, 0.000, 0.000, 0.000, 13:36:56.183
66, 38690.67, 79197.15, -187500.02, -187500.02, -187500.02, -187500.02, -187500.02, 187500.00, 0.440, 0.918, -0.180, 13:36:56.184
67, 35381.22, 75402.58, -187500.02, -187500.02, -187500.02, -187500.02, -187500.02, 187500.00, 0.000, 0.000, 0.000, 13:36:56.184
68, 35808.01, 75768.37, -187500.02, -187500.02, -187500.02, -187500.02, -187500.02, 187500.00, 0.000, 0.000, 0.000, 13:36:56.184
69, 38598.18, 78956.44, -187500.02, -187500.02, -187500.02, -187500.02, -187500.02, 187500.00, 0.000, 0.000, 0.000, 13:36:56.185
70, 39199.10, 79734.88, -187500.02, -187500.02, -187500.02, -187500.02, -187500.02, 187500.00, 0.000, 0.000, 0.000, 13:36:56.185
71, 35765.11, 75820.42, -187500.02, -187500.02, -187500.02, -187500.02, -187500.02, 187500.00, 0.000, 0.000, 0.000, 13:36:56.185
72, 35529.71, 75434.09, -187500.02, -187500.02, -187500.02, -187500.02, -187500.02, 187500.00, 0.000, 0.000, 0.000, 13:36:56.185
73, 38077.80, 78337.34, -187500.02, -187500.02, -187500.02, -187500.02, -187500.02, 187500.00, 0.000, 0.000, 0.000, 13:36:56.186
74, 39524.32, 80086.01, -187500.02, -187500.02, -187500.02, -187500.02, -187500.02, 187500.00, 0.000, 0.000, 0.000, 13:36:56.186
75, 36259.80, 76408.30, -187500.02, -187500.02, -187500.02, -187500.02, -187500.02, 187500.00, 0.000, 0.000, 0.000, 13:36:56.186
76, 35303.73, 75197.55, -187500.02, -187500.02, -187500.02, -187500.02, -187500.02, 187500.00, 0.422, 0.914, -0.176, 13:36:56.188
77, 37518.83, 77722.00, -187500.02, -187500.02, -187500.02, -187500.02, -187500.02, 187500.00, 0.000, 0.000, 0.000, 13:36:56.188
78, 39660.75, 80288.13, -187500.02, -187500.02, -187500.02, -187500.02, -187500.02, 187500.00, 0.000, 0.000, 0.000, 13:36:56.189
79, 36857.89, 77126.46, -187500.02, -187500.02, -187500.02, -187500.02, -187500.02, 187500.00, 0.000, 0.000, 0.000, 13:36:56.189
80, 35177.31, 75068.87, -187500.02, -187500.02, -187500.02, -187500.02, -187500.02, 187500.00, 0.000, 0.000, 0.000, 13:36:56.189
81, 37009.97, 77144.43, -187500.02, -187500.02, -187500.02, -187500.02, -187500.02, 187500.00, 0.000, 0.000, 0.000, 13:36:56.190
82, 39620.14, 80217.48, -187500.02, -187500.02, -187500.02, -187500.02, -187500.02, 187500.00, 0.000, 0.000, 0.000, 13:36:56.190
83, 37519.05, 77898.69, -187500.02, -187500.02, -187500.02, -187500.02, -187500.02, 187500.00, 0.000, 0.000, 0.000, 13:36:56.192
84, 35118.07, 75024.97, -187500.02, -187500.02, -187500.02, -187500.02, -187500.02, 187500.00, 0.000, 0.000, 0.000, 13:36:56.192
85, 36551.79, 76580.72, -187500.02, -187500.02, -187500.02, -187500.02, -187500.02, 187500.00, 0.000, 0.000, 0.000, 13:36:56.193
86, 39412.70, 79934.89, -187500.02, -187500.02, -187500.02, -187500.02, -187500.02, 187500.00, 0.418, 0.918, -0.178, 13:36:56.193
87, 38209.59, 78680.20, -187500.02, -187500.02, -187500.02, -187500.02, -187500.02, 187500.00, 0.000, 0.000, 0.000, 13:36:56.194
88, 35199.21, 75135.95, -187500.02, -187500.02, -187500.02, -187500.02, -187500.02, 187500.00, 0.000, 0.000, 0.000, 13:36:56.194
89, 36128.09, 76070.65, -187500.02, -187500.02, -187500.02, -187500.02, -187500.02, 187500.00, 0.000, 0.000, 0.000, 13:36:56.196
90, 39027.51, 79457.23, -187500.02, -187500.02, -187500.02, -187500.02, -187500.02, 187500.00, 0.000, 0.000, 0.000, 13:36:56.196
91, 38822.88, 79355.73, -187500.02, -187500.02, -187500.02, -187500.02, -187500.02, 187500.00, 0.000, 0.000, 0.000, 13:36:56.197
92, 35425.41, 75411.12, -187500.02, -187500.02, -187500.02, -187500.02, -187500.02, 187500.00, 0.000, 0.000, 0.000, 13:36:56.197
93, 35745.63, 75644.29, -187500.02, -187500.02, -187500.02, -187500.02, -187500.02, 187500.00, 0.000, 0.000, 0.000, 13:36:56.198
94, 38535.39, 78887.22, -187500.02, -187500.02, -187500.02, -187500.02, -187500.02, 187500.00, 0.000, 0.000, 0.000, 13:36:56.198
95, 39308.69, 79922.17, -187500.02, -187500.02, -187500.02, -187500.02, -187500.02, 187500.00, 0.000, 0.000, 0.000, 13:36:56.198
96, 35811.45, 75904.04, -187500.02, -187500.02, -187500.02, -187500.02, -187500.02, 187500.00, 0.414, 0.924, -0.166, 13:36:56.199
97, 35426.75, 75332.08, -187500.02, -187500.02, -187500.02, -187500.02, -187500.02, 187500.00, 0.000, 0.000, 0.000, 13:36:56.199
98, 37958.40, 78262.93, -187500.02, -187500.02, -187500.02, -187500.02, -187500.02, 187500.00, 0.000, 0.000, 0.000, 13:36:56.199
99, 39636.08, 80269.41, -187500.02, -187500.02, -187500.02, -187500.02, -187500.02, 187500.00, 0.000, 0.000, 0.000, 13:36:56.199
100, 36360.25, 76535.03, -187500.02, -187500.02, -187500.02, -187500.02, -187500.02, 187500.00, 0.000, 0.000, 0.000, 13:36:56.200
101, 35214.43, 75093.81, -187500.02, -187500.02, -187500.02, -187500.02, -187500.02, 187500.00, 0.000, 0.000, 0.000, 13:36:56.200
102, 37416.57, 77617.37, -187500.02, -187500.02, -187500.02, -187500.02, -187500.02, 187500.00, 0.000, 0.000, 0.000, 13:36:56.200
103, 39727.72, 80382.86, -187500.02, -187500.02, -187500.02, -187500.02, -187500.02, 187500.00, 0.000, 0.000, 0.000, 13:36:56.201
104, 36983.75, 77267.59, -187500.02, -187500.02, -187500.02, -187500.02, -187500.02, 187500.00, 0.000, 0.000, 0.000, 13:36:56.201
105, 35068.41, 74944.05, -187500.02, -187500.02, -187500.02, -187500.02, -187500.02, 187500.00, 0.000, 0.000, 0.000, 13:36:56.664
106, 36877.45, 76996.84, -187500.02, -187500.02, -187500.02, -187500.02, -187500.02, 187500.00, 0.422, 0.918, -0.166, 13:36:56.665
107, 39645.29, 80275.95, -187500.02, -187500.02, -187500.02, -187500.02, -187500.02, 187500.00, 0.000, 0.000, 0.000, 13:36:56.665
108, 37675.74, 78085.23, -187500.02, -187500.02, -187500.02, -187500.02, -187500.02, 187500.00, 0.000, 0.000, 0.000, 13:36:56.665
109, 35073.04, 74945.59, -187500.02, -187500.02, -187500.02, -187500.02, -187500.02, 187500.00, 0.000, 0.000, 0.000, 13:36:56.666
110, 36454.80, 76430.40, -187500.02, -187500.02, -187500.02, -187500.02, -187500.02, 187500.00, 0.000, 0.000, 0.000, 13:36:56.666
111, 39421.12, 79950.31, -187500.02, -187500.02, -187500.02, -187500.02, -187500.02, 187500.00, 0.000, 0.000, 0.000, 13:36:56.666
112, 38391.29, 78896.31, -187500.02, -187500.02, -187500.02, -187500.02, -187500.02, 187500.00, 0.000, 0.000, 0.000, 13:36:56.667
113, 35192.44, 75105.05, -187500.02, -187500.02, -187500.02, -187500.02, -187500.02, 187500.00, 0.000, 0.000, 0.000, 13:36:56.667
114, 35983.65, 75940.27, -187500.02, -187500.02, -187500.02, -187500.02, -187500.02, 187500.00, 0.000, 0.000, 0.000, 13:36:56.667
115, 38961.19, 79453.20, -187500.02, -187500.02, -187500.02, -187500.02, -187500.02, 187500.00, 0.000, 0.000, 0.000, 13:36:56.668
116, 39001.27, 79609.05, -187500.02, -187500.02, -187500.02, -187500.02, -187500.02, 187500.00, 0.420, 0.924, -0.162, 13:36:56.668
117, 35479.48, 75462.93, -187500.02, -187500.02, -187500.02, -187500.02, -187500.02, 187500.00, 0.000, 0.000, 0.000, 13:36:56.669
118, 35647.43, 75525.16, -187500.02, -187500.02, -187500.02, -187500.02, -187500.02, 187500.00, 0.000, 0.000, 0.000, 13:36:56.669
119, 38449.78, 78831.78, -187500.02, -187500.02, -187500.02, -187500.02, -187500.02, 187500.00, 0.000, 0.000, 0.000, 13:36:56.669
120, 39453.00, 80133.23, -187500.02, -187500.02, -187500.02, -187500.02, -187500.02, 187500.00, 0.000, 0.000, 0.000, 13:36:56.670
121, 35917.78, 75977.13, -187500.02, -187500.02, -187500.02, -187500.02, -187500.02, 187500.00, 0.000, 0.000, 0.000, 13:36:56.671
122, 35373.22, 75181.37, -187500.02, -187500.02, -187500.02, -187500.02, -187500.02, 187500.00, 0.000, 0.000, 0.000, 13:36:56.671
123, 37907.71, 78158.77, -187500.02, -187500.02, -187500.02, -187500.02, -187500.02, 187500.00, 0.000, 0.000, 0.000, 13:36:56.672
124, 39748.60, 80442.98, -187500.02, -187500.02, -187500.02, -187500.02, -187500.02, 187500.00, 0.000, 0.000, 0.000, 13:36:56.672
125, 36489.60, 76653.30, -187500.02, -187500.02, -187500.02, -187500.02, -187500.02, 187500.00, 0.000, 0.000, 0.000, 13:36:56.673
126, 35197.40, 74967.16, -187500.02, -187500.02, -187500.02, -187500.02, -187500.02, 187500.00, 0.442, 0.934, -0.158, 13:36:56.673
127, 37343.19, 77511.84, -187500.02, -187500.02, -187500.02, -187500.02, -187500.02, 187500.00, 0.000, 0.000, 0.000, 13:36:56.673
128, 39775.42, 80525.62, -187500.02, -187500.02, -187500.02, -187500.02, -187500.02, 187500.00, 0.000, 0.000, 0.000, 13:36:56.674
129, 37166.25, 77453.69, -187500.02, -187500.02, -187500.02, -187500.02, -187500.02, 187500.00, 0.000, 0.000, 0.000, 13:36:56.674
130, 35132.67, 74851.05, -187500.02, -187500.02, -187500.02, -187500.02, -187500.02, 187500.00, 0.000, 0.000, 0.000, 13:36:56.675
131, 36863.17, 76870.24, -187500.02, -187500.02, -187500.02, -187500.02, -187500.02, 187500.00, 0.000, 0.000, 0.000, 13:36:56.675
132, 39670.21, 80359.48, -187500.02, -187500.02, -187500.02, -187500.02, -187500.02, 187500.00, 0.000, 0.000, 0.000, 13:36:56.675
133, 37905.09, 78325.63, -187500.02, -187500.02, -187500.02, -187500.02, -187500.02, 187500.00, 0.000, 0.000, 0.000, 13:36:56.676
134, 35158.67, 74884.02, -187500.02, -187500.02, -187500.02, -187500.02, -187500.02, 187500.00, 0.000, 0.000, 0.000, 13:36:56.676
135, 36377.73, 76296.91, -187500.02, -187500.02, -187500.02, -187500.02, -187500.02, 187500.00, 0.438, 0.938, -0.178, 13:36:56.677
136, 39331.76, 79965.66, -187500.02, -187500.02, -187500.02, -187500.02, -187500.02, 187500.00, 0.000, 0.000, 0.000, 13:36:56.679
137, 38547.19, 79109.03, -187500.02, -187500.02, -187500.02, -187500.02, -187500.02, 187500.00, 0.000, 0.000, 0.000, 13:36:56.680
138, 35324.20, 75081.36, -187500.02, -187500.02, -187500.02, -187500.02, -187500.02, 187500.00, 0.000, 0.000, 0.000, 13:36:56.680
139, 36004.86, 75806.52, -187500.02, -187500.02, -187500.02, -187500.02, -187500.02, 187500.00, 0.000, 0.000, 0.000, 13:36:56.680
140, 38863.56, 79405.17, -187500.02, -187500.02, -187500.02, -187500.02, -187500.02, 187500.00, 0.000, 0.000, 0.000, 13:36:56.681
141, 39072.52, 79795.32, -187500.02, -187500.02, -187500.02, -187500.02, -187500.02, 187500.00, 0.000, 0.000, 0.000, 13:36:56.681
142, 35604.16, 75494.55, -187500.02, -187500.02, -187500.02, -187500.02, -187500.02, 187500.00, 0.000, 0.000, 0.000, 13:36:56.681
143, 35651.72, 75405.02, -187500.02, -187500.02, -187500.02, -187500.02, -187500.02, 187500.00, 0.000, 0.000, 0.000, 13:36:56.682
144, 38377.23, 78743.92, -187500.02, -187500.02, -187500.02, -187500.02, -187500.02, 187500.00, 0.000, 0.000, 0.000, 13:36:56.682
145, 39513.55, 80268.60, -187500.02, -187500.02, -187500.02, -187500.02, -187500.02, 187500.00, 0.452, 0.904, -0.158, 13:36:56.682
146, 36042.48, 76078.38, -187500.02, -187500.02, -187500.02, -187500.02, -187500.02, 187500.00, 0.000, 0.000, 0.000, 13:36:56.683
147, 35382.88, 75131.68, -187500.02, -187500.02, -187500.02, -187500.02, -187500.02, 187500.00, 0.000, 0.000, 0.000, 13:36:56.683
148, 37815.57, 78073.50, -187500.02, -187500.02, -187500.02, -187500.02, -187500.02, 187500.00, 0.000, 0.000, 0.000, 13:36:56.683
149, 39744.73, 80530.02, -187500.02, -187500.02, -187500.02, -187500.02, -187500.02, 187500.00, 0.000, 0.000, 0.000, 13:36:56.684
150, 36623.91, 76821.67, -187500.02, -187500.02, -187500.02, -187500.02, -187500.02, 187500.00, 0.000, 0.000, 0.000, 13:36:56.685
151, 35196.31, 74945.64, -187500.02, -187500.02, -187500.02, -187500.02, -187500.02, 187500.00, 0.000, 0.000, 0.000, 13:36:56.685
152, 37256.29, 77392.60, -187500.02, -187500.02, -187500.02, -187500.02, -187500.02, 187500.00, 0.000, 0.000, 0.000, 13:36:56.685
153, 39761.67, 80514.02, -187500.02, -187500.02, -187500.02, -187500.02, -187500.02, 187500.00, 0.000, 0.000, 0.000, 13:36:56.686
154, 37283.56, 77631.95, -187500.02, -187500.02, -187500.02, -187500.02, -187500.02, 187500.00, 0.000, 0.000, 0.000, 13:36:56.686
155, 35081.53, 74865.13, -187500.02, -187500.02, -187500.02, -187500.02, -187500.02, 187500.00, 0.436, 0.912, -0.130, 13:36:56.687
156, 36706.32, 76763.17, -187500.02, -187500.02, -187500.02, -187500.02, -187500.02, 187500.00, 0.000, 0.000, 0.000, 13:36:56.687
157, 39572.02, 80263.16, -187500.02, -187500.02, -187500.02, -187500.02, -187500.02, 187500.00, 0.000, 0.000, 0.000, 13:36:56.688
158, 38008.09, 78478.36, -187500.02, -187500.02, -187500.02, -187500.02, -187500.02, 187500.00, 0.000, 0.000, 0.000, 13:36:56.688
159, 35146.42, 74963.45, -187500.02, -187500.02, -187500.02, -187500.02, -187500.02, 187500.00, 0.000, 0.000, 0.000, 13:36:56.688
160, 36286.40, 76213.32, -187500.02, -187500.02, -187500.02, -187500.02, -187500.02, 187500.00, 0.000, 0.000, 0.000, 13:36:56.689
161, 39247.05, 79805.74, -187500.02, -187500.02, -187500.02, -187500.02, -187500.02, 187500.00, 0.000, 0.000, 0.000, 13:36:56.689
162, 38649.47, 79243.80, -187500.02, -187500.02, -187500.02, -187500.02, -187500.02, 187500.00, 0.000, 0.000, 0.000, 13:36:56.690
163, 35324.58, 75238.85, -187500.02, -187500.02, -187500.02, -187500.02, -187500.02, 187500.00, 0.000, 0.000, 0.000, 13:36:56.690
164, 35898.18, 75783.32, -187500.02, -187500.02, -187500.02, -187500.02, -187500.02, 187500.00, 0.000, 0.000, 0.000, 13:36:56.690
165, 38819.23, 79265.43, -187500.02, -187500.02, -187500.02, -187500.02, -187500.02, 187500.00, 0.400, 0.926, -0.140, 13:36:56.691
166, 39233.48, 79885.76, -187500.02, -187500.02, -187500.02, -187500.02, -187500.02, 187500.00, 0.000, 0.000, 0.000, 13:36:56.696
167, 35663.75, 75694.34, -187500.02, -187500.02, -187500.02, -187500.02, -187500.02, 187500.00, 0.000, 0.000, 0.000, 13:36:56.697
168, 35542.34, 75426.02, -187500.02, -187500.02, -187500.02, -187500.02, -187500.02, 187500.00, 0.000, 0.000, 0.000, 13:36:56.697
169, 38246.00, 78591.55, -187500.02, -187500.02, -187500.02, -187500.02, -187500.02, 187500.00, 0.000, 0.000, 0.000, 13:36:56.697
170, 39604.96, 80287.71, -187500.02, -187500.02, -187500.02, -187500.02, -187500.02, 187500.00, 0.000, 0.000, 0.000, 13:36:56.698
171, 36147.78, 76269.60, -187500.02, -187500.02, -187500.02, -187500.02, -187500.02, 187500.00, 0.000, 0.000, 0.000, 13:36:56.698
172, 35313.99, 75154.03, -187500.02, -187500.02, -187500.02, -187500.02, -187500.02, 187500.00, 0.000, 0.000, 0.000, 13:36:56.698
173, 37700.26, 77934.30, -187500.02, -187500.02, -187500.02, -187500.02, -187500.02, 187500.00, 0.000, 0.000, 0.000, 13:36:56.699
174, 39789.10, 80494.77, -187500.02, -187500.02, -187500.02, -187500.02, -187500.02, 187500.00, 0.000, 0.000, 0.000, 13:36:56.699
175, 36774.16, 77027.35, -187500.02, -187500.02, -187500.02, -187500.02, -187500.02, 187500.00, 0.392, 0.928, -0.110, 13:36:56.699
176, 35175.95, 75008.20, -187500.02, -187500.02, -187500.02, -187500.02, -187500.02, 187500.00, 0.000, 0.000, 0.000, 13:36:56.700
177, 37167.35, 77282.47, -187500.02, -187500.02, -187500.02, -187500.02, -187500.02, 187500.00, 0.000, 0.000, 0.000, 13:36:56.700
178, 39764.76, 80424.57, -187500.02, -187500.02, -187500.02, -187500.02, -187500.02, 187500.00, 0.000, 0.000, 0.000, 13:36:56.700
179, 37462.75, 77822.05, -187500.02, -187500.02, -187500.02, -187500.02, -187500.02, 187500.00, 0.000, 0.000, 0.000, 13:36:56.701
180, 35124.40, 74960.88, -187500.02, -187500.02, -187500.02, -187500.02, -187500.02, 187500.00, 0.000, 0.000, 0.000, 13:36:56.701
181, 36664.26, 76690.69, -187500.02, -187500.02, -187500.02, -187500.02, -187500.02, 187500.00, 0.000, 0.000, 0.000, 13:36:56.701
182, 39554.52, 80142.80, -187500.02, -187500.02, -187500.02, -187500.02, -187500.02, 187500.00, 0.000, 0.000, 0.000, 13:36:56.702
183, 38158.02, 78636.07, -187500.02, -187500.02, -187500.02, -187500.02, -187500.02, 187500.00, 0.000, 0.000, 0.000, 13:36:56.702
184, 35232.18, 75109.32, -187500.02, -187500.02, -187500.02, -187500.02, -187500.02, 187500.00, 0.000, 0.000, 0.000, 13:36:56.703
185, 36254.50, 76203.35, -187500.02, -187500.02, -187500.02, -187500.02, -187500.02, 187500.00, 0.410, 0.918, -0.138, 13:36:56.703
186, 39158.82, 79680.75, -187500.02, -187500.02, -187500.02, -187500.02, -187500.02, 187500.00, 0.000, 0.000, 0.000, 13:36:56.703
187, 38778.29, 79345.13, -187500.02, -187500.02, -187500.02, -187500.02, -187500.02, 187500.00, 0.000, 0.000, 0.000, 13:36:56.704
188, 35466.45, 75403.92, -187500.02, -187500.02, -187500.02, -187500.02, -187500.02, 187500.00, 0.000, 0.000, 0.000, 13:36:56.704
189, 35892.48, 75783.25, -187500.02, -187500.02, -187500.02, -187500.02, -187500.02, 187500.00, 0.000, 0.000, 0.000, 13:36:56.705
190, 38669.05, 79082.93, -187500.02, -187500.02, -187500.02, -187500.02, -187500.02, 187500.00, 0.000, 0.000, 0.000, 13:36:56.705
191, 39254.38, 79904.55, -187500.02, -187500.02, -187500.02, -187500.02, -187500.02, 187500.00, 0.000, 0.000, 0.000, 13:36:56.705
192, 35832.19, 75854.77, -187500.02, -187500.02, -187500.02, -187500.02, -187500.02, 187500.00, 0.000, 0.000, 0.000, 13:36:56.706
193, 35608.74, 75425.69, -187500.02, -187500.02, -187500.02, -187500.02, -187500.02, 187500.00, 0.000, 0.000, 0.000, 13:36:56.706
194, 38146.69, 78408.11, -187500.02, -187500.02, -187500.02, -187500.02, -187500.02, 187500.00, 0.422, 0.922, -0.160, 13:36:56.707
195, 39603.51, 80274.70, -187500.02, -187500.02, -187500.02, -187500.02, -187500.02, 187500.00, 0.000, 0.000, 0.000, 13:36:56.707
196, 36339.04, 76479.22, -187500.02, -187500.02, -187500.02, -187500.02, -187500.02, 187500.00, 0.000, 0.000, 0.000, 13:36:56.707
197, 35374.47, 75195.31, -187500.02, -187500.02, -187500.02, -187500.02, -187500.02, 187500.00, 0.000, 0.000, 0.000, 13:36:56.708
198, 37581.80, 77780.31, -187500.02, -187500.02, -187500.02, -187500.02, -187500.02, 187500.00, 0.000, 0.000, 0.000, 13:36:56.708
199, 39724.77, 80405.10, -187500.02, -187500.02, -187500.02, -187500.02, -187500.02, 187500.00, 0.000, 0.000, 0.000, 13:36:56.708
200, 36934.40, 77188.98, -187500.02, -187500.02, -187500.02, -187500.02, -187500.02, 187500.00, 0.000, 0.000, 0.000, 13:36:56.709
201, 35240.03, 75060.33, -187500.02, -187500.02, -187500.02, -187500.02, -187500.02, 187500.00, 0.000, 0.000, 0.000, 13:36:56.709
202, 37087.60, 77168.41, -187500.02, -187500.02, -187500.02, -187500.02, -187500.02, 187500.00, 0.000, 0.000, 0.000, 13:36:56.710
203, 39688.02, 80302.62, -187500.02, -187500.02, -187500.02, -187500.02, -187500.02, 187500.00, 0.000, 0.000, 0.000, 13:36:56.710
204, 37607.37, 77965.72, -187500.02, -187500.02, -187500.02, -187500.02, -187500.02, 187500.00, 0.432, 0.910, -0.174, 13:36:56.711
205, 35201.29, 75050.14, -187500.02, -187500.02, -187500.02, -187500.02, -187500.02, 187500.00, 0.000, 0.000, 0.000, 13:36:56.711
206, 36596.69, 76613.24, -187500.02, -187500.02, -187500.02, -187500.02, -187500.02, 187500.00, 0.000, 0.000, 0.000, 13:36:56.712
207, 39428.05, 79992.51, -187500.02, -187500.02, -187500.02, -187500.02, -187500.02, 187500.00, 0.000, 0.000, 0.000, 13:36:56.712
208, 38260.69, 78753.71, -187500.02, -187500.02, -187500.02, -187500.02, -187500.02, 187500.00, 0.000, 0.000, 0.000, 13:36:56.712
209, 35290.00, 75191.67, -187500.02, -187500.02, -187500.02, -187500.02, -187500.02, 187500.00, 0.000, 0.000, 0.000, 13:36:56.714
210, 36185.37, 76118.93, -187500.02, -187500.02, -187500.02, -187500.02, -187500.02, 187500.00, 0.000, 0.000, 0.000, 13:36:56.715
211, 39059.58, 79510.43, -187500.02, -187500.02, -187500.02, -187500.02, -187500.02, 187500.00, 0.000, 0.000, 0.000, 13:36:56.715
212, 38894.20, 79433.54, -187500.02, -187500.02, -187500.02, -187500.02, -187500.02, 187500.00, 0.000, 0.000, 0.000, 13:36:56.716
213, 35540.66, 75516.87, -187500.02, -187500.02, -187500.02, -187500.02, -187500.02, 187500.00, 0.000, 0.000, 0.000, 13:36:56.718
214, 35826.18, 75729.52, -187500.02, -187500.02, -187500.02, -187500.02, -187500.02, 187500.00, 0.434, 0.908, -0.180, 13:36:56.719
215, 38562.70, 78919.96, -187500.02, -187500.02, -187500.02, -187500.02, -187500.02, 187500.00, 0.000, 0.000, 0.000, 13:36:56.720
216, 39344.39, 79949.48, -187500.02, -187500.02, -187500.02, -187500.02, -187500.02, 187500.00, 0.000, 0.000, 0.000, 13:36:56.720
217, 35902.42, 75988.95, -187500.02, -187500.02, -187500.02, -187500.02, -187500.02, 187500.00, 0.000, 0.000, 0.000, 13:36:56.721
218, 35525.30, 75404.37, -187500.02, -187500.02, -187500.02, -187500.02, -187500.02, 187500.00, 0.000, 0.000, 0.000, 13:36:56.722
219, 38013.81, 78278.91, -187500.02, -187500.02, -187500.02, -187500.02, -187500.02, 187500.00, 0.000, 0.000, 0.000, 13:36:56.722
220, 39647.07, 80276.66, -187500.02, -187500.02, -187500.02, -187500.02, -187500.02, 187500.00, 0.000, 0.000, 0.000, 13:36:56.722
221, 36452.88, 76626.98, -187500.02, -187500.02, -187500.02, -187500.02, -187500.02, 187500.00, 0.000, 0.000, 0.000, 13:36:56.734
222, 35323.60, 75198.51, -187500.02, -187500.02, -187500.02, -187500.02, -187500.02, 187500.00, 0.000, 0.000, 0.000, 13:36:56.735
223, 37474.13, 77643.05, -187500.02, -187500.02, -187500.02, -187500.02, -187500.02, 187500.00, 0.000, 0.000, 0.000, 13:36:56.735
224, 39763.30, 80349.18, -187500.02, -187500.02, -187500.02, -187500.02, -187500.02, 187500.00, 0.442, 0.908, -0.182, 13:36:56.736
225, 37088.25, 77344.14, -187500.02, -187500.02, -187500.02, -187500.02, -187500.02, 187500.00, 0.000, 0.000, 0.000, 13:36:57.117
226, 35231.31, 75090.10, -187500.02, -187500.02, -187500.02, -187500.02, -187500.02, 187500.00, 0.000, 0.000, 0.000, 13:36:57.117
227, 36993.66, 77073.15, -187500.02, -187500.02, -187500.02, -187500.02, -187500.02, 187500.00, 0.000, 0.000, 0.000, 13:36:57.117
228, 39673.20, 80219.27, -187500.02, -187500.02, -187500.02, -187500.02, -187500.02, 187500.00, 0.000, 0.000, 0.000, 13:36:57.117
229, 37767.14, 78143.22, -187500.02, -187500.02, -187500.02, -187500.02, -187500.02, 187500.00, 0.000, 0.000, 0.000, 13:36:57.118
230, 35231.67, 75131.61, -187500.02, -187500.02, -187500.02, -187500.02, -187500.02, 187500.00, 0.000, 0.000, 0.000, 13:36:57.118
231, 36537.10, 76536.75, -187500.02, -187500.02, -187500.02, -187500.02, -187500.02, 187500.00, 0.000, 0.000, 0.000, 13:36:57.118
232, 39380.84, 79872.46, -187500.02, -187500.02, -187500.02, -187500.02, -187500.02, 187500.00, 0.000, 0.000, 0.000, 13:36:57.118
233, 38421.98, 78886.61, -187500.02, -187500.02, -187500.02, -187500.02, -187500.02, 187500.00, 0.000, 0.000, 0.000, 13:36:57.119
234, 35356.66, 75296.61, -187500.02, -187500.02, -187500.02, -187500.02, -187500.02, 187500.00, 0.444, 0.906, -0.190, 13:36:57.119
235, 36120.62, 76078.77, -187500.02, -187500.02, -187500.02, -187500.02, -187500.02, 187500.00, 0.000, 0.000, 0.000, 13:36:57.119
236, 38968.86, 79385.93, -187500.02, -187500.02, -187500.02, -187500.02, -187500.02, 187500.00, 0.000, 0.000, 0.000, 13:36:57.120
237, 39004.04, 79544.09, -187500.02, -187500.02, -187500.02, -187500.02, -187500.02, 187500.00, 0.000, 0.000, 0.000, 13:36:57.120
238, 35634.91, 75659.67, -187500.02, -187500.02, -187500.02, -187500.02, -187500.02, 187500.00, 0.000, 0.000, 0.000, 13:36:57.120
239, 35790.42, 75717.11, -187500.02, -187500.02, -187500.02, -187500.02, -187500.02, 187500.00, 0.000, 0.000, 0.000, 13:36:57.121
240, 38469.41, 78796.91, -187500.02, -187500.02, -187500.02, -187500.02, -187500.02, 187500.00, 0.000, 0.000, 0.000, 13:36:57.121
241, 39419.29, 80010.70, -187500.02, -187500.02, -187500.02, -187500.02, -187500.02, 187500.00, 0.000, 0.000, 0.000, 13:36:57.121
242, 36072.61, 76161.33, -187500.02, -187500.02, -187500.02, -187500.02, -187500.02, 187500.00, 0.000, 0.000, 0.000, 13:36:57.121
243, 35547.52, 75427.55, -187500.02, -187500.02, -187500.02, -187500.02, -187500.02, 187500.00, 0.000, 0.000, 0.000, 13:36:57.122
244, 37928.81, 78158.75, -187500.02, -187500.02, -187500.02, -187500.02, -187500.02, 187500.00, 0.440, 0.912, -0.190, 13:36:57.122
245, 39669.56, 80270.23, -187500.02, -187500.02, -187500.02, -187500.02, -187500.02, 187500.00, 0.000, 0.000, 0.000, 13:36:57.122
246, 36590.05, 76793.13, -187500.02, -187500.02, -187500.02, -187500.02, -187500.02, 187500.00, 0.000, 0.000, 0.000, 13:36:57.122
247, 35347.76, 75244.59, -187500.02, -187500.02, -187500.02, -187500.02, -187500.02, 187500.00, 0.000, 0.000, 0.000, 13:36:57.123
248, 37400.73, 77559.52, -187500.02, -187500.02, -187500.02, -187500.02, -187500.02, 187500.00, 0.000, 0.000, 0.000, 13:36:57.123
249, 39717.33, 80314.09, -187500.02, -187500.02, -187500.02, -187500.02, -187500.02, 187500.00, 0.000, 0.000, 0.000, 13:36:57.123
250, 37224.57, 77535.02, -187500.02, -187500.02, -187500.02, -187500.02, -187500.02, 187500.00, 0.000, 0.000, 0.000, 13:36:57.123
251, 35252.23, 75156.87, -187500.02, -187500.02, -187500.02, -187500.02, -187500.02, 187500.00, 0.000, 0.000, 0.000, 13:36:57.124
252, 36897.03, 76975.18, -187500.02, -187500.02, -187500.02, -187500.02, -187500.02, 187500.00, 0.000, 0.000, 0.000, 13:36:57.124
253, 39574.93, 80114.15, -187500.02, -187500.02, -187500.02, -187500.02, -187500.02, 187500.00, 0.000, 0.000, 0.000, 13:36:57.124
254, 37892.00, 78292.16, -187500.02, -187500.02, -187500.02, -187500.02, -187500.02, 187500.00, 0.438, 0.906, -0.188, 13:36:57.125
255, 35269.89, 75209.80, -187500.02, -187500.02, -187500.02, -187500.02, -187500.02, 187500.00, 0.000, 0.000, 0.000, 13:36:57.125
0, 36443.73, 76463.51, -187500.02, -187500.02, -187500.02, -187500.02, -187500.02, 187500.00, 0.000, 0.000, 0.000, 13:36:57.125
1, 39275.05, 79739.13, -187500.02, -187500.02, -187500.02, -187500.02, -187500.02, 187500.00, 0.000, 0.000, 0.000, 13:36:57.125
2, 38530.05, 79006.91, -187500.02, -187500.02, -187500.02, -187500.02, -187500.02, 187500.00, 0.000, 0.000, 0.000, 13:36:57.125
3, 35405.56, 75408.75, -187500.02, -187500.02, -187500.02, -187500.02, -187500.02, 187500.00, 0.000, 0.000, 0.000, 13:36:57.125
4, 36040.98, 76026.91, -187500.02, -187500.02, -187500.02, -187500.02, -187500.02, 187500.00, 0.000, 0.000, 0.000, 13:36:57.126
5, 38842.43, 79226.34, -187500.02, -187500.02, -187500.02, -187500.02, -187500.02, 187500.00, 0.000, 0.000, 0.000, 13:36:57.126
6, 39089.00, 79612.58, -187500.02, -187500.02, -187500.02, -187500.02, -187500.02, 187500.00, 0.000, 0.000, 0.000, 13:36:57.126
7, 35703.74, 75780.05, -187500.02, -187500.02, -187500.02, -187500.02, -187500.02, 187500.00, 0.440, 0.914, -0.194, 13:36:57.126
8, 35712.66, 75674.91, -187500.02, -187500.02, -187500.02, -187500.02, -187500.02, 187500.00, 0.000, 0.000, 0.000, 13:36:57.127
9, 38340.35, 78640.03, -187500.02, -187500.02, -187500.02, -187500.02, -187500.02, 187500.00, 0.000, 0.000, 0.000, 13:36:57.127
10, 39499.53, 80036.03, -187500.02, -187500.02, -187500.02, -187500.02, -187500.02, 187500.00, 0.000, 0.000, 0.000, 13:36:57.127
11, 36159.78, 76297.97, -187500.02, -187500.02, -187500.02, -187500.02, -187500.02, 187500.00, 0.000, 0.000, 0.000, 13:36:57.127
12, 35483.32, 75413.94, -187500.02, -187500.02, -187500.02, -187500.02, -187500.02, 187500.00, 0.000, 0.000, 0.000, 13:36:57.127
13, 37820.27, 78021.89, -187500.02, -187500.02, -187500.02, -187500.02, -187500.02, 187500.00, 0.000, 0.000, 0.000, 13:36:57.128
14, 39727.05, 80253.91, -187500.02, -187500.02, -187500.02, -187500.02, -187500.02, 187500.00, 0.000, 0.000, 0.000, 13:36:57.128
15, 36733.48, 76940.13, -187500.02, -187500.02, -187500.02, -187500.02, -187500.02, 187500.00, 0.000, 0.000, 0.000, 13:36:57.128
16, 35311.78, 75235.37, -187500.02, -187500.02, -187500.02, -187500.02, -187500.02, 187500.00, 0.000, 0.000, 0.000, 13:36:57.129
17, 37254.50, 77423.02, -187500.02, -187500.02, -187500.02, -187500.02, -187500.02, 187500.00, 0.438, 0.910, -0.186, 13:36:57.129
18, 39703.09, 80236.57, -187500.02, -187500.02, -187500.02, -187500.02, -187500.02, 187500.00, 0.000, 0.000, 0.000, 13:36:57.129
19, 37403.23, 77713.13, -187500.02, -187500.02, -187500.02, -187500.02, -187500.02, 187500.00, 0.000, 0.000, 0.000, 13:36:57.129
20, 35300.20, 75215.25, -187500.02, -187500.02, -187500.02, -187500.02, -187500.02, 187500.00, 0.000, 0.000, 0.000, 13:36:57.130
21, 36842.02, 76881.15, -187500.02, -187500.02, -187500.02, -187500.02, -187500.02, 187500.00, 0.000, 0.000, 0.000, 13:36:57.130
22, 39554.74, 80012.29, -187500.02, -187500.02, -187500.02, -187500.02, -187500.02, 187500.00, 0.000, 0.000, 0.000, 13:36:57.130
23, 38067.68, 78441.23, -187500.02, -187500.02, -187500.02, -187500.02, -187500.02, 187500.00, 0.000, 0.000, 0.000, 13:36:57.130
24, 35327.29, 75289.30, -187500.02, -187500.02, -187500.02, -187500.02, -187500.02, 187500.00, 0.000, 0.000, 0.000, 13:36:57.131
25, 36387.81, 76392.07, -187500.02, -187500.02, -187500.02, -187500.02, -187500.02, 187500.00, 0.000, 0.000, 0.000, 13:36:57.131
26, 39207.80, 79607.16, -187500.02, -187500.02, -187500.02, -187500.02, -187500.02, 187500.00, 0.000, 0.000, 0.000, 13:36:57.131
27, 38664.96, 79114.35, -187500.02, -187500.02, -187500.02, -187500.02, -187500.02, 187500.00, 0.440, 0.908, -0.176, 13:36:57.131
28, 35516.23, 75533.94, -187500.02, -187500.02, -187500.02, -187500.02, -187500.02, 187500.00, 0.000, 0.000, 0.000, 13:36:57.132
29, 36035.01, 76008.60, -187500.02, -187500.02, -187500.02, -187500.02, -187500.02, 187500.00, 0.000, 0.000, 0.000, 13:36:57.132
30, 38768.07, 79110.73, -187500.02, -187500.02, -187500.02, -187500.02, -187500.02, 187500.00, 0.000, 0.000, 0.000, 13:36:57.132
31, 39187.12, 79683.05, -187500.02, -187500.02, -187500.02, -187500.02, -187500.02, 187500.00, 0.000, 0.000, 0.000, 13:36:57.133
32, 35836.30, 75915.66, -187500.02, -187500.02, -187500.02, -187500.02, -187500.02, 187500.00, 0.000, 0.000, 0.000, 13:36:57.133
33, 35716.81, 75678.55, -187500.02, -187500.02, -187500.02, -187500.02, -187500.02, 187500.00, 0.000, 0.000, 0.000, 13:36:57.133
34, 38228.05, 78516.84, -187500.02, -187500.02, -187500.02, -187500.02, -187500.02, 187500.00, 0.000, 0.000, 0.000, 13:36:57.134
35, 39510.51, 80046.65, -187500.02, -187500.02, -187500.02, -187500.02, -187500.02, 187500.00, 0.000, 0.000, 0.000, 13:36:57.134
36, 36282.13, 76454.52, -187500.02, -187500.02, -187500.02, -187500.02, -187500.02, 187500.00, 0.000, 0.000, 0.000, 13:36:57.134
37, 35477.45, 75422.61, -187500.02, -187500.02, -187500.02, -187500.02, -187500.02, 187500.00, 0.438, 0.910, -0.186, 13:36:57.135
38, 37693.42, 77882.04, -187500.02, -187500.02, -187500.02, -187500.02, -187500.02, 187500.00, 0.000, 0.000, 0.000, 13:36:57.135
39, 39673.36, 80187.73, -187500.02, -187500.02, -187500.02, -187500.02, -187500.02, 187500.00, 0.000, 0.000, 0.000, 13:36:57.135
40, 36868.87, 77099.61, -187500.02, -187500.02, -187500.02, -187500.02, -187500.02, 187500.00, 0.000, 0.000, 0.000, 13:36:57.136
41, 35336.81, 75283.65, -187500.02, -187500.02, -187500.02, -187500.02, -187500.02, 187500.00, 0.000, 0.000, 0.000, 13:36:57.136
42, 37192.18, 77325.39, -187500.02, -187500.02, -187500.02, -187500.02, -187500.02, 187500.00, 0.000, 0.000, 0.000, 13:36:57.136
43, 39667.55, 80147.52, -187500.02, -187500.02, -187500.02, -187500.02, -187500.02, 187500.00, 0.000, 0.000, 0.000, 13:36:57.137
44, 37532.85, 77833.02, -187500.02, -187500.02, -187500.02, -187500.02, -187500.02, 187500.00, 0.000, 0.000, 0.000, 13:36:57.137
45, 35317.57, 75259.46, -187500.02, -187500.02, -187500.02, -187500.02, -187500.02, 187500.00, 0.000, 0.000, 0.000, 13:36:57.138
46, 36736.12, 76796.75, -187500.02, -187500.02, -187500.02, -187500.02, -187500.02, 187500.00, 0.000, 0.000, 0.000, 13:36:57.138
47, 39442.11, 79885.83, -187500.02, -187500.02, -187500.02, -187500.02, -187500.02, 187500.00, 0.436, 0.906, -0.192, 13:36:57.138
48, 38167.01, 78557.05, -187500.02, -187500.02, -187500.02, -187500.02, -187500.02, 187500.00, 0.000, 0.000, 0.000, 13:36:57.139
49, 35384.80, 75361.45, -187500.02, -187500.02, -187500.02, -187500.02, -187500.02, 187500.00, 0.000, 0.000, 0.000, 13:36:57.139
50, 36337.57, 76327.45, -187500.02, -187500.02, -187500.02, -187500.02, -187500.02, 187500.00, 0.000, 0.000, 0.000, 13:36:57.140
51, 39126.77, 79478.38, -187500.02, -187500.02, -187500.02, -187500.02, -187500.02, 187500.00, 0.000, 0.000, 0.000, 13:36:57.140
52, 38792.75, 79219.54, -187500.02, -187500.02, -187500.02, -187500.02, -187500.02, 187500.00, 0.000, 0.000, 0.000, 13:36:57.140
53, 35573.89, 75613.40, -187500.02, -187500.02, -187500.02, -187500.02, -187500.02, 187500.00, 0.000, 0.000, 0.000, 13:36:57.141
54, 35951.24, 75936.31, -187500.02, -187500.02, -187500.02, -187500.02, -187500.02, 187500.00, 0.000, 0.000, 0.000, 13:36:57.141
55, 38645.45, 78946.94, -187500.02, -187500.02, -187500.02, -187500.02, -187500.02, 187500.00, 0.000, 0.000, 0.000, 13:36:57.142
56, 39262.54, 79726.34, -187500.02, -187500.02, -187500.02, -187500.02, -187500.02, 187500.00, 0.000, 0.000, 0.000, 13:36:57.143
57, 35918.92, 76022.23, -187500.02, -187500.02, -187500.02, -187500.02, -187500.02, 187500.00, 0.434, 0.910, -0.190, 13:36:57.143
58, 35692.96, 75624.24, -187500.02, -187500.02, -187500.02, -187500.02, -187500.02, 187500.00, 0.000, 0.000, 0.000, 13:36:57.144
59, 38156.77, 78372.12, -187500.02, -187500.02, -187500.02, -187500.02, -187500.02, 187500.00, 0.000, 0.000, 0.000, 13:36:57.144
60, 39588.31, 80086.88, -187500.02, -187500.02, -187500.02, -187500.02, -187500.02, 187500.00, 0.000, 0.000, 0.000, 13:36:57.144
61, 36420.40, 76586.71, -187500.02, -187500.02, -187500.02, -187500.02, -187500.02, 187500.00, 0.000, 0.000, 0.000, 13:36:57.145
62, 35462.23, 75398.06, -187500.02, -187500.02, -187500.02, -187500.02, -187500.02, 187500.00, 0.000, 0.000, 0.000, 13:36:57.145
63, 37596.84, 77767.39, -187500.02, -187500.02, -187500.02, -187500.02, -187500.02, 187500.00, 0.000, 0.000, 0.000, 13:36:57.148
64, 39681.14, 80196.70, -187500.02, -187500.02, -187500.02, -187500.02, -187500.02, 187500.00, 0.000, 0.000, 0.000, 13:36:57.148
65, 36980.27, 77252.01, -187500.02, -187500.02, -187500.02, -187500.02, -187500.02, 187500.00, 0.000, 0.000, 0.000, 13:36:57.148
66, 35310.75, 75262.99, -187500.02, -187500.02, -187500.02, -187500.02, -187500.02, 187500.00, 0.442, 0.908, -0.190, 13:36:57.149
67, 37085.59, 77201.94, -187500.02, -187500.02, -187500.02, -187500.02, -187500.02, 187500.00, 0.000, 0.000, 0.000, 13:36:57.149
68, 39624.72, 80112.05, -187500.02, -187500.02, -187500.02, -187500.02, -187500.02, 187500.00, 0.000, 0.000, 0.000, 13:36:57.149
69, 37636.85, 77984.95, -187500.02, -187500.02, -187500.02, -187500.02, -187500.02, 187500.00, 0.000, 0.000, 0.000, 13:36:57.150
70, 35282.77, 75250.68, -187500.02, -187500.02, -187500.02, -187500.02, -187500.02, 187500.00, 0.000, 0.000, 0.000, 13:36:57.150
71, 36619.27, 76666.30, -187500.02, -187500.02, -187500.02, -187500.02, -187500.02, 187500.00, 0.000, 0.000, 0.000, 13:36:57.150
72, 39385.80, 79807.33, -187500.02, -187500.02, -187500.02, -187500.02, -187500.02, 187500.00, 0.000, 0.000, 0.000, 13:36:57.150
73, 38297.68, 78702.37, -187500.02, -187500.02, -187500.02, -187500.02, -187500.02, 187500.00, 0.000, 0.000, 0.000, 13:36:57.151
74, 35377.02, 75389.41, -187500.02, -187500.02, -187500.02, -187500.02, -187500.02, 187500.00, 0.000, 0.000, 0.000, 13:36:57.151
75, 36218.61, 76233.80, -187500.02, -187500.02, -187500.02, -187500.02, -187500.02, 187500.00, 0.000, 0.000, 0.000, 13:36:57.151
76, 39015.44, 79392.25, -187500.02, -187500.02, -187500.02, -187500.02, -187500.02, 187500.00, 0.432, 0.906, -0.188, 13:36:57.152
77, 38888.39, 79360.96, -187500.02, -187500.02, -187500.02, -187500.02, -187500.02, 187500.00, 0.000, 0.000, 0.000, 13:36:57.152
78, 35619.40, 75686.20, -187500.02, -187500.02, -187500.02, -187500.02, -187500.02, 187500.00, 0.000, 0.000, 0.000, 13:36:57.152
79, 35892.09, 75861.05, -187500.02, -187500.02, -187500.02, -187500.02, -187500.02, 187500.00, 0.000, 0.000, 0.000, 13:36:57.153
80, 38541.34, 78841.22, -187500.02, -187500.02, -187500.02, -187500.02, -187500.02, 187500.00, 0.000, 0.000, 0.000, 13:36:57.153
81, 39346.82, 79842.87, -187500.02, -187500.02, -187500.02, -187500.02, -187500.02, 187500.00, 0.000, 0.000, 0.000, 13:36:57.153
82, 36029.40, 76136.86, -187500.02, -187500.02, -187500.02, -187500.02, -187500.02, 187500.00, 0.000, 0.000, 0.000, 13:36:57.154
83, 35630.20, 75577.75, -187500.02, -187500.02, -187500.02, -187500.02, -187500.02, 187500.00, 0.000, 0.000, 0.000, 13:36:57.154
84, 38031.54, 78267.49, -187500.02, -187500.02, -187500.02, -187500.02, -187500.02, 187500.00, 0.000, 0.000, 0.000, 13:36:57.154
85, 39650.74, 80171.03, -187500.02, -187500.02, -187500.02, -187500.02, -187500.02, 187500.00, 0.000, 0.000, 0.000, 13:36:57.155
86, 36552.07, 76739.19, -187500.02, -187500.02, -187500.02, -187500.02, -187500.02, 187500.00, 0.432, 0.906, -0.188, 13:36:57.155
87, 35428.68, 75364.36, -187500.02, -187500.02, -187500.02, -187500.02, -187500.02, 187500.00, 0.000, 0.000, 0.000, 13:36:57.155
88, 37499.48, 77667.08, -187500.02, -187500.02, -187500.02, -187500.02, -187500.02, 187500.00, 0.000, 0.000, 0.000, 13:36:57.156
89, 39712.16, 80232.75, -187500.02, -187500.02, -187500.02, -187500.02, -187500.02, 187500.00, 0.000, 0.000, 0.000, 13:36:57.156
90, 37148.08, 77409.70, -187500.02, -187500.02, -187500.02, -187500.02, -187500.02, 187500.00, 0.000, 0.000, 0.000, 13:36:57.596
91, 35310.48, 75244.48, -187500.02, -187500.02, -187500.02, -187500.02, -187500.02, 187500.00, 0.000, 0.000, 0.000, 13:36:57.596
92, 37001.79, 77094.30, -187500.02, -187500.02, -187500.02, -187500.02, -187500.02, 187500.00, 0.000, 0.000, 0.000, 13:36:57.597
93, 39625.68, 80105.72, -187500.02, -187500.02, -187500.02, -187500.02, -187500.02, 187500.00, 0.000, 0.000, 0.000, 13:36:57.597
94, 37809.83, 78154.08, -187500.02, -187500.02, -187500.02, -187500.02, -187500.02, 187500.00, 0.000, 0.000, 0.000, 13:36:57.597
95, 35317.34, 75270.10, -187500.02, -187500.02, -187500.02, -187500.02, -187500.02, 187500.00, 0.000, 0.000, 0.000, 13:36:57.598
96, 36579.28, 76607.23, -187500.02, -187500.02, -187500.02, -187500.02, -187500.02, 187500.00, 0.436, 0.906, -0.186, 13:36:57.598
97, 39378.18, 79788.86, -187500.02, -187500.02, -187500.02, -187500.02, -187500.02, 187500.00, 0.000, 0.000, 0.000, 13:36:57.598
98, 38458.05, 78877.13, -187500.02, -187500.02, -187500.02, -187500.02, -187500.02, 187500.00, 0.000, 0.000, 0.000, 13:36:57.598
99, 35444.93, 75438.23, -187500.02, -187500.02, -187500.02, -187500.02, -187500.02, 187500.00, 0.000, 0.000, 0.000, 13:36:57.599
100, 36183.72, 76166.38, -187500.02, -187500.02, -187500.02, -187500.02, -187500.02, 187500.00, 0.000, 0.000, 0.000, 13:36:57.599
101, 38949.41, 79303.47, -187500.02, -187500.02, -187500.02, -187500.02, -187500.02, 187500.00, 0.000, 0.000, 0.000, 13:36:57.599
102, 39010.70, 79473.77, -187500.02, -187500.02, -187500.02, -187500.02, -187500.02, 187500.00, 0.000, 0.000, 0.000, 13:36:57.600
103, 35715.88, 75760.48, -187500.02, -187500.02, -187500.02, -187500.02, -187500.02, 187500.00, 0.000, 0.000, 0.000, 13:36:57.600
104, 35844.69, 75808.15, -187500.02, -187500.02, -187500.02, -187500.02, -187500.02, 187500.00, 0.000, 0.000, 0.000, 13:36:57.600
105, 38456.33, 78761.91, -187500.02, -187500.02, -187500.02, -187500.02, -187500.02, 187500.00, 0.000, 0.000, 0.000, 13:36:57.601
106, 39461.13, 79960.44, -187500.02, -187500.02, -187500.02, -187500.02, -187500.02, 187500.00, 0.434, 0.900, -0.186, 13:36:57.601
107, 36150.19, 76251.01, -187500.02, -187500.02, -187500.02, -187500.02, -187500.02, 187500.00, 0.000, 0.000, 0.000, 13:36:57.601
108, 35591.51, 75514.09, -187500.02, -187500.02, -187500.02, -187500.02, -187500.02, 187500.00, 0.000, 0.000, 0.000, 13:36:57.602
109, 37934.13, 78142.97, -187500.02, -187500.02, -187500.02, -187500.02, -187500.02, 187500.00, 0.000, 0.000, 0.000, 13:36:57.602
110, 39686.26, 80205.52, -187500.02, -187500.02, -187500.02, -187500.02, -187500.02, 187500.00, 0.000, 0.000, 0.000, 13:36:57.602
111, 36652.16, 76861.92, -187500.02, -187500.02, -187500.02, -187500.02, -187500.02, 187500.00, 0.000, 0.000, 0.000, 13:36:57.603
112, 35390.77, 75320.30, -187500.02, -187500.02, -187500.02, -187500.02, -187500.02, 187500.00, 0.000, 0.000, 0.000, 13:36:57.603
113, 37409.96, 77548.15, -187500.02, -187500.02, -187500.02, -187500.02, -187500.02, 187500.00, 0.000, 0.000, 0.000, 13:36:57.604
114, 39730.22, 80240.15, -187500.02, -187500.02, -187500.02, -187500.02, -187500.02, 187500.00, 0.000, 0.000, 0.000, 13:36:57.604
115, 37286.29, 77576.73, -187500.02, -187500.02, -187500.02, -187500.02, -187500.02, 187500.00, 0.000, 0.000, 0.000, 13:36:57.604
116, 35306.19, 75245.23, -187500.02, -187500.02, -187500.02, -187500.02, -187500.02, 187500.00, 0.436, 0.900, -0.188, 13:36:57.605
117, 36908.85, 76993.55, -187500.02, -187500.02, -187500.02, -187500.02, -187500.02, 187500.00, 0.000, 0.000, 0.000, 13:36:57.605
118, 39570.54, 80064.70, -187500.02, -187500.02, -187500.02, -187500.02, -187500.02, 187500.00, 0.000, 0.000, 0.000, 13:36:57.606
119, 37962.40, 78322.43, -187500.02, -187500.02, -187500.02, -187500.02, -187500.02, 187500.00, 0.000, 0.000, 0.000, 13:36:57.606
120, 35350.94, 75287.67, -187500.02, -187500.02, -187500.02, -187500.02, -187500.02, 187500.00, 0.000, 0.000, 0.000, 13:36:57.606
121, 36493.71, 76494.88, -187500.02, -187500.02, -187500.02, -187500.02, -187500.02, 187500.00, 0.000, 0.000, 0.000, 13:36:57.607
122, 39290.86, 79705.80, -187500.02, -187500.02, -187500.02, -187500.02, -187500.02, 187500.00, 0.000, 0.000, 0.000, 13:36:57.607
123, 38574.77, 79018.96, -187500.02, -187500.02, -187500.02, -187500.02, -187500.02, 187500.00, 0.000, 0.000, 0.000, 13:36:57.607
124, 35476.15, 75471.47, -187500.02, -187500.02, -187500.02, -187500.02, -187500.02, 187500.00, 0.000, 0.000, 0.000, 13:36:57.607
125, 36102.71, 76058.70, -187500.02, -187500.02, -187500.02, -187500.02, -187500.02, 187500.00, 0.000, 0.000, 0.000, 13:36:57.608
126, 38868.36, 79204.61, -187500.02, -187500.02, -187500.02, -187500.02, -187500.02, 187500.00, 0.438, 0.904, -0.190, 13:36:57.608
127, 39134.44, 79617.38, -187500.02, -187500.02, -187500.02, -187500.02, -187500.02, 187500.00, 0.000, 0.000, 0.000, 13:36:57.609
128, 35777.50, 75839.38, -187500.02, -187500.02, -187500.02, -187500.02, -187500.02, 187500.00, 0.000, 0.000, 0.000, 13:36:57.609
129, 35779.80, 75720.09, -187500.02, -187500.02, -187500.02, -187500.02, -187500.02, 187500.00, 0.000, 0.000, 0.000, 13:36:57.609
130, 38376.89, 78646.58, -187500.02, -187500.02, -187500.02, -187500.02, -187500.02, 187500.00, 0.000, 0.000, 0.000, 13:36:57.609
131, 39534.07, 80052.99, -187500.02, -187500.02, -187500.02, -187500.02, -187500.02, 187500.00, 0.000, 0.000, 0.000, 13:36:57.610
132, 36245.21, 76354.80, -187500.02, -187500.02, -187500.02, -187500.02, -187500.02, 187500.00, 0.000, 0.000, 0.000, 13:36:57.610
133, 35552.24, 75446.55, -187500.02, -187500.02, -187500.02, -187500.02, -187500.02, 187500.00, 0.000, 0.000, 0.000, 13:36:57.610
134, 37832.02, 78013.60, -187500.02, -187500.02, -187500.02, -187500.02, -187500.02, 187500.00, 0.000, 0.000, 0.000, 13:36:57.610
135, 39733.31, 80264.17, -187500.02, -187500.02, -187500.02, -187500.02, -187500.02, 187500.00, 0.440, 0.904, -0.190, 13:36:57.611
136, 36799.51, 77016.15, -187500.02, -187500.02, -187500.02, -187500.02, -187500.02, 187500.00, 0.000, 0.000, 0.000, 13:36:57.611
137, 35351.07, 75286.17, -187500.02, -187500.02, -187500.02, -187500.02, -187500.02, 187500.00, 0.000, 0.000, 0.000, 13:36:57.611
138, 37274.13, 77435.36, -187500.02, -187500.02, -187500.02, -187500.02, -187500.02, 187500.00, 0.000, 0.000, 0.000, 13:36:57.612
139, 39747.28, 80256.46, -187500.02, -187500.02, -187500.02, -187500.02, -187500.02, 187500.00, 0.000, 0.000, 0.000, 13:36:57.612
140, 37463.00, 77730.96, -187500.02, -187500.02, -187500.02, -187500.02, -187500.02, 187500.00, 0.000, 0.000, 0.000, 13:36:57.612
141, 35332.61, 75223.66, -187500.02, -187500.02, -187500.02, -187500.02, -187500.02, 187500.00, 0.000, 0.000, 0.000, 13:36:57.613
142, 36856.62, 76886.60, -187500.02, -187500.02, -187500.02, -187500.02, -187500.02, 187500.00, 0.000, 0.000, 0.000, 13:36:57.613
143, 39554.00, 80039.45, -187500.02, -187500.02, -187500.02, -187500.02, -187500.02, 187500.00, 0.000, 0.000, 0.000, 13:36:57.613
144, 38094.88, 78494.43, -187500.02, -187500.02, -187500.02, -187500.02, -187500.02, 187500.00, 0.000, 0.000, 0.000, 13:36:57.614
145, 35343.16, 75305.26, -187500.02, -187500.02, -187500.02, -187500.02, -187500.02, 187500.00, 0.434, 0.904, -0.186, 13:36:57.614
146, 36398.96, 76400.63, -187500.02, -187500.02, -187500.02, -187500.02, -187500.02, 187500.00, 0.000, 0.000, 0.000, 13:36:57.614
147, 39246.36, 79639.46, -187500.02, -187500.02, -187500.02, -187500.02, -187500.02, 187500.00, 0.000, 0.000, 0.000, 13:36:57.614
148, 38731.46, 79166.79, -187500.02, -187500.02, -187500.02, -187500.02, -187500.02, 187500.00, 0.000, 0.000, 0.000, 13:36:57.615
149, 35537.71, 75510.23, -187500.02, -187500.02, -187500.02, -187500.02, -187500.02, 187500.00, 0.000, 0.000, 0.000, 13:36:57.615
150, 36043.21, 75971.12, -187500.02, -187500.02, -187500.02, -187500.02, -187500.02, 187500.00, 0.000, 0.000, 0.000, 13:36:57.615
151, 38780.07, 79112.03, -187500.02, -187500.02, -187500.02, -187500.02, -187500.02, 187500.00, 0.000, 0.000, 0.000, 13:36:57.616
152, 39218.13, 79728.00, -187500.02, -187500.02, -187500.02, -187500.02, -187500.02, 187500.00, 0.000, 0.000, 0.000, 13:36:57.616
153, 35862.39, 75914.84, -187500.02, -187500.02, -187500.02, -187500.02, -187500.02, 187500.00, 0.000, 0.000, 0.000, 13:36:57.616
154, 35742.43, 75666.04, -187500.02, -187500.02, -187500.02, -187500.02, -187500.02, 187500.00, 0.000, 0.000, 0.000, 13:36:57.616
155, 38282.12, 78552.70, -187500.02, -187500.02, -187500.02, -187500.02, -187500.02, 187500.00, 0.440, 0.910, -0.188, 13:36:57.617
156, 39586.91, 80142.83, -187500.02, -187500.02, -187500.02, -187500.02, -187500.02, 187500.00, 0.000, 0.000, 0.000, 13:36:57.617
157, 36330.32, 76476.76, -187500.02, -187500.02, -187500.02, -187500.02, -187500.02, 187500.00, 0.000, 0.000, 0.000, 13:36:57.617
158, 35506.77, 75410.98, -187500.02, -187500.02, -187500.02, -187500.02, -187500.02, 187500.00, 0.000, 0.000, 0.000, 13:36:57.617
159, 37738.15, 77932.38, -187500.02, -187500.02, -187500.02, -187500.02, -187500.02, 187500.00, 0.000, 0.000, 0.000, 13:36:57.618
160, 39756.13, 80305.14, -187500.02, -187500.02, -187500.02, -187500.02, -187500.02, 187500.00, 0.000, 0.000, 0.000, 13:36:57.618
161, 36922.38, 77143.67, -187500.02, -187500.02, -187500.02, -187500.02, -187500.02, 187500.00, 0.000, 0.000, 0.000, 13:36:57.618
162, 35351.43, 75259.59, -187500.02, -187500.02, -187500.02, -187500.02, -187500.02, 187500.00, 0.000, 0.000, 0.000, 13:36:57.618
163, 37217.78, 77349.02, -187500.02, -187500.02, -187500.02, -187500.02, -187500.02, 187500.00, 0.000, 0.000, 0.000, 13:36:57.619
164, 39738.43, 80258.88, -187500.02, -187500.02, -187500.02, -187500.02, -187500.02, 187500.00, 0.000, 0.000, 0.000, 13:36:57.619
165, 37590.74, 77895.89, -187500.02, -187500.02, -187500.02, -187500.02, -187500.02, 187500.00, 0.438, 0.910, -0.194, 13:36:57.619
166, 35318.93, 75222.40, -187500.02, -187500.02, -187500.02, -187500.02, -187500.02, 187500.00, 0.000, 0.000, 0.000, 13:36:57.620
167, 36762.09, 76789.46, -187500.02, -187500.02, -187500.02, -187500.02, -187500.02, 187500.00, 0.000, 0.000, 0.000, 13:36:57.620
168, 39520.18, 79995.59, -187500.02, -187500.02, -187500.02, -187500.02, -187500.02, 187500.00, 0.000, 0.000, 0.000, 13:36:57.620
169, 38237.78, 78647.47, -187500.02, -187500.02, -187500.02, -187500.02, -187500.02, 187500.00, 0.000, 0.000, 0.000, 13:36:57.621
170, 35397.65, 75333.29, -187500.02, -187500.02, -187500.02, -187500.02, -187500.02, 187500.00, 0.000, 0.000, 0.000, 13:36:57.621
171, 36351.60, 76320.16, -187500.02, -187500.02, -187500.02, -187500.02, -187500.02, 187500.00, 0.000, 0.000, 0.000, 13:36:57.621
172, 39158.20, 79570.06, -187500.02, -187500.02, -187500.02, -187500.02, -187500.02, 187500.00, 0.000, 0.000, 0.000, 13:36:57.622
173, 38832.09, 79317.38, -187500.02, -187500.02, -187500.02, -187500.02, -187500.02, 187500.00, 0.000, 0.000, 0.000, 13:36:57.622
174, 35581.32, 75586.80, -187500.02, -187500.02, -187500.02, -187500.02, -187500.02, 187500.00, 0.000, 0.000, 0.000, 13:36:57.623
175, 35962.23, 75909.02, -187500.02, -187500.02, -187500.02, -187500.02, -187500.02, 187500.00, 0.440, 0.910, -0.192, 13:36:57.623
176, 38676.05, 79023.74, -187500.02, -187500.02, -187500.02, -187500.02, -187500.02, 187500.00, 0.000, 0.000, 0.000, 13:36:57.623
177, 39318.98, 79857.98, -187500.02, -187500.02, -187500.02, -187500.02, -187500.02, 187500.00, 0.000, 0.000, 0.000, 13:36:57.624
178, 35955.68, 76022.48, -187500.02, -187500.02, -187500.02, -187500.02, -187500.02, 187500.00, 0.000, 0.000, 0.000, 13:36:57.624
179, 35681.18, 75585.84, -187500.02, -187500.02, -187500.02, -187500.02, -187500.02, 187500.00, 0.000, 0.000, 0.000, 13:36:57.625
180, 38170.65, 78414.70, -187500.02, -187500.02, -187500.02, -187500.02, -187500.02, 187500.00, 0.000, 0.000, 0.000, 13:36:57.625
181, 39646.72, 80204.90, -187500.02, -187500.02, -187500.02, -187500.02, -187500.02, 187500.00, 0.000, 0.000, 0.000, 13:36:57.626
182, 36428.07, 76606.34, -187500.02, -187500.02, -187500.02, -187500.02, -187500.02, 187500.00, 0.000, 0.000, 0.000, 13:36:57.626
183, 35448.43, 75359.26, -187500.02, -187500.02, -187500.02, -187500.02, -187500.02, 187500.00, 0.000, 0.000, 0.000, 13:36:57.626
184, 37625.38, 77810.58, -187500.02, -187500.02, -187500.02, -187500.02, -187500.02, 187500.00, 0.000, 0.000, 0.000, 13:36:57.627
185, 39764.60, 80342.05, -187500.02, -187500.02, -187500.02, -187500.02, -187500.02, 187500.00, 0.440, 0.908, -0.190, 13:36:57.627
186, 37040.06, 77308.89, -187500.02, -187500.02, -187500.02, -187500.02, -187500.02, 187500.00, 0.000, 0.000, 0.000, 13:36:57.627
187, 35333.48, 75234.98, -187500.02, -187500.02, -187500.02, -187500.02, -187500.02, 187500.00, 0.000, 0.000, 0.000, 13:36:57.628
188, 37130.49, 77221.19, -187500.02, -187500.02, -187500.02, -187500.02, -187500.02, 187500.00, 0.000, 0.000, 0.000, 13:36:57.629
189, 39700.70, 80226.06, -187500.02, -187500.02, -187500.02, -187500.02, -187500.02, 187500.00, 0.000, 0.000, 0.000, 13:36:57.631
190, 37704.73, 78048.69, -187500.02, -187500.02, -187500.02, -187500.02, -187500.02, 187500.00, 0.000, 0.000, 0.000, 13:36:57.631
191, 35299.08, 75223.41, -187500.02, -187500.02, -187500.02, -187500.02, -187500.02, 187500.00, 0.000, 0.000, 0.000, 13:36:57.632
192, 36636.00, 76683.87, -187500.02, -187500.02, -187500.02, -187500.02, -187500.02, 187500.00, 0.000, 0.000, 0.000, 13:36:57.632
193, 39441.98, 79921.63, -187500.02, -187500.02, -187500.02, -187500.02, -187500.02, 187500.00, 0.000, 0.000, 0.000, 13:36:57.632
194, 38370.21, 78789.41, -187500.02, -187500.02, -187500.02, -187500.02, -187500.02, 187500.00, 0.438, 0.910, -0.192, 13:36:57.632
195, 35414.30, 75366.03, -187500.02, -187500.02, -187500.02, -187500.02, -187500.02, 187500.00, 0.000, 0.000, 0.000, 13:36:57.633
196, 36254.15, 76222.82, -187500.02, -187500.02, -187500.02, -187500.02, -187500.02, 187500.00, 0.000, 0.000, 0.000, 13:36:57.633
197, 39066.54, 79470.51, -187500.02, -187500.02, -187500.02, -187500.02, -187500.02, 187500.00, 0.000, 0.000, 0.000, 13:36:57.633
198, 38954.24, 79455.45, -187500.02, -187500.02, -187500.02, -187500.02, -187500.02, 187500.00, 0.000, 0.000, 0.000, 13:36:57.634
199, 35677.38, 75672.07, -187500.02, -187500.02, -187500.02, -187500.02, -187500.02, 187500.00, 0.000, 0.000, 0.000, 13:36:57.634
200, 35928.44, 75837.73, -187500.02, -187500.02, -187500.02, -187500.02, -187500.02, 187500.00, 0.000, 0.000, 0.000, 13:36:57.635
201, 38597.50, 78906.15, -187500.02, -187500.02, -187500.02, -187500.02, -187500.02, 187500.00, 0.000, 0.000, 0.000, 13:36:57.635
202, 39405.72, 79943.42, -187500.02, -187500.02, -187500.02, -187500.02, -187500.02, 187500.00, 0.000, 0.000, 0.000, 13:36:57.636
203, 36059.98, 76136.07, -187500.02, -187500.02, -187500.02, -187500.02, -187500.02, 187500.00, 0.000, 0.000, 0.000, 13:36:57.636
204, 35655.59, 75544.94, -187500.02, -187500.02, -187500.02, -187500.02, -187500.02, 187500.00, 0.438, 0.908, -0.192, 13:36:57.637
205, 38077.67, 78305.84, -187500.02, -187500.02, -187500.02, -187500.02, -187500.02, 187500.00, 0.000, 0.000, 0.000, 13:36:57.637
206, 39694.73, 80270.77, -187500.02, -187500.02, -187500.02, -187500.02, -187500.02, 187500.00, 0.000, 0.000, 0.000, 13:36:57.638
207, 36558.91, 76739.77, -187500.02, -187500.02, -187500.02, -187500.02, -187500.02, 187500.00, 0.000, 0.000, 0.000, 13:36:57.638
208, 35433.95, 75332.71, -187500.02, -187500.02, -187500.02, -187500.02, -187500.02, 187500.00, 0.000, 0.000, 0.000, 13:36:57.639
209, 37529.79, 77689.48, -187500.02, -187500.02, -187500.02, -187500.02, -187500.02, 187500.00, 0.000, 0.000, 0.000, 13:36:57.639
210, 39760.51, 80326.42, -187500.02, -187500.02, -187500.02, -187500.02, -187500.02, 187500.00, 0.000, 0.000, 0.000, 13:36:58.088
211, 37181.99, 77452.05, -187500.02, -187500.02, -187500.02, -187500.02, -187500.02, 187500.00, 0.000, 0.000, 0.000, 13:36:58.089
212, 35348.95, 75225.87, -187500.02, -187500.02, -187500.02, -187500.02, -187500.02, 187500.00, 0.000, 0.000, 0.000, 13:36:58.089
213, 37038.36, 77105.91, -187500.02, -187500.02, -187500.02, -187500.02, -187500.02, 187500.00, 0.000, 0.000, 0.000, 13:36:58.089
214, 39644.53, 80171.46, -187500.02, -187500.02, -187500.02, -187500.02, -187500.02, 187500.00, 0.444, 0.906, -0.190, 13:36:58.090
215, 37842.69, 78203.12, -187500.02, -187500.02, -187500.02, -187500.02, -187500.02, 187500.00, 0.000, 0.000, 0.000, 13:36:58.090
216, 35309.79, 75231.52, -187500.02, -187500.02, -187500.02, -187500.02, -187500.02, 187500.00, 0.000, 0.000, 0.000, 13:36:58.091
217, 36537.03, 76571.22, -187500.02, -187500.02, -187500.02, -187500.02, -187500.02, 187500.00, 0.000, 0.000, 0.000, 13:36:58.091
218, 39343.52, 79836.92, -187500.02, -187500.02, -187500.02, -187500.02, -187500.02, 187500.00, 0.000, 0.000, 0.000, 13:36:58.091
219, 38468.38, 78927.00, -187500.02, -187500.02, -187500.02, -187500.02, -187500.02, 187500.00, 0.000, 0.000, 0.000, 13:36:58.091
220, 35482.07, 75430.85, -187500.02, -187500.02, -187500.02, -187500.02, -187500.02, 187500.00, 0.000, 0.000, 0.000, 13:36:58.092
221, 36226.43, 76172.98, -187500.02, -187500.02, -187500.02, -187500.02, -187500.02, 187500.00, 0.000, 0.000, 0.000, 13:36:58.092
222, 39001.85, 79379.38, -187500.02, -187500.02, -187500.02, -187500.02, -187500.02, 187500.00, 0.000, 0.000, 0.000, 13:36:58.092
223, 39072.21, 79571.25, -187500.02, -187500.02, -187500.02, -187500.02, -187500.02, 187500.00, 0.000, 0.000, 0.000, 13:36:58.092
224, 35757.78, 75763.54, -187500.02, -187500.02, -187500.02, -187500.02, -187500.02, 187500.00, 0.446, 0.904, -0.184, 13:36:58.093
225, 35884.25, 75794.49, -187500.02, -187500.02, -187500.02, -187500.02, -187500.02, 187500.00, 0.000, 0.000, 0.000, 13:36:58.093
226, 38503.32, 78812.45, -187500.02, -187500.02, -187500.02, -187500.02, -187500.02, 187500.00, 0.000, 0.000, 0.000, 13:36:58.093
227, 39475.48, 80042.78, -187500.02, -187500.02, -187500.02, -187500.02, -187500.02, 187500.00, 0.000, 0.000, 0.000, 13:36:58.093
228, 36163.13, 76266.41, -187500.02, -187500.02, -187500.02, -187500.02, -187500.02, 187500.00, 0.000, 0.000, 0.000, 13:36:58.094
229, 35635.25, 75513.20, -187500.02, -187500.02, -187500.02, -187500.02, -187500.02, 187500.00, 0.000, 0.000, 0.000, 13:36:58.094
230, 37972.95, 78177.08, -187500.02, -187500.02, -187500.02, -187500.02, -187500.02, 187500.00, 0.000, 0.000, 0.000, 13:36:58.094
231, 39715.43, 80269.98, -187500.02, -187500.02, -187500.02, -187500.02, -187500.02, 187500.00, 0.000, 0.000, 0.000, 13:36:58.094
232, 36693.16, 76872.07, -187500.02, -187500.02, -187500.02, -187500.02, -187500.02, 187500.00, 0.000, 0.000, 0.000, 13:36:58.095
233, 35436.32, 75305.15, -187500.02, -187500.02, -187500.02, -187500.02, -187500.02, 187500.00, 0.000, 0.000, 0.000, 13:36:58.095
234, 37446.99, 77578.90, -187500.02, -187500.02, -187500.02, -187500.02, -187500.02, 187500.00, 0.440, 0.906, -0.188, 13:36:58.095
235, 39771.42, 80329.66, -187500.02, -187500.02, -187500.02, -187500.02, -187500.02, 187500.00, 0.000, 0.000, 0.000, 13:36:58.096
236, 37334.81, 77604.59, -187500.02, -187500.02, -187500.02, -187500.02, -187500.02, 187500.00, 0.000, 0.000, 0.000, 13:36:58.096
237, 35347.27, 75222.06, -187500.02, -187500.02, -187500.02, -187500.02, -187500.02, 187500.00, 0.000, 0.000, 0.000, 13:36:58.096
238, 36950.14, 77008.26, -187500.02, -187500.02, -187500.02, -187500.02, -187500.02, 187500.00, 0.000, 0.000, 0.000, 13:36:58.096
239, 39604.54, 80134.96, -187500.02, -187500.02, -187500.02, -187500.02, -187500.02, 187500.00, 0.000, 0.000, 0.000, 13:36:58.097
240, 37970.89, 78357.03, -187500.02, -187500.02, -187500.02, -187500.02, -187500.02, 187500.00, 0.000, 0.000, 0.000, 13:36:58.097
241, 35369.00, 75274.95, -187500.02, -187500.02, -187500.02, -187500.02, -187500.02, 187500.00, 0.000, 0.000, 0.000, 13:36:58.097
242, 36520.63, 76507.07, -187500.02, -187500.02, -187500.02, -187500.02, -187500.02, 187500.00, 0.000, 0.000, 0.000, 13:36:58.097
243, 39334.13, 79773.59, -187500.02, -187500.02, -187500.02, -187500.02, -187500.02, 187500.00, 0.000, 0.000, 0.000, 13:36:58.098
244, 38633.71, 79072.83, -187500.02, -187500.02, -187500.02, -187500.02, -187500.02, 187500.00, 0.438, 0.906, -0.188, 13:36:58.098
245, 35526.82, 75470.28, -187500.02, -187500.02, -187500.02, -187500.02, -187500.02, 187500.00, 0.000, 0.000, 0.000, 13:36:58.098
246, 36152.54, 76073.84, -187500.02, -187500.02, -187500.02, -187500.02, -187500.02, 187500.00, 0.000, 0.000, 0.000, 13:36:58.098
247, 38910.09, 79266.86, -187500.02, -187500.02, -187500.02, -187500.02, -187500.02, 187500.00, 0.000, 0.000, 0.000, 13:36:58.099
248, 39145.01, 79675.79, -187500.02, -187500.02, -187500.02, -187500.02, -187500.02, 187500.00, 0.000, 0.000, 0.000, 13:36:58.099
249, 35800.79, 75850.53, -187500.02, -187500.02, -187500.02, -187500.02, -187500.02, 187500.00, 0.000, 0.000, 0.000, 13:36:58.099
250, 35824.04, 75728.63, -187500.02, -187500.02, -187500.02, -187500.02, -187500.02, 187500.00, 0.000, 0.000, 0.000, 13:36:58.099
251, 38406.35, 78684.93, -187500.02, -187500.02, -187500.02, -187500.02, -187500.02, 187500.00, 0.000, 0.000, 0.000, 13:36:58.100
252, 39556.08, 80112.78, -187500.02, -187500.02, -187500.02, -187500.02, -187500.02, 187500.00, 0.000, 0.000, 0.000, 13:36:58.100
253, 36269.91, 76371.05, -187500.02, -187500.02, -187500.02, -187500.02, -187500.02, 187500.00, 0.000, 0.000, 0.000, 13:36:58.100
254, 35580.45, 75453.81, -187500.02, -187500.02, -187500.02, -187500.02, -187500.02, 187500.00, 0.442, 0.908, -0.188, 13:36:58.100
255, 37868.01, 78068.67, -187500.02, -187500.02, -187500.02, -187500.02, -187500.02, 187500.00, 0.000, 0.000, 0.000, 13:36:58.101
0, 39770.37, 80329.30, -187500.02, -187500.02, -187500.02, -187500.02, -187500.02, 187500.00, 0.000, 0.000, 0.000, 13:36:58.101
1, 36822.24, 77022.39, -187500.02, -187500.02, -187500.02, -187500.02, -187500.02, 187500.00, 0.000, 0.000, 0.000, 13:36:58.101
2, 35395.98, 75283.49, -187500.02, -187500.02, -187500.02, -187500.02, -187500.02, 187500.00, 0.000, 0.000, 0.000, 13:36:58.101
3, 37343.71, 77462.90, -187500.02, -187500.02, -187500.02, -187500.02, -187500.02, 187500.00, 0.000, 0.000, 0.000, 13:36:58.102
4, 39767.82, 80325.04, -187500.02, -187500.02, -187500.02, -187500.02, -187500.02, 187500.00, 0.000, 0.000, 0.000, 13:36:58.102
5, 37457.25, 77768.06, -187500.02, -187500.02, -187500.02, -187500.02, -187500.02, 187500.00, 0.000, 0.000, 0.000, 13:36:58.102
6, 35344.45, 75219.14, -187500.02, -187500.02, -187500.02, -187500.02, -187500.02, 187500.00, 0.000, 0.000, 0.000, 13:36:58.102
7, 36875.21, 76910.47, -187500.02, -187500.02, -187500.02, -187500.02, -187500.02, 187500.00, 0.442, 0.902, -0.190, 13:36:58.103
8, 39575.02, 80094.79, -187500.02, -187500.02, -187500.02, -187500.02, -187500.02, 187500.00, 0.000, 0.000, 0.000, 13:36:58.103
9, 38125.68, 78516.24, -187500.02, -187500.02, -187500.02, -187500.02, -187500.02, 187500.00, 0.000, 0.000, 0.000, 13:36:58.103
10, 35401.72, 75298.82, -187500.02, -187500.02, -187500.02, -187500.02, -187500.02, 187500.00, 0.000, 0.000, 0.000, 13:36:58.104
11, 36449.75, 76414.48, -187500.02, -187500.02, -187500.02, -187500.02, -187500.02, 187500.00, 0.000, 0.000, 0.000, 13:36:58.104
12, 39254.45, 79678.89, -187500.02, -187500.02, -187500.02, -187500.02, -187500.02, 187500.00, 0.000, 0.000, 0.000, 13:36:58.105
13, 38756.11, 79211.20, -187500.02, -187500.02, -187500.02, -187500.02, -187500.02, 187500.00, 0.000, 0.000, 0.000, 13:36:58.105
14, 35580.33, 75527.52, -187500.02, -187500.02, -187500.02, -187500.02, -187500.02, 187500.00, 0.000, 0.000, 0.000, 13:36:58.105
15, 36070.30, 75988.80, -187500.02, -187500.02, -187500.02, -187500.02, -187500.02, 187500.00, 0.000, 0.000, 0.000, 13:36:58.106
16, 38818.36, 79155.19, -187500.02, -187500.02, -187500.02, -187500.02, -187500.02, 187500.00, 0.000, 0.000, 0.000, 13:36:58.106
17, 39274.45, 79783.19, -187500.02, -187500.02, -187500.02, -187500.02, -187500.02, 187500.00, 0.444, 0.910, -0.186, 13:36:58.107
18, 35916.01, 75957.57, -187500.02, -187500.02, -187500.02, -187500.02, -187500.02, 187500.00, 0.000, 0.000, 0.000, 13:36:58.107
19, 35761.56, 75670.22, -187500.02, -187500.02, -187500.02, -187500.02, -187500.02, 187500.00, 0.000, 0.000, 0.000, 13:36:58.107
20, 38289.61, 78556.27, -187500.02, -187500.02, -187500.02, -187500.02, -187500.02, 187500.00, 0.000, 0.000, 0.000, 13:36:58.108
21, 39610.75, 80150.65, -187500.02, -187500.02, -187500.02, -187500.02, -187500.02, 187500.00, 0.000, 0.000, 0.000, 13:36:58.108
22, 36378.20, 76490.38, -187500.02, -187500.02, -187500.02, -187500.02, -187500.02, 187500.00, 0.000, 0.000, 0.000, 13:36:58.109
23, 35558.36, 75424.64, -187500.02, -187500.02, -187500.02, -187500.02, -187500.02, 187500.00, 0.000, 0.000, 0.000, 13:36:58.109
24, 37794.50, 77953.92, -187500.02, -187500.02, -187500.02, -187500.02, -187500.02, 187500.00, 0.000, 0.000, 0.000, 13:36:58.109
25, 39802.35, 80343.30, -187500.02, -187500.02, -187500.02, -187500.02, -187500.02, 187500.00, 0.000, 0.000, 0.000, 13:36:58.110
26, 36970.66, 77167.31, -187500.02, -187500.02, -187500.02, -187500.02, -187500.02, 187500.00, 0.000, 0.000, 0.000, 13:36:58.110
27, 35405.07, 75263.71, -187500.02, -187500.02, -187500.02, -187500.02, -187500.02, 187500.00, 0.440, 0.908, -0.184, 13:36:58.110
28, 37246.70, 77341.98, -187500.02, -187500.02, -187500.02, -187500.02, -187500.02, 187500.00, 0.000, 0.000, 0.000, 13:36:58.111
29, 39744.64, 80283.89, -187500.02, -187500.02, -187500.02, -187500.02, -187500.02, 187500.00, 0.000, 0.000, 0.000, 13:36:58.111
30, 37605.78, 77910.98, -187500.02, -187500.02, -187500.02, -187500.02, -187500.02, 187500.00, 0.000, 0.000, 0.000, 13:36:58.111
31, 35356.52, 75227.77, -187500.02, -187500.02, -187500.02, -187500.02, -187500.02, 187500.00, 0.000, 0.000, 0.000, 13:36:58.112
32, 36788.33, 76803.66, -187500.02, -187500.02, -187500.02, -187500.02, -187500.02, 187500.00, 0.000, 0.000, 0.000, 13:36:58.112
33, 39530.31, 80003.66, -187500.02, -187500.02, -187500.02, -187500.02, -187500.02, 187500.00, 0.000, 0.000, 0.000, 13:36:58.112
34, 38256.98, 78642.11, -187500.02, -187500.02, -187500.02, -187500.02, -187500.02, 187500.00, 0.000, 0.000, 0.000, 13:36:58.113
35, 35408.83, 75318.38, -187500.02, -187500.02, -187500.02, -187500.02, -187500.02, 187500.00, 0.000, 0.000, 0.000, 13:36:58.113
36, 36352.36, 76315.47, -187500.02, -187500.02, -187500.02, -187500.02, -187500.02, 187500.00, 0.000, 0.000, 0.000, 13:36:58.113
37, 39167.88, 79601.89, -187500.02, -187500.02, -187500.02, -187500.02, -187500.02, 187500.00, 0.442, 0.908, -0.188, 13:36:58.114
38, 38869.30, 79347.26, -187500.02, -187500.02, -187500.02, -187500.02, -187500.02, 187500.00, 0.000, 0.000, 0.000, 13:36:58.114
39, 35636.48, 75594.89, -187500.02, -187500.02, -187500.02, -187500.02, -187500.02, 187500.00, 0.000, 0.000, 0.000, 13:36:58.115
40, 36017.22, 75922.68, -187500.02, -187500.02, -187500.02, -187500.02, -187500.02, 187500.00, 0.000, 0.000, 0.000, 13:36:58.115
41, 38716.66, 79050.49, -187500.02, -187500.02, -187500.02, -187500.02, -187500.02, 187500.00, 0.000, 0.000, 0.000, 13:36:58.115
42, 39346.07, 79877.40, -187500.02, -187500.02, -187500.02, -187500.02, -187500.02, 187500.00, 0.000, 0.000, 0.000, 13:36:58.115
43, 35979.98, 76007.62, -187500.02, -187500.02, -187500.02, -187500.02, -187500.02, 187500.00, 0.000, 0.000, 0.000, 13:36:58.116
44, 35713.71, 75581.04, -187500.02, -187500.02, -187500.02, -187500.02, -187500.02, 187500.00, 0.000, 0.000, 0.000, 13:36:58.116
45, 38198.93, 78444.77, -187500.02, -187500.02, -187500.02, -187500.02, -187500.02, 187500.00, 0.000, 0.000, 0.000, 13:36:58.116
46, 39683.15, 80238.52, -187500.02, -187500.02, -187500.02, -187500.02, -187500.02, 187500.00, 0.000, 0.000, 0.000, 13:36:58.117
47, 36501.52, 76603.52, -187500.02, -187500.02, -187500.02, -187500.02, -187500.02, 187500.00, 0.446, 0.902, -0.188, 13:36:58.117
48, 35512.72, 75342.45, -187500.02, -187500.02, -187500.02, -187500.02, -187500.02, 187500.00, 0.000, 0.000, 0.000, 13:36:58.118
49, 37665.39, 77816.68, -187500.02, -187500.02, -187500.02, -187500.02, -187500.02, 187500.00, 0.000, 0.000, 0.000, 13:36:58.118
50, 39796.95, 80373.27, -187500.02, -187500.02, -187500.02, -187500.02, -187500.02, 187500.00, 0.000, 0.000, 0.000, 13:36:58.118
51, 37081.57, 77311.41, -187500.02, -187500.02, -187500.02, -187500.02, -187500.02, 187500.00, 0.000, 0.000, 0.000, 13:36:58.119
52, 35387.26, 75241.36, -187500.02, -187500.02, -187500.02, -187500.02, -187500.02, 187500.00, 0.000, 0.000, 0.000, 13:36:58.119
53, 37174.70, 77252.63, -187500.02, -187500.02, -187500.02, -187500.02, -187500.02, 187500.00, 0.000, 0.000, 0.000, 13:36:58.119
54, 39735.77, 80271.10, -187500.02, -187500.02, -187500.02, -187500.02, -187500.02, 187500.00, 0.000, 0.000, 0.000, 13:36:58.119
55, 37735.64, 78062.26, -187500.02, -187500.02, -187500.02, -187500.02, -187500.02, 187500.00, 0.000, 0.000, 0.000, 13:36:58.120
56, 35349.21, 75231.19, -187500.02, -187500.02, -187500.02, -187500.02, -187500.02, 187500.00, 0.000, 0.000, 0.000, 13:36:58.120
57, 36694.30, 76705.89, -187500.02, -187500.02, -187500.02, -187500.02, -187500.02, 187500.00, 0.446, 0.906, -0.190, 13:36:58.121
58, 39492.16, 79972.37, -187500.02, -187500.02, -187500.02, -187500.02, -187500.02, 187500.00, 0.000, 0.000, 0.000, 13:36:58.121
59, 38413.68, 78817.61, -187500.02, -187500.02, -187500.02, -187500.02, -187500.02, 187500.00, 0.000, 0.000, 0.000, 13:36:58.122
60, 35485.23, 75367.73, -187500.02, -187500.02, -187500.02, -187500.02, -187500.02, 187500.00, 0.000, 0.000, 0.000, 13:36:58.122
61, 36326.95, 76248.88, -187500.02, -187500.02, -187500.02, -187500.02, -187500.02, 187500.00, 0.000, 0.000, 0.000, 13:36:58.123
62, 39121.95, 79517.73, -187500.02, -187500.02, -187500.02, -187500.02, -187500.02, 187500.00, 0.000, 0.000, 0.000, 13:36:58.126
63, 39003.41, 79480.81, -187500.02, -187500.02, -187500.02, -187500.02, -187500.02, 187500.00, 0.000, 0.000, 0.000, 13:36:58.126
64, 35723.05, 75663.80, -187500.02, -187500.02, -187500.02, -187500.02, -187500.02, 187500.00, 0.000, 0.000, 0.000, 13:36:58.126
65, 36001.64, 75848.23, -187500.02, -187500.02, -187500.02, -187500.02, -187500.02, 187500.00, 0.000, 0.000, 0.000, 13:36:58.127
66, 38674.06, 78947.55, -187500.02, -187500.02, -187500.02, -187500.02, -187500.02, 187500.00, 0.440, 0.900, -0.192, 13:36:58.127
67, 39473.13, 79988.22, -187500.02, -187500.02, -187500.02, -187500.02, -187500.02, 187500.00, 0.000, 0.000, 0.000, 13:36:58.128
68, 36129.49, 76143.88, -187500.02, -187500.02, -187500.02, -187500.02, -187500.02, 187500.00, 0.000, 0.000, 0.000, 13:36:58.128
69, 35724.08, 75558.93, -187500.02, -187500.02, -187500.02, -187500.02, -187500.02, 187500.00, 0.000, 0.000, 0.000, 13:36:58.129
70, 38129.75, 78341.66, -187500.02, -187500.02, -187500.02, -187500.02, -187500.02, 187500.00, 0.000, 0.000, 0.000, 13:36:58.129
71, 39747.64, 80301.92, -187500.02, -187500.02, -187500.02, -187500.02, -187500.02, 187500.00, 0.000, 0.000, 0.000, 13:36:58.130
72, 36629.64, 76743.70, -187500.02, -187500.02, -187500.02, -187500.02, -187500.02, 187500.00, 0.000, 0.000, 0.000, 13:36:58.131
73, 35515.33, 75341.94, -187500.02, -187500.02, -187500.02, -187500.02, -187500.02, 187500.00, 0.000, 0.000, 0.000, 13:36:58.131
74, 37593.71, 77723.12, -187500.02, -187500.02, -187500.02, -187500.02, -187500.02, 187500.00, 0.000, 0.000, 0.000, 13:36:58.565
75, 39823.97, 80377.01, -187500.02, -187500.02, -187500.02, -187500.02, -187500.02, 187500.00, 0.000, 0.000, 0.000, 13:36:58.566
76, 37232.73, 77461.29, -187500.02, -187500.02, -187500.02, -187500.02, -187500.02, 187500.00, 0.442, 0.904, -0.194, 13:36:58.566
77, 35404.92, 75222.87, -187500.02, -187500.02, -187500.02, -187500.02, -187500.02, 187500.00, 0.000, 0.000, 0.000, 13:36:58.566
78, 37100.30, 77129.14, -187500.02, -187500.02, -187500.02, -187500.02, -187500.02, 187500.00, 0.000, 0.000, 0.000, 13:36:58.567
79, 39725.96, 80225.59, -187500.02, -187500.02, -187500.02, -187500.02, -187500.02, 187500.00, 0.000, 0.000, 0.000, 13:36:58.567
80, 37912.94, 78231.21, -187500.02, -187500.02, -187500.02, -187500.02, -187500.02, 187500.00, 0.000, 0.000, 0.000, 13:36:58.567
81, 35389.23, 75257.38, -187500.02, -187500.02, -187500.02, -187500.02, -187500.02, 187500.00, 0.000, 0.000, 0.000, 13:36:58.567
82, 36627.87, 76618.70, -187500.02, -187500.02, -187500.02, -187500.02, -187500.02, 187500.00, 0.000, 0.000, 0.000, 13:36:58.568
83, 39443.77, 79897.18, -187500.02, -187500.02, -187500.02, -187500.02, -187500.02, 187500.00, 0.000, 0.000, 0.000, 13:36:58.568
84, 38547.30, 78960.95, -187500.02, -187500.02, -187500.02, -187500.02, -187500.02, 187500.00, 0.000, 0.000, 0.000, 13:36:58.568
85, 35509.50, 75405.41, -187500.02, -187500.02, -187500.02, -187500.02, -187500.02, 187500.00, 0.000, 0.000, 0.000, 13:36:58.569
86, 36238.57, 76148.91, -187500.02, -187500.02, -187500.02, -187500.02, -187500.02, 187500.00, 0.446, 0.900, -0.192, 13:36:58.569
87, 39040.50, 79417.69, -187500.02, -187500.02, -187500.02, -187500.02, -187500.02, 187500.00, 0.000, 0.000, 0.000, 13:36:58.570
88, 39100.04, 79595.07, -187500.02, -187500.02, -187500.02, -187500.02, -187500.02, 187500.00, 0.000, 0.000, 0.000, 13:36:58.570
89, 35776.78, 75732.05, -187500.02, -187500.02, -187500.02, -187500.02, -187500.02, 187500.00, 0.000, 0.000, 0.000, 13:36:58.570
90, 35912.23, 75774.22, -187500.02, -187500.02, -187500.02, -187500.02, -187500.02, 187500.00, 0.000, 0.000, 0.000, 13:36:58.571
91, 38541.76, 78838.49, -187500.02, -187500.02, -187500.02, -187500.02, -187500.02, 187500.00, 0.000, 0.000, 0.000, 13:36:58.571
92, 39522.89, 80083.03, -187500.02, -187500.02, -187500.02, -187500.02, -187500.02, 187500.00, 0.000, 0.000, 0.000, 13:36:58.571
93, 36197.82, 76253.11, -187500.02, -187500.02, -187500.02, -187500.02, -187500.02, 187500.00, 0.000, 0.000, 0.000, 13:36:58.572
94, 35660.84, 75501.95, -187500.02, -187500.02, -187500.02, -187500.02, -187500.02, 187500.00, 0.000, 0.000, 0.000, 13:36:58.572
95, 38011.18, 78220.11, -187500.02, -187500.02, -187500.02, -187500.02, -187500.02, 187500.00, 0.000, 0.000, 0.000, 13:36:58.573
96, 39776.58, 80331.52, -187500.02, -187500.02, -187500.02, -187500.02, -187500.02, 187500.00, 0.444, 0.904, -0.192, 13:36:58.573
97, 36751.65, 76862.64, -187500.02, -187500.02, -187500.02, -187500.02, -187500.02, 187500.00, 0.000, 0.000, 0.000, 13:36:58.573
98, 35504.31, 75292.81, -187500.02, -187500.02, -187500.02, -187500.02, -187500.02, 187500.00, 0.000, 0.000, 0.000, 13:36:58.574
99, 37522.92, 77615.24, -187500.02, -187500.02, -187500.02, -187500.02, -187500.02, 187500.00, 0.000, 0.000, 0.000, 13:36:58.574
100, 39834.99, 80372.38, -187500.02, -187500.02, -187500.02, -187500.02, -187500.02, 187500.00, 0.000, 0.000, 0.000, 13:36:58.574
101, 37373.79, 77608.34, -187500.02, -187500.02, -187500.02, -187500.02, -187500.02, 187500.00, 0.000, 0.000, 0.000, 13:36:58.575
102, 35396.71, 75226.67, -187500.02, -187500.02, -187500.02, -187500.02, -187500.02, 187500.00, 0.000, 0.000, 0.000, 13:36:58.575
103, 37008.63, 77037.38, -187500.02, -187500.02, -187500.02, -187500.02, -187500.02, 187500.00, 0.000, 0.000, 0.000, 13:36:58.576
104, 39668.49, 80179.84, -187500.02, -187500.02, -187500.02, -187500.02, -187500.02, 187500.00, 0.000, 0.000, 0.000, 13:36:58.576
105, 38026.95, 78376.79, -187500.02, -187500.02, -187500.02, -187500.02, -187500.02, 187500.00, 0.000, 0.000, 0.000, 13:36:58.576
106, 35405.92, 75273.81, -187500.02, -187500.02, -187500.02, -187500.02, -187500.02, 187500.00, 0.444, 0.908, -0.192, 13:36:58.577
107, 36550.11, 76524.03, -187500.02, -187500.02, -187500.02, -187500.02, -187500.02, 187500.00, 0.000, 0.000, 0.000, 13:36:58.577
108, 39375.08, 79811.10, -187500.02, -187500.02, -187500.02, -187500.02, -187500.02, 187500.00, 0.000, 0.000, 0.000, 13:36:58.577
109, 38678.82, 79100.34, -187500.02, -187500.02, -187500.02, -187500.02, -187500.02, 187500.00, 0.000, 0.000, 0.000, 13:36:58.578
110, 35575.97, 75479.02, -187500.02, -187500.02, -187500.02, -187500.02, -187500.02, 187500.00, 0.000, 0.000, 0.000, 13:36:58.578
111, 36192.57, 76090.72, -187500.02, -187500.02, -187500.02, -187500.02, -187500.02, 187500.00, 0.000, 0.000, 0.000, 13:36:58.579
112, 38956.61, 79312.32, -187500.02, -187500.02, -187500.02, -187500.02, -187500.02, 187500.00, 0.000, 0.000, 0.000, 13:36:58.579
113, 39197.80, 79701.83, -187500.02, -187500.02, -187500.02, -187500.02, -187500.02, 187500.00, 0.000, 0.000, 0.000, 13:36:58.580
114, 35873.14, 75842.51, -187500.02, -187500.02, -187500.02, -187500.02, -187500.02, 187500.00, 0.000, 0.000, 0.000, 13:36:58.580
115, 35882.55, 75738.98, -187500.02, -187500.02, -187500.02, -187500.02, -187500.02, 187500.00, 0.000, 0.000, 0.000, 13:36:58.580
116, 38445.29, 78733.88, -187500.02, -187500.02, -187500.02, -187500.02, -187500.02, 187500.00, 0.442, 0.912, -0.190, 13:36:58.581
117, 39579.93, 80147.38, -187500.02, -187500.02, -187500.02, -187500.02, -187500.02, 187500.00, 0.000, 0.000, 0.000, 13:36:58.581
118, 36314.07, 76372.06, -187500.02, -187500.02, -187500.02, -187500.02, -187500.02, 187500.00, 0.000, 0.000, 0.000, 13:36:58.582
119, 35652.53, 75467.78, -187500.02, -187500.02, -187500.02, -187500.02, -187500.02, 187500.00, 0.000, 0.000, 0.000, 13:36:58.582
120, 37932.05, 78085.55, -187500.02, -187500.02, -187500.02, -187500.02, -187500.02, 187500.00, 0.000, 0.000, 0.000, 13:36:58.582
121, 39802.78, 80331.01, -187500.02, -187500.02, -187500.02, -187500.02, -187500.02, 187500.00, 0.000, 0.000, 0.000, 13:36:58.583
122, 36854.29, 77003.52, -187500.02, -187500.02, -187500.02, -187500.02, -187500.02, 187500.00, 0.000, 0.000, 0.000, 13:36:58.583
123, 35463.07, 75295.73, -187500.02, -187500.02, -187500.02, -187500.02, -187500.02, 187500.00, 0.000, 0.000, 0.000, 13:36:58.583
124, 37408.53, 77498.79, -187500.02, -187500.02, -187500.02, -187500.02, -187500.02, 187500.00, 0.000, 0.000, 0.000, 13:36:58.584
125, 39808.14, 80349.42, -187500.02, -187500.02, -187500.02, -187500.02, -187500.02, 187500.00, 0.000, 0.000, 0.000, 13:36:58.584
126, 37493.73, 77773.41, -187500.02, -187500.02, -187500.02, -187500.02, -187500.02, 187500.00, 0.442, 0.910, -0.186, 13:36:58.584
127, 35387.82, 75235.50, -187500.02, -187500.02, -187500.02, -187500.02, -187500.02, 187500.00, 0.000, 0.000, 0.000, 13:36:58.585
128, 36921.53, 76941.30, -187500.02, -187500.02, -187500.02, -187500.02, -187500.02, 187500.00, 0.000, 0.000, 0.000, 13:36:58.585
129, 39624.50, 80124.16, -187500.02, -187500.02, -187500.02, -187500.02, -187500.02, 187500.00, 0.000, 0.000, 0.000, 13:36:58.585
130, 38150.38, 78521.32, -187500.02, -187500.02, -187500.02, -187500.02, -187500.02, 187500.00, 0.000, 0.000, 0.000, 13:36:58.586
131, 35429.30, 75314.67, -187500.02, -187500.02, -187500.02, -187500.02, -187500.02, 187500.00, 0.000, 0.000, 0.000, 13:36:58.586
132, 36503.46, 76455.91, -187500.02, -187500.02, -187500.02, -187500.02, -187500.02, 187500.00, 0.000, 0.000, 0.000, 13:36:58.586
133, 39306.82, 79721.02, -187500.02, -187500.02, -187500.02, -187500.02, -187500.02, 187500.00, 0.000, 0.000, 0.000, 13:36:58.587
134, 38774.38, 79228.59, -187500.02, -187500.02, -187500.02, -187500.02, -187500.02, 187500.00, 0.000, 0.000, 0.000, 13:36:58.587
135, 35629.37, 75550.44, -187500.02, -187500.02, -187500.02, -187500.02, -187500.02, 187500.00, 0.450, 0.906, -0.186, 13:36:58.587
136, 36141.12, 76023.84, -187500.02, -187500.02, -187500.02, -187500.02, -187500.02, 187500.00, 0.000, 0.000, 0.000, 13:36:58.588
137, 38878.58, 79217.58, -187500.02, -187500.02, -187500.02, -187500.02, -187500.02, 187500.00, 0.000, 0.000, 0.000, 13:36:58.588
138, 39292.20, 79813.74, -187500.02, -187500.02, -187500.02, -187500.02, -187500.02, 187500.00, 0.000, 0.000, 0.000, 13:36:58.588
139, 35935.41, 75932.31, -187500.02, -187500.02, -187500.02, -187500.02, -187500.02, 187500.00, 0.000, 0.000, 0.000, 13:36:58.589
140, 35817.75, 75688.13, -187500.02, -187500.02, -187500.02, -187500.02, -187500.02, 187500.00, 0.000, 0.000, 0.000, 13:36:58.589
141, 38337.73, 78613.67, -187500.02, -187500.02, -187500.02, -187500.02, -187500.02, 187500.00, 0.000, 0.000, 0.000, 13:36:58.590
142, 39635.52, 80199.51, -187500.02, -187500.02, -187500.02, -187500.02, -187500.02, 187500.00, 0.000, 0.000, 0.000, 13:36:58.590
143, 36387.72, 76497.86, -187500.02, -187500.02, -187500.02, -187500.02, -187500.02, 187500.00, 0.000, 0.000, 0.000, 13:36:58.591
144, 35577.88, 75439.26, -187500.02, -187500.02, -187500.02, -187500.02, -187500.02, 187500.00, 0.000, 0.000, 0.000, 13:36:58.591
145, 37790.90, 77989.91, -187500.02, -187500.02, -187500.02, -187500.02, -187500.02, 187500.00, 0.444, 0.906, -0.190, 13:36:58.592
146, 39795.13, 80373.88, -187500.02, -187500.02, -187500.02, -187500.02, -187500.02, 187500.00, 0.000, 0.000, 0.000, 13:36:58.593
147, 36995.22, 77165.66, -187500.02, -187500.02, -187500.02, -187500.02, -187500.02, 187500.00, 0.000, 0.000, 0.000, 13:36:58.593
148, 35453.55, 75277.30, -187500.02, -187500.02, -187500.02, -187500.02, -187500.02, 187500.00, 0.000, 0.000, 0.000, 13:36:58.594
149, 37320.19, 77399.59, -187500.02, -187500.02, -187500.02, -187500.02, -187500.02, 187500.00, 0.000, 0.000, 0.000, 13:36:58.594
150, 39800.99, 80331.74, -187500.02, -187500.02, -187500.02, -187500.02, -187500.02, 187500.00, 0.000, 0.000, 0.000, 13:36:58.595
151, 37628.60, 77914.05, -187500.02, -187500.02, -187500.02, -187500.02, -187500.02, 187500.00, 0.000, 0.000, 0.000, 13:36:58.596
152, 35386.90, 75237.89, -187500.02, -187500.02, -187500.02, -187500.02, -187500.02, 187500.00, 0.000, 0.000, 0.000, 13:36:58.596
153, 36842.09, 76837.18, -187500.02, -187500.02, -187500.02, -187500.02, -187500.02, 187500.00, 0.000, 0.000, 0.000, 13:36:58.596
154, 39583.04, 80070.36, -187500.02, -187500.02, -187500.02, -187500.02, -187500.02, 187500.00, 0.000, 0.000, 0.000, 13:36:58.597
155, 38297.95, 78689.98, -187500.02, -187500.02, -187500.02, -187500.02, -187500.02, 187500.00, 0.444, 0.908, -0.188, 13:36:58.597
