%OpenBCI Raw EEG Data
%
%Sample Rate = 250.0 Hz
%First Column = SampleIndex
%Last Column = Timestamp 
%Other Columns = EEG data in microvolts followed by Accel Data (in G) interleaved with Aux Data
0, 0.00, 0.00, 0.00, 0.00, 0.00, 0.00, 0.00, 0.00, 0.000, 0.000, 0.000, 14:02:29.403
1, 91926.84, 106189.24, -187500.02, -187500.02, -187500.02, -187500.02, -187500.02, 187500.00, 0.330, 0.954, 0.038, 14:02:29.882
2, 91508.22, 105868.72, -187500.02, -187500.02, -187500.02, -187500.02, -187500.02, 187500.00, 0.000, 0.000, 0.000, 14:02:29.882
3, 91989.85, 106804.45, -187500.02, -187500.02, -187500.02, -187500.02, -187500.02, 187500.00, 0.000, 0.000, 0.000, 14:02:29.882
4, 92944.83, 107802.10, -187500.02, -187500.02, -187500.02, -187500.02, -187500.02, 187500.00, 0.000, 0.000, 0.000, 14:02:29.882
5, 92051.03, 106409.90, -187500.02, -187500.02, -187500.02, -187500.02, -187500.02, 187500.00, 0.000, 0.000, 0.000, 14:02:29.883
6, 91333.94, 105702.38, -187500.02, -187500.02, -187500.02, -187500.02, -187500.02, 187500.00, 0.000, 0.000, 0.000, 14:02:29.883
7, 91773.63, 106597.61, -187500.02, -187500.02, -187500.02, -187500.02, -187500.02, 187500.00, 0.000, 0.000, 0.000, 14:02:29.883
8, 93006.63, 107954.56, -187500.02, -187500.02, -187500.02, -187500.02, -187500.02, 187500.00, 0.344, 0.940, 0.094, 14:02:29.883
9, 92330.38, 106742.45, -187500.02, -187500.02, -187500.02, -187500.02, -187500.02, 187500.00, 0.000, 0.000, 0.000, 14:02:29.883
10, 91190.63, 105543.66, -187500.02, -187500.02, -187500.02, -187500.02, -187500.02, 187500.00, 0.000, 0.000, 0.000, 14:02:29.884
11, 91523.46, 106331.45, -187500.02, -187500.02, -187500.02, -187500.02, -187500.02, 187500.00, 0.000, 0.000, 0.000, 14:02:29.884
12, 93028.88, 108036.02, -187500.02, -187500.02, -187500.02, -187500.02, -187500.02, 187500.00, 0.000, 0.000, 0.000, 14:02:29.884
13, 92777.64, 107199.50, -187500.02, -187500.02, -187500.02, -187500.02, -187500.02, 187500.00, 0.000, 0.000, 0.000, 14:02:29.884
14, 91152.63, 105428.52, -187500.02, -187500.02, -187500.02, -187500.02, -187500.02, 187500.00, 0.000, 0.000, 0.000, 14:02:29.884
15, 91232.02, 106000.51, -187500.02, -187500.02, -187500.02, -187500.02, -187500.02, 187500.00, 0.000, 0.000, 0.000, 14:02:29.885
16, 92837.92, 107935.54, -187500.02, -187500.02, -187500.02, -187500.02, -187500.02, 187500.00, 0.000, 0.000, 0.000, 14:02:29.885
17, 93164.46, 107693.59, -187500.02, -187500.02, -187500.02, -187500.02, -187500.02, 187500.00, 0.000, 0.000, 0.000, 14:02:29.885
18, 91105.93, 105380.73, -187500.02, -187500.02, -187500.02, -187500.02, -187500.02, 187500.00, 0.350, 0.944, 0.124, 14:02:29.885
19, 90876.84, 105641.98, -187500.02, -187500.02, -187500.02, -187500.02, -187500.02, 187500.00, 0.000, 0.000, 0.000, 14:02:29.885
20, 92492.03, 107683.59, -187500.02, -187500.02, -187500.02, -187500.02, -187500.02, 187500.00, 0.000, 0.000, 0.000, 14:02:29.886
21, 93490.62, 108143.39, -187500.02, -187500.02, -187500.02, -187500.02, -187500.02, 187500.00, 0.000, 0.000, 0.000, 14:02:29.886
22, 91268.88, 105489.52, -187500.02, -187500.02, -187500.02, -187500.02, -187500.02, 187500.00, 0.000, 0.000, 0.000, 14:02:29.886
23, 90597.79, 105285.84, -187500.02, -187500.02, -187500.02, -187500.02, -187500.02, 187500.00, 0.000, 0.000, 0.000, 14:02:29.886
24, 92126.00, 107317.00, -187500.02, -187500.02, -187500.02, -187500.02, -187500.02, 187500.00, 0.000, 0.000, 0.000, 14:02:29.887
25, 93858.91, 108627.77, -187500.02, -187500.02, -187500.02, -187500.02, -187500.02, 187500.00, 0.000, 0.000, 0.000, 14:02:29.887
26, 91688.41, 105756.34, -187500.02, -187500.02, -187500.02, -187500.02, -187500.02, 187500.00, 0.000, 0.000, 0.000, 14:02:29.887
27, 90427.94, 104858.29, -187500.02, -187500.02, -187500.02, -187500.02, -187500.02, 187500.00, 0.360, 0.942, 0.142, 14:02:29.887
28, 91767.45, 106778.39, -187500.02, -187500.02, -187500.02, -187500.02, -187500.02, 187500.00, 0.000, 0.000, 0.000, 14:02:29.888
29, 94080.23, 108822.48, -187500.02, -187500.02, -187500.02, -187500.02, -187500.02, 187500.00, 0.000, 0.000, 0.000, 14:02:29.888
30, 92231.77, 106124.34, -187500.02, -187500.02, -187500.02, -187500.02, -187500.02, 187500.00, 0.000, 0.000, 0.000, 14:02:29.888
31, 90309.12, 104473.91, -187500.02, -187500.02, -187500.02, -187500.02, -187500.02, 187500.00, 0.000, 0.000, 0.000, 14:02:29.889
32, 91338.70, 106220.63, -187500.02, -187500.02, -187500.02, -187500.02, -187500.02, 187500.00, 0.000, 0.000, 0.000, 14:02:29.889
33, 94083.74, 108927.22, -187500.02, -187500.02, -187500.02, -187500.02, -187500.02, 187500.00, 0.000, 0.000, 0.000, 14:02:29.889
34, 92926.52, 106817.33, -187500.02, -187500.02, -187500.02, -187500.02, -187500.02, 187500.00, 0.000, 0.000, 0.000, 14:02:29.889
35, 90335.96, 104338.99, -187500.02, -187500.02, -187500.02, -187500.02, -187500.02, 187500.00, 0.000, 0.000, 0.000, 14:02:29.890
36, 90943.50, 105725.63, -187500.02, -187500.02, -187500.02, -187500.02, -187500.02, 187500.00, 0.000, 0.000, 0.000, 14:02:29.890
37, 93817.22, 108802.25, -187500.02, -187500.02, -187500.02, -187500.02, -187500.02, 187500.00, 0.356, 0.938, 0.146, 14:02:29.890
38, 93543.19, 107558.13, -187500.02, -187500.02, -187500.02, -187500.02, -187500.02, 187500.00, 0.000, 0.000, 0.000, 14:02:29.890
39, 90391.41, 104338.84, -187500.02, -187500.02, -187500.02, -187500.02, -187500.02, 187500.00, 0.000, 0.000, 0.000, 14:02:29.891
40, 90454.11, 105242.00, -187500.02, -187500.02, -187500.02, -187500.02, -187500.02, 187500.00, 0.000, 0.000, 0.000, 14:02:29.891
41, 93303.69, 108501.04, -187500.02, -187500.02, -187500.02, -187500.02, -187500.02, 187500.00, 0.000, 0.000, 0.000, 14:02:29.891
42, 94031.06, 108356.25, -187500.02, -187500.02, -187500.02, -187500.02, -187500.02, 187500.00, 0.000, 0.000, 0.000, 14:02:29.891
43, 90540.97, 104563.71, -187500.02, -187500.02, -187500.02, -187500.02, -187500.02, 187500.00, 0.000, 0.000, 0.000, 14:02:29.891
44, 90012.69, 104850.82, -187500.02, -187500.02, -187500.02, -187500.02, -187500.02, 187500.00, 0.000, 0.000, 0.000, 14:02:29.892
45, 92673.48, 108055.62, -187500.02, -187500.02, -187500.02, -187500.02, -187500.02, 187500.00, 0.000, 0.000, 0.000, 14:02:29.892
46, 94479.57, 109041.02, -187500.02, -187500.02, -187500.02, -187500.02, -187500.02, 187500.00, 0.000, 0.000, 0.000, 14:02:29.892
47, 90984.94, 104976.66, -187500.02, -187500.02, -187500.02, -187500.02, -187500.02, 187500.00, 0.364, 0.936, 0.150, 14:02:29.892
48, 89718.24, 104486.78, -187500.02, -187500.02, -187500.02, -187500.02, -187500.02, 187500.00, 0.000, 0.000, 0.000, 14:02:29.892
49, 91998.84, 107461.23, -187500.02, -187500.02, -187500.02, -187500.02, -187500.02, 187500.00, 0.000, 0.000, 0.000, 14:02:29.893
50, 94645.58, 109490.02, -187500.02, -187500.02, -187500.02, -187500.02, -187500.02, 187500.00, 0.000, 0.000, 0.000, 14:02:29.893
51, 91573.84, 105591.34, -187500.02, -187500.02, -187500.02, -187500.02, -187500.02, 187500.00, 0.000, 0.000, 0.000, 14:02:29.893
52, 89495.35, 104206.16, -187500.02, -187500.02, -187500.02, -187500.02, -187500.02, 187500.00, 0.000, 0.000, 0.000, 14:02:29.893
53, 91271.29, 106810.60, -187500.02, -187500.02, -187500.02, -187500.02, -187500.02, 187500.00, 0.000, 0.000, 0.000, 14:02:29.894
54, 94569.98, 109723.75, -187500.02, -187500.02, -187500.02, -187500.02, -187500.02, 187500.00, 0.000, 0.000, 0.000, 14:02:29.894
55, 92264.55, 106372.53, -187500.02, -187500.02, -187500.02, -187500.02, -187500.02, 187500.00, 0.000, 0.000, 0.000, 14:02:29.894
56, 89445.95, 104022.73, -187500.02, -187500.02, -187500.02, -187500.02, -187500.02, 187500.00, 0.000, 0.000, 0.000, 14:02:29.894
57, 90670.72, 106176.80, -187500.02, -187500.02, -187500.02, -187500.02, -187500.02, 187500.00, 0.366, 0.940, 0.146, 14:02:29.895
58, 94227.59, 109675.36, -187500.02, -187500.02, -187500.02, -187500.02, -187500.02, 187500.00, 0.000, 0.000, 0.000, 14:02:29.895
59, 92981.40, 107260.56, -187500.02, -187500.02, -187500.02, -187500.02, -187500.02, 187500.00, 0.000, 0.000, 0.000, 14:02:29.895
60, 89516.37, 103972.00, -187500.02, -187500.02, -187500.02, -187500.02, -187500.02, 187500.00, 0.000, 0.000, 0.000, 14:02:29.895
61, 90157.14, 105574.95, -187500.02, -187500.02, -187500.02, -187500.02, -187500.02, 187500.00, 0.000, 0.000, 0.000, 14:02:29.896
62, 93718.09, 109391.42, -187500.02, -187500.02, -187500.02, -187500.02, -187500.02, 187500.00, 0.000, 0.000, 0.000, 14:02:29.896
63, 93700.77, 108169.56, -187500.02, -187500.02, -187500.02, -187500.02, -187500.02, 187500.00, 0.000, 0.000, 0.000, 14:02:29.899
64, 89838.59, 104092.25, -187500.02, -187500.02, -187500.02, -187500.02, -187500.02, 187500.00, 0.000, 0.000, 0.000, 14:02:29.899
65, 89795.18, 105006.37, -187500.02, -187500.02, -187500.02, -187500.02, -187500.02, 187500.00, 0.000, 0.000, 0.000, 14:02:29.900
66, 93069.73, 108851.31, -187500.02, -187500.02, -187500.02, -187500.02, -187500.02, 187500.00, 0.000, 0.000, 0.000, 14:02:29.900
67, 94225.70, 108955.52, -187500.02, -187500.02, -187500.02, -187500.02, -187500.02, 187500.00, 0.358, 0.936, 0.144, 14:02:29.901
68, 90307.41, 104415.41, -187500.02, -187500.02, -187500.02, -187500.02, -187500.02, 187500.00, 0.000, 0.000, 0.000, 14:02:29.901
69, 89564.02, 104540.31, -187500.02, -187500.02, -187500.02, -187500.02, -187500.02, 187500.00, 0.000, 0.000, 0.000, 14:02:29.902
70, 92412.93, 108192.37, -187500.02, -187500.02, -187500.02, -187500.02, -187500.02, 187500.00, 0.000, 0.000, 0.000, 14:02:29.902
71, 94596.11, 109614.20, -187500.02, -187500.02, -187500.02, -187500.02, -187500.02, 187500.00, 0.000, 0.000, 0.000, 14:02:29.902
72, 90939.03, 104984.82, -187500.02, -187500.02, -187500.02, -187500.02, -187500.02, 187500.00, 0.000, 0.000, 0.000, 14:02:29.903
73, 89454.61, 104205.82, -187500.02, -187500.02, -187500.02, -187500.02, -187500.02, 187500.00, 0.000, 0.000, 0.000, 14:02:29.903
74, 91741.97, 107453.33, -187500.02, -187500.02, -187500.02, -187500.02, -187500.02, 187500.00, 0.000, 0.000, 0.000, 14:02:29.903
75, 94745.02, 109956.14, -187500.02, -187500.02, -187500.02, -187500.02, -187500.02, 187500.00, 0.000, 0.000, 0.000, 14:02:29.903
76, 91704.63, 105708.28, -187500.02, -187500.02, -187500.02, -187500.02, -187500.02, 187500.00, 0.000, 0.000, 0.000, 14:02:29.904
77, 89432.19, 103921.99, -187500.02, -187500.02, -187500.02, -187500.02, -187500.02, 187500.00, 0.352, 0.938, 0.154, 14:02:29.904
78, 91185.01, 106677.79, -187500.02, -187500.02, -187500.02, -187500.02, -187500.02, 187500.00, 0.000, 0.000, 0.000, 14:02:29.904
79, 94704.38, 110008.02, -187500.02, -187500.02, -187500.02, -187500.02, -187500.02, 187500.00, 0.000, 0.000, 0.000, 14:02:29.904
80, 92545.90, 106524.74, -187500.02, -187500.02, -187500.02, -187500.02, -187500.02, 187500.00, 0.000, 0.000, 0.000, 14:02:29.905
81, 89432.26, 103701.34, -187500.02, -187500.02, -187500.02, -187500.02, -187500.02, 187500.00, 0.000, 0.000, 0.000, 14:02:29.905
82, 90578.16, 105891.16, -187500.02, -187500.02, -187500.02, -187500.02, -187500.02, 187500.00, 0.000, 0.000, 0.000, 14:02:29.905
83, 94401.94, 109768.67, -187500.02, -187500.02, -187500.02, -187500.02, -187500.02, 187500.00, 0.000, 0.000, 0.000, 14:02:29.906
84, 93378.63, 107407.03, -187500.02, -187500.02, -187500.02, -187500.02, -187500.02, 187500.00, 0.000, 0.000, 0.000, 14:02:29.906
85, 89514.58, 103618.98, -187500.02, -187500.02, -187500.02, -187500.02, -187500.02, 187500.00, 0.000, 0.000, 0.000, 14:02:29.906
86, 90019.39, 105178.32, -187500.02, -187500.02, -187500.02, -187500.02, -187500.02, 187500.00, 0.350, 0.944, 0.162, 14:02:29.906
87, 93939.88, 109314.04, -187500.02, -187500.02, -187500.02, -187500.02, -187500.02, 187500.00, 0.000, 0.000, 0.000, 14:02:29.906
88, 94219.48, 108288.25, -187500.02, -187500.02, -187500.02, -187500.02, -187500.02, 187500.00, 0.000, 0.000, 0.000, 14:02:29.906
89, 89692.79, 103714.51, -187500.02, -187500.02, -187500.02, -187500.02, -187500.02, 187500.00, 0.000, 0.000, 0.000, 14:02:29.907
90, 89457.45, 104546.17, -187500.02, -187500.02, -187500.02, -187500.02, -187500.02, 187500.00, 0.000, 0.000, 0.000, 14:02:29.907
91, 93264.55, 108709.52, -187500.02, -187500.02, -187500.02, -187500.02, -187500.02, 187500.00, 0.000, 0.000, 0.000, 14:02:29.907
92, 94984.20, 109156.84, -187500.02, -187500.02, -187500.02, -187500.02, -187500.02, 187500.00, 0.000, 0.000, 0.000, 14:02:29.907
93, 90217.36, 104093.95, -187500.02, -187500.02, -187500.02, -187500.02, -187500.02, 187500.00, 0.000, 0.000, 0.000, 14:02:29.907
94, 89069.51, 104021.51, -187500.02, -187500.02, -187500.02, -187500.02, -187500.02, 187500.00, 0.000, 0.000, 0.000, 14:02:29.908
95, 92571.89, 108007.31, -187500.02, -187500.02, -187500.02, -187500.02, -187500.02, 187500.00, 0.000, 0.000, 0.000, 14:02:29.908
96, 95670.73, 109883.30, -187500.02, -187500.02, -187500.02, -187500.02, -187500.02, 187500.00, 0.354, 0.946, 0.162, 14:02:29.908
97, 90994.69, 104696.38, -187500.02, -187500.02, -187500.02, -187500.02, -187500.02, 187500.00, 0.000, 0.000, 0.000, 14:02:29.908
98, 88741.92, 103561.66, -187500.02, -187500.02, -187500.02, -187500.02, -187500.02, 187500.00, 0.000, 0.000, 0.000, 14:02:29.908
99, 91717.30, 107177.13, -187500.02, -187500.02, -187500.02, -187500.02, -187500.02, 187500.00, 0.000, 0.000, 0.000, 14:02:29.908
100, 95943.01, 110299.51, -187500.02, -187500.02, -187500.02, -187500.02, -187500.02, 187500.00, 0.000, 0.000, 0.000, 14:02:29.909
101, 92024.27, 105518.72, -187500.02, -187500.02, -187500.02, -187500.02, -187500.02, 187500.00, 0.000, 0.000, 0.000, 14:02:29.909
102, 88577.79, 103165.39, -187500.02, -187500.02, -187500.02, -187500.02, -187500.02, 187500.00, 0.000, 0.000, 0.000, 14:02:29.909
103, 90838.38, 106309.27, -187500.02, -187500.02, -187500.02, -187500.02, -187500.02, 187500.00, 0.000, 0.000, 0.000, 14:02:29.909
104, 95844.34, 110460.48, -187500.02, -187500.02, -187500.02, -187500.02, -187500.02, 187500.00, 0.000, 0.000, 0.000, 14:02:29.910
105, 93157.40, 106600.34, -187500.02, -187500.02, -187500.02, -187500.02, -187500.02, 187500.00, 0.000, 0.000, 0.000, 14:02:29.910
106, 88580.85, 103011.16, -187500.02, -187500.02, -187500.02, -187500.02, -187500.02, 187500.00, 0.360, 0.944, 0.150, 14:02:29.910
107, 90029.45, 105486.80, -187500.02, -187500.02, -187500.02, -187500.02, -187500.02, 187500.00, 0.000, 0.000, 0.000, 14:02:29.911
108, 95383.23, 110256.86, -187500.02, -187500.02, -187500.02, -187500.02, -187500.02, 187500.00, 0.000, 0.000, 0.000, 14:02:29.911
109, 94337.23, 107779.98, -187500.02, -187500.02, -187500.02, -187500.02, -187500.02, 187500.00, 0.000, 0.000, 0.000, 14:02:29.912
110, 88768.74, 103018.92, -187500.02, -187500.02, -187500.02, -187500.02, -187500.02, 187500.00, 0.000, 0.000, 0.000, 14:02:29.912
111, 89273.73, 104746.17, -187500.02, -187500.02, -187500.02, -187500.02, -187500.02, 187500.00, 0.000, 0.000, 0.000, 14:02:29.912
112, 94525.91, 109718.61, -187500.02, -187500.02, -187500.02, -187500.02, -187500.02, 187500.00, 0.000, 0.000, 0.000, 14:02:29.913
113, 95329.02, 108910.95, -187500.02, -187500.02, -187500.02, -187500.02, -187500.02, 187500.00, 0.000, 0.000, 0.000, 14:02:29.913
114, 89293.90, 103312.64, -187500.02, -187500.02, -187500.02, -187500.02, -187500.02, 187500.00, 0.000, 0.000, 0.000, 14:02:29.913
115, 88726.77, 104089.63, -187500.02, -187500.02, -187500.02, -187500.02, -187500.02, 187500.00, 0.000, 0.000, 0.000, 14:02:29.914
116, 93590.53, 108979.37, -187500.02, -187500.02, -187500.02, -187500.02, -187500.02, 187500.00, 0.356, 0.938, 0.146, 14:02:29.914
117, 96180.88, 109911.03, -187500.02, -187500.02, -187500.02, -187500.02, -187500.02, 187500.00, 0.000, 0.000, 0.000, 14:02:29.915
118, 90128.40, 103919.23, -187500.02, -187500.02, -187500.02, -187500.02, -187500.02, 187500.00, 0.000, 0.000, 0.000, 14:02:29.915
119, 88376.02, 103601.94, -187500.02, -187500.02, -187500.02, -187500.02, -187500.02, 187500.00, 0.000, 0.000, 0.000, 14:02:29.916
120, 92553.90, 108138.72, -187500.02, -187500.02, -187500.02, -187500.02, -187500.02, 187500.00, 0.000, 0.000, 0.000, 14:02:29.916
121, 96625.07, 110661.90, -187500.02, -187500.02, -187500.02, -187500.02, -187500.02, 187500.00, 0.000, 0.000, 0.000, 14:02:30.362
122, 91153.83, 104813.70, -187500.02, -187500.02, -187500.02, -187500.02, -187500.02, 187500.00, 0.000, 0.000, 0.000, 14:02:30.362
123, 88117.63, 103252.09, -187500.02, -187500.02, -187500.02, -187500.02, -187500.02, 187500.00, 0.000, 0.000, 0.000, 14:02:30.362
124, 91474.65, 107226.01, -187500.02, -187500.02, -187500.02, -187500.02, -187500.02, 187500.00, 0.000, 0.000, 0.000, 14:02:30.362
125, 96646.46, 111015.73, -187500.02, -187500.02, -187500.02, -187500.02, -187500.02, 187500.00, 0.000, 0.000, 0.000, 14:02:30.363
126, 92392.19, 105921.80, -187500.02, -187500.02, -187500.02, -187500.02, -187500.02, 187500.00, 0.350, 0.942, 0.150, 14:02:30.365
127, 88107.58, 103020.21, -187500.02, -187500.02, -187500.02, -187500.02, -187500.02, 187500.00, 0.000, 0.000, 0.000, 14:02:30.365
128, 90518.15, 106303.09, -187500.02, -187500.02, -187500.02, -187500.02, -187500.02, 187500.00, 0.000, 0.000, 0.000, 14:02:30.365
129, 96298.55, 110983.85, -187500.02, -187500.02, -187500.02, -187500.02, -187500.02, 187500.00, 0.000, 0.000, 0.000, 14:02:30.366
130, 93675.91, 107138.86, -187500.02, -187500.02, -187500.02, -187500.02, -187500.02, 187500.00, 0.000, 0.000, 0.000, 14:02:30.366
131, 88264.40, 102978.20, -187500.02, -187500.02, -187500.02, -187500.02, -187500.02, 187500.00, 0.000, 0.000, 0.000, 14:02:30.367
132, 89669.23, 105480.54, -187500.02, -187500.02, -187500.02, -187500.02, -187500.02, 187500.00, 0.000, 0.000, 0.000, 14:02:30.367
133, 95576.91, 110618.24, -187500.02, -187500.02, -187500.02, -187500.02, -187500.02, 187500.00, 0.000, 0.000, 0.000, 14:02:30.367
134, 94870.95, 108384.34, -187500.02, -187500.02, -187500.02, -187500.02, -187500.02, 187500.00, 0.000, 0.000, 0.000, 14:02:30.368
135, 88634.48, 103107.09, -187500.02, -187500.02, -187500.02, -187500.02, -187500.02, 187500.00, 0.000, 0.000, 0.000, 14:02:30.368
136, 88904.13, 104687.25, -187500.02, -187500.02, -187500.02, -187500.02, -187500.02, 187500.00, 0.346, 0.944, 0.144, 14:02:30.369
137, 94513.63, 109896.30, -187500.02, -187500.02, -187500.02, -187500.02, -187500.02, 187500.00, 0.000, 0.000, 0.000, 14:02:30.369
138, 95818.20, 109462.48, -187500.02, -187500.02, -187500.02, -187500.02, -187500.02, 187500.00, 0.000, 0.000, 0.000, 14:02:30.369
139, 89260.23, 103484.17, -187500.02, -187500.02, -187500.02, -187500.02, -187500.02, 187500.00, 0.000, 0.000, 0.000, 14:02:30.370
140, 88373.85, 104033.04, -187500.02, -187500.02, -187500.02, -187500.02, -187500.02, 187500.00, 0.000, 0.000, 0.000, 14:02:30.370
141, 93411.54, 108986.30, -187500.02, -187500.02, -187500.02, -187500.02, -187500.02, 187500.00, 0.000, 0.000, 0.000, 14:02:30.370
142, 96542.48, 110331.73, -187500.02, -187500.02, -187500.02, -187500.02, -187500.02, 187500.00, 0.000, 0.000, 0.000, 14:02:30.371
143, 90214.32, 104140.77, -187500.02, -187500.02, -187500.02, -187500.02, -187500.02, 187500.00, 0.000, 0.000, 0.000, 14:02:30.371
144, 88045.82, 103519.38, -187500.02, -187500.02, -187500.02, -187500.02, -187500.02, 187500.00, 0.000, 0.000, 0.000, 14:02:30.371
145, 92299.05, 108022.05, -187500.02, -187500.02, -187500.02, -187500.02, -187500.02, 187500.00, 0.000, 0.000, 0.000, 14:02:30.372
146, 96902.70, 110922.79, -187500.02, -187500.02, -187500.02, -187500.02, -187500.02, 187500.00, 0.340, 0.954, 0.150, 14:02:30.372
147, 91368.97, 105054.73, -187500.02, -187500.02, -187500.02, -187500.02, -187500.02, 187500.00, 0.000, 0.000, 0.000, 14:02:30.372
148, 87886.03, 103133.90, -187500.02, -187500.02, -187500.02, -187500.02, -187500.02, 187500.00, 0.000, 0.000, 0.000, 14:02:30.373
149, 91260.00, 106994.91, -187500.02, -187500.02, -187500.02, -187500.02, -187500.02, 187500.00, 0.000, 0.000, 0.000, 14:02:30.373
150, 96889.11, 111087.43, -187500.02, -187500.02, -187500.02, -187500.02, -187500.02, 187500.00, 0.000, 0.000, 0.000, 14:02:30.374
151, 92765.39, 106121.99, -187500.02, -187500.02, -187500.02, -187500.02, -187500.02, 187500.00, 0.000, 0.000, 0.000, 14:02:30.374
152, 87982.74, 102858.55, -187500.02, -187500.02, -187500.02, -187500.02, -187500.02, 187500.00, 0.000, 0.000, 0.000, 14:02:30.374
153, 90254.48, 106002.63, -187500.02, -187500.02, -187500.02, -187500.02, -187500.02, 187500.00, 0.000, 0.000, 0.000, 14:02:30.375
154, 96327.84, 110897.57, -187500.02, -187500.02, -187500.02, -187500.02, -187500.02, 187500.00, 0.000, 0.000, 0.000, 14:02:30.375
155, 94051.20, 107331.38, -187500.02, -187500.02, -187500.02, -187500.02, -187500.02, 187500.00, 0.338, 0.958, 0.154, 14:02:30.376
156, 88211.67, 102799.55, -187500.02, -187500.02, -187500.02, -187500.02, -187500.02, 187500.00, 0.000, 0.000, 0.000, 14:02:30.376
157, 89418.24, 105133.91, -187500.02, -187500.02, -187500.02, -187500.02, -187500.02, 187500.00, 0.000, 0.000, 0.000, 14:02:30.376
158, 95487.61, 110411.98, -187500.02, -187500.02, -187500.02, -187500.02, -187500.02, 187500.00, 0.000, 0.000, 0.000, 14:02:30.377
159, 95254.28, 108527.98, -187500.02, -187500.02, -187500.02, -187500.02, -187500.02, 187500.00, 0.000, 0.000, 0.000, 14:02:30.377
160, 88732.87, 102938.48, -187500.02, -187500.02, -187500.02, -187500.02, -187500.02, 187500.00, 0.000, 0.000, 0.000, 14:02:30.377
161, 88762.89, 104363.17, -187500.02, -187500.02, -187500.02, -187500.02, -187500.02, 187500.00, 0.000, 0.000, 0.000, 14:02:30.378
162, 94418.48, 109670.75, -187500.02, -187500.02, -187500.02, -187500.02, -187500.02, 187500.00, 0.000, 0.000, 0.000, 14:02:30.378
163, 96191.69, 109643.91, -187500.02, -187500.02, -187500.02, -187500.02, -187500.02, 187500.00, 0.000, 0.000, 0.000, 14:02:30.379
164, 89462.27, 103387.32, -187500.02, -187500.02, -187500.02, -187500.02, -187500.02, 187500.00, 0.000, 0.000, 0.000, 14:02:30.379
165, 88250.63, 103702.50, -187500.02, -187500.02, -187500.02, -187500.02, -187500.02, 187500.00, 0.352, 0.950, 0.152, 14:02:30.379
166, 93210.26, 108750.30, -187500.02, -187500.02, -187500.02, -187500.02, -187500.02, 187500.00, 0.000, 0.000, 0.000, 14:02:30.380
167, 96779.34, 110560.95, -187500.02, -187500.02, -187500.02, -187500.02, -187500.02, 187500.00, 0.000, 0.000, 0.000, 14:02:30.380
168, 90485.40, 104159.93, -187500.02, -187500.02, -187500.02, -187500.02, -187500.02, 187500.00, 0.000, 0.000, 0.000, 14:02:30.381
169, 87952.73, 103201.38, -187500.02, -187500.02, -187500.02, -187500.02, -187500.02, 187500.00, 0.000, 0.000, 0.000, 14:02:30.381
170, 92048.75, 107748.32, -187500.02, -187500.02, -187500.02, -187500.02, -187500.02, 187500.00, 0.000, 0.000, 0.000, 14:02:30.381
171, 96985.02, 111104.23, -187500.02, -187500.02, -187500.02, -187500.02, -187500.02, 187500.00, 0.000, 0.000, 0.000, 14:02:30.382
172, 91646.89, 105123.55, -187500.02, -187500.02, -187500.02, -187500.02, -187500.02, 187500.00, 0.000, 0.000, 0.000, 14:02:30.382
173, 87768.91, 102785.79, -187500.02, -187500.02, -187500.02, -187500.02, -187500.02, 187500.00, 0.000, 0.000, 0.000, 14:02:30.383
174, 90928.63, 106707.20, -187500.02, -187500.02, -187500.02, -187500.02, -187500.02, 187500.00, 0.000, 0.000, 0.000, 14:02:30.383
175, 96801.69, 111287.56, -187500.02, -187500.02, -187500.02, -187500.02, -187500.02, 187500.00, 0.364, 0.980, 0.140, 14:02:30.384
176, 92996.06, 106356.62, -187500.02, -187500.02, -187500.02, -187500.02, -187500.02, 187500.00, 0.000, 0.000, 0.000, 14:02:30.384
177, 87840.56, 102613.23, -187500.02, -187500.02, -187500.02, -187500.02, -187500.02, 187500.00, 0.000, 0.000, 0.000, 14:02:30.385
178, 89933.70, 105763.45, -187500.02, -187500.02, -187500.02, -187500.02, -187500.02, 187500.00, 0.000, 0.000, 0.000, 14:02:30.385
179, 96210.82, 111095.59, -187500.02, -187500.02, -187500.02, -187500.02, -187500.02, 187500.00, 0.000, 0.000, 0.000, 14:02:30.386
180, 94344.95, 107722.64, -187500.02, -187500.02, -187500.02, -187500.02, -187500.02, 187500.00, 0.000, 0.000, 0.000, 14:02:30.386
181, 88154.54, 102655.48, -187500.02, -187500.02, -187500.02, -187500.02, -187500.02, 187500.00, 0.000, 0.000, 0.000, 14:02:30.386
182, 89144.74, 104915.89, -187500.02, -187500.02, -187500.02, -187500.02, -187500.02, 187500.00, 0.000, 0.000, 0.000, 14:02:30.387
183, 95338.44, 110544.46, -187500.02, -187500.02, -187500.02, -187500.02, -187500.02, 187500.00, 0.000, 0.000, 0.000, 14:02:30.387
184, 95584.57, 109041.93, -187500.02, -187500.02, -187500.02, -187500.02, -187500.02, 187500.00, 0.000, 0.000, 0.000, 14:02:30.387
185, 88746.16, 102920.64, -187500.02, -187500.02, -187500.02, -187500.02, -187500.02, 187500.00, 0.356, 0.922, 0.140, 14:02:30.388
186, 88453.38, 104109.33, -187500.02, -187500.02, -187500.02, -187500.02, -187500.02, 187500.00, 0.000, 0.000, 0.000, 14:02:30.388
187, 94170.22, 109678.87, -187500.02, -187500.02, -187500.02, -187500.02, -187500.02, 187500.00, 0.000, 0.000, 0.000, 14:02:30.388
188, 96481.81, 110155.92, -187500.02, -187500.02, -187500.02, -187500.02, -187500.02, 187500.00, 0.000, 0.000, 0.000, 14:02:30.389
189, 89540.48, 103463.56, -187500.02, -187500.02, -187500.02, -187500.02, -187500.02, 187500.00, 0.000, 0.000, 0.000, 14:02:30.390
190, 87960.44, 103490.77, -187500.02, -187500.02, -187500.02, -187500.02, -187500.02, 187500.00, 0.000, 0.000, 0.000, 14:02:30.390
191, 92933.48, 108697.52, -187500.02, -187500.02, -187500.02, -187500.02, -187500.02, 187500.00, 0.000, 0.000, 0.000, 14:02:30.390
192, 96991.63, 110975.76, -187500.02, -187500.02, -187500.02, -187500.02, -187500.02, 187500.00, 0.000, 0.000, 0.000, 14:02:30.391
193, 90596.09, 104286.59, -187500.02, -187500.02, -187500.02, -187500.02, -187500.02, 187500.00, 0.000, 0.000, 0.000, 14:02:30.391
194, 87608.30, 102989.59, -187500.02, -187500.02, -187500.02, -187500.02, -187500.02, 187500.00, 0.000, 0.000, 0.000, 14:02:30.391
195, 91666.16, 107636.59, -187500.02, -187500.02, -187500.02, -187500.02, -187500.02, 187500.00, 0.356, 0.952, 0.142, 14:02:30.392
196, 97110.39, 111510.99, -187500.02, -187500.02, -187500.02, -187500.02, -187500.02, 187500.00, 0.000, 0.000, 0.000, 14:02:30.392
197, 91858.89, 105437.71, -187500.02, -187500.02, -187500.02, -187500.02, -187500.02, 187500.00, 0.000, 0.000, 0.000, 14:02:30.392
198, 87482.35, 102627.34, -187500.02, -187500.02, -187500.02, -187500.02, -187500.02, 187500.00, 0.000, 0.000, 0.000, 14:02:30.393
199, 90508.98, 106524.97, -187500.02, -187500.02, -187500.02, -187500.02, -187500.02, 187500.00, 0.000, 0.000, 0.000, 14:02:30.393
200, 96738.70, 111525.23, -187500.02, -187500.02, -187500.02, -187500.02, -187500.02, 187500.00, 0.000, 0.000, 0.000, 14:02:30.393
201, 93239.65, 106737.87, -187500.02, -187500.02, -187500.02, -187500.02, -187500.02, 187500.00, 0.000, 0.000, 0.000, 14:02:30.394
202, 87645.19, 102522.02, -187500.02, -187500.02, -187500.02, -187500.02, -187500.02, 187500.00, 0.000, 0.000, 0.000, 14:02:30.394
203, 89568.47, 105581.23, -187500.02, -187500.02, -187500.02, -187500.02, -187500.02, 187500.00, 0.000, 0.000, 0.000, 14:02:30.394
204, 96051.41, 111194.91, -187500.02, -187500.02, -187500.02, -187500.02, -187500.02, 187500.00, 0.000, 0.000, 0.000, 14:02:30.395
205, 94623.78, 108134.18, -187500.02, -187500.02, -187500.02, -187500.02, -187500.02, 187500.00, 0.352, 0.956, 0.146, 14:02:30.395
206, 88062.34, 102607.16, -187500.02, -187500.02, -187500.02, -187500.02, -187500.02, 187500.00, 0.000, 0.000, 0.000, 14:02:30.396
207, 88775.72, 104696.88, -187500.02, -187500.02, -187500.02, -187500.02, -187500.02, 187500.00, 0.000, 0.000, 0.000, 14:02:30.396
208, 95055.15, 110496.60, -187500.02, -187500.02, -187500.02, -187500.02, -187500.02, 187500.00, 0.000, 0.000, 0.000, 14:02:30.396
209, 95800.94, 109417.82, -187500.02, -187500.02, -187500.02, -187500.02, -187500.02, 187500.00, 0.000, 0.000, 0.000, 14:02:30.397
210, 88730.56, 102962.50, -187500.02, -187500.02, -187500.02, -187500.02, -187500.02, 187500.00, 0.000, 0.000, 0.000, 14:02:30.397
211, 88183.89, 103938.76, -187500.02, -187500.02, -187500.02, -187500.02, -187500.02, 187500.00, 0.000, 0.000, 0.000, 14:02:30.398
212, 93891.43, 109569.32, -187500.02, -187500.02, -187500.02, -187500.02, -187500.02, 187500.00, 0.000, 0.000, 0.000, 14:02:30.399
213, 96681.04, 110459.44, -187500.02, -187500.02, -187500.02, -187500.02, -187500.02, 187500.00, 0.000, 0.000, 0.000, 14:02:30.399
214, 89685.55, 103545.70, -187500.02, -187500.02, -187500.02, -187500.02, -187500.02, 187500.00, 0.348, 0.952, 0.146, 14:02:30.400
215, 87770.89, 103271.05, -187500.02, -187500.02, -187500.02, -187500.02, -187500.02, 187500.00, 0.000, 0.000, 0.000, 14:02:30.400
216, 92610.41, 108448.72, -187500.02, -187500.02, -187500.02, -187500.02, -187500.02, 187500.00, 0.000, 0.000, 0.000, 14:02:30.401
217, 97068.21, 111199.57, -187500.02, -187500.02, -187500.02, -187500.02, -187500.02, 187500.00, 0.000, 0.000, 0.000, 14:02:30.401
218, 90829.06, 104491.92, -187500.02, -187500.02, -187500.02, -187500.02, -187500.02, 187500.00, 0.000, 0.000, 0.000, 14:02:30.401
219, 87501.29, 102794.15, -187500.02, -187500.02, -187500.02, -187500.02, -187500.02, 187500.00, 0.000, 0.000, 0.000, 14:02:30.402
220, 91364.80, 107356.41, -187500.02, -187500.02, -187500.02, -187500.02, -187500.02, 187500.00, 0.000, 0.000, 0.000, 14:02:30.402
221, 97059.74, 111596.53, -187500.02, -187500.02, -187500.02, -187500.02, -187500.02, 187500.00, 0.000, 0.000, 0.000, 14:02:30.402
222, 92191.89, 105700.30, -187500.02, -187500.02, -187500.02, -187500.02, -187500.02, 187500.00, 0.000, 0.000, 0.000, 14:02:30.403
223, 87513.40, 102507.29, -187500.02, -187500.02, -187500.02, -187500.02, -187500.02, 187500.00, 0.000, 0.000, 0.000, 14:02:30.403
224, 90295.44, 106291.91, -187500.02, -187500.02, -187500.02, -187500.02, -187500.02, 187500.00, 0.338, 0.936, 0.156, 14:02:30.403
225, 96627.80, 111556.50, -187500.02, -187500.02, -187500.02, -187500.02, -187500.02, 187500.00, 0.000, 0.000, 0.000, 14:02:30.404
226, 93577.34, 107065.66, -187500.02, -187500.02, -187500.02, -187500.02, -187500.02, 187500.00, 0.000, 0.000, 0.000, 14:02:30.404
227, 87728.27, 102441.93, -187500.02, -187500.02, -187500.02, -187500.02, -187500.02, 187500.00, 0.000, 0.000, 0.000, 14:02:30.404
228, 89399.58, 105353.58, -187500.02, -187500.02, -187500.02, -187500.02, -187500.02, 187500.00, 0.000, 0.000, 0.000, 14:02:30.405
229, 95900.91, 111188.62, -187500.02, -187500.02, -187500.02, -187500.02, -187500.02, 187500.00, 0.000, 0.000, 0.000, 14:02:30.405
230, 94940.35, 108497.38, -187500.02, -187500.02, -187500.02, -187500.02, -187500.02, 187500.00, 0.000, 0.000, 0.000, 14:02:30.405
231, 88196.49, 102575.59, -187500.02, -187500.02, -187500.02, -187500.02, -187500.02, 187500.00, 0.000, 0.000, 0.000, 14:02:30.406
232, 88654.50, 104473.48, -187500.02, -187500.02, -187500.02, -187500.02, -187500.02, 187500.00, 0.000, 0.000, 0.000, 14:02:30.406
233, 94880.41, 110418.91, -187500.02, -187500.02, -187500.02, -187500.02, -187500.02, 187500.00, 0.000, 0.000, 0.000, 14:02:30.406
234, 96142.20, 109773.99, -187500.02, -187500.02, -187500.02, -187500.02, -187500.02, 187500.00, 0.352, 0.992, 0.164, 14:02:30.407
235, 89116.70, 102973.05, -187500.02, -187500.02, -187500.02, -187500.02, -187500.02, 187500.00, 0.000, 0.000, 0.000, 14:02:30.407
236, 88274.30, 103703.30, -187500.02, -187500.02, -187500.02, -187500.02, -187500.02, 187500.00, 0.000, 0.000, 0.000, 14:02:30.407
237, 93715.88, 109434.61, -187500.02, -187500.02, -187500.02, -187500.02, -187500.02, 187500.00, 0.000, 0.000, 0.000, 14:02:30.408
238, 96838.82, 110830.67, -187500.02, -187500.02, -187500.02, -187500.02, -187500.02, 187500.00, 0.000, 0.000, 0.000, 14:02:30.408
239, 89975.02, 103691.04, -187500.02, -187500.02, -187500.02, -187500.02, -187500.02, 187500.00, 0.000, 0.000, 0.000, 14:02:30.408
240, 87758.55, 103072.18, -187500.02, -187500.02, -187500.02, -187500.02, -187500.02, 187500.00, 0.000, 0.000, 0.000, 14:02:30.409
241, 92355.46, 108300.37, -187500.02, -187500.02, -187500.02, -187500.02, -187500.02, 187500.00, 0.000, 0.000, 0.000, 14:02:30.844
242, 97103.95, 111518.19, -187500.02, -187500.02, -187500.02, -187500.02, -187500.02, 187500.00, 0.000, 0.000, 0.000, 14:02:30.845
243, 91150.55, 104701.00, -187500.02, -187500.02, -187500.02, -187500.02, -187500.02, 187500.00, 0.000, 0.000, 0.000, 14:02:30.846
244, 87516.48, 102585.67, -187500.02, -187500.02, -187500.02, -187500.02, -187500.02, 187500.00, 0.350, 0.968, 0.152, 14:02:30.846
245, 91126.41, 107156.00, -187500.02, -187500.02, -187500.02, -187500.02, -187500.02, 187500.00, 0.000, 0.000, 0.000, 14:02:30.847
246, 96990.14, 111820.14, -187500.02, -187500.02, -187500.02, -187500.02, -187500.02, 187500.00, 0.000, 0.000, 0.000, 14:02:30.847
247, 92492.79, 105993.51, -187500.02, -187500.02, -187500.02, -187500.02, -187500.02, 187500.00, 0.000, 0.000, 0.000, 14:02:30.848
248, 87538.19, 102341.62, -187500.02, -187500.02, -187500.02, -187500.02, -187500.02, 187500.00, 0.000, 0.000, 0.000, 14:02:30.848
249, 90121.23, 106062.96, -187500.02, -187500.02, -187500.02, -187500.02, -187500.02, 187500.00, 0.000, 0.000, 0.000, 14:02:30.848
250, 96649.45, 111679.10, -187500.02, -187500.02, -187500.02, -187500.02, -187500.02, 187500.00, 0.000, 0.000, 0.000, 14:02:30.849
251, 94113.45, 107425.50, -187500.02, -187500.02, -187500.02, -187500.02, -187500.02, 187500.00, 0.000, 0.000, 0.000, 14:02:30.849
252, 87888.80, 102288.77, -187500.02, -187500.02, -187500.02, -187500.02, -187500.02, 187500.00, 0.000, 0.000, 0.000, 14:02:30.849
253, 89245.44, 105044.99, -187500.02, -187500.02, -187500.02, -187500.02, -187500.02, 187500.00, 0.000, 0.000, 0.000, 14:02:30.850
254, 95678.52, 111115.68, -187500.02, -187500.02, -187500.02, -187500.02, -187500.02, 187500.00, 0.342, 0.916, 0.132, 14:02:30.850
255, 95248.29, 108824.25, -187500.02, -187500.02, -187500.02, -187500.02, -187500.02, 187500.00, 0.000, 0.000, 0.000, 14:02:30.850
0, 88379.29, 102462.74, -187500.02, -187500.02, -187500.02, -187500.02, -187500.02, 187500.00, 0.000, 0.000, 0.000, 14:02:30.851
1, 88522.07, 104161.05, -187500.02, -187500.02, -187500.02, -187500.02, -187500.02, 187500.00, 0.000, 0.000, 0.000, 14:02:30.851
2, 94621.37, 110288.66, -187500.02, -187500.02, -187500.02, -187500.02, -187500.02, 187500.00, 0.000, 0.000, 0.000, 14:02:30.851
3, 96323.37, 110133.37, -187500.02, -187500.02, -187500.02, -187500.02, -187500.02, 187500.00, 0.000, 0.000, 0.000, 14:02:30.851
4, 89097.29, 102988.48, -187500.02, -187500.02, -187500.02, -187500.02, -187500.02, 187500.00, 0.000, 0.000, 0.000, 14:02:30.852
5, 87888.02, 103425.79, -187500.02, -187500.02, -187500.02, -187500.02, -187500.02, 187500.00, 0.000, 0.000, 0.000, 14:02:30.852
6, 93298.37, 109243.68, -187500.02, -187500.02, -187500.02, -187500.02, -187500.02, 187500.00, 0.000, 0.000, 0.000, 14:02:30.852
7, 96968.81, 111154.10, -187500.02, -187500.02, -187500.02, -187500.02, -187500.02, 187500.00, 0.000, 0.000, 0.000, 14:02:30.853
8, 90157.23, 103822.53, -187500.02, -187500.02, -187500.02, -187500.02, -187500.02, 187500.00, 0.354, 0.950, 0.140, 14:02:30.853
9, 87539.06, 102852.51, -187500.02, -187500.02, -187500.02, -187500.02, -187500.02, 187500.00, 0.000, 0.000, 0.000, 14:02:30.853
10, 92039.59, 108103.05, -187500.02, -187500.02, -187500.02, -187500.02, -187500.02, 187500.00, 0.000, 0.000, 0.000, 14:02:30.854
11, 97189.92, 111795.40, -187500.02, -187500.02, -187500.02, -187500.02, -187500.02, 187500.00, 0.000, 0.000, 0.000, 14:02:30.854
12, 91349.61, 104946.11, -187500.02, -187500.02, -187500.02, -187500.02, -187500.02, 187500.00, 0.000, 0.000, 0.000, 14:02:30.854
13, 87317.60, 102415.82, -187500.02, -187500.02, -187500.02, -187500.02, -187500.02, 187500.00, 0.000, 0.000, 0.000, 14:02:30.855
14, 90780.13, 106914.49, -187500.02, -187500.02, -187500.02, -187500.02, -187500.02, 187500.00, 0.000, 0.000, 0.000, 14:02:30.855
15, 96949.66, 111980.80, -187500.02, -187500.02, -187500.02, -187500.02, -187500.02, 187500.00, 0.000, 0.000, 0.000, 14:02:30.855
16, 92790.54, 106339.00, -187500.02, -187500.02, -187500.02, -187500.02, -187500.02, 187500.00, 0.000, 0.000, 0.000, 14:02:30.856
17, 87426.97, 102235.45, -187500.02, -187500.02, -187500.02, -187500.02, -187500.02, 187500.00, 0.000, 0.000, 0.000, 14:02:30.856
18, 89731.52, 105858.73, -187500.02, -187500.02, -187500.02, -187500.02, -187500.02, 187500.00, 0.352, 0.940, 0.126, 14:02:30.856
19, 96324.99, 111781.31, -187500.02, -187500.02, -187500.02, -187500.02, -187500.02, 187500.00, 0.000, 0.000, 0.000, 14:02:30.857
20, 94201.55, 107856.41, -187500.02, -187500.02, -187500.02, -187500.02, -187500.02, 187500.00, 0.000, 0.000, 0.000, 14:02:30.857
21, 87729.66, 102252.30, -187500.02, -187500.02, -187500.02, -187500.02, -187500.02, 187500.00, 0.000, 0.000, 0.000, 14:02:30.858
22, 88868.32, 104863.77, -187500.02, -187500.02, -187500.02, -187500.02, -187500.02, 187500.00, 0.000, 0.000, 0.000, 14:02:30.858
23, 95435.64, 111144.38, -187500.02, -187500.02, -187500.02, -187500.02, -187500.02, 187500.00, 0.000, 0.000, 0.000, 14:02:30.858
24, 95508.29, 109294.23, -187500.02, -187500.02, -187500.02, -187500.02, -187500.02, 187500.00, 0.000, 0.000, 0.000, 14:02:30.859
25, 88344.24, 102555.08, -187500.02, -187500.02, -187500.02, -187500.02, -187500.02, 187500.00, 0.000, 0.000, 0.000, 14:02:30.859
26, 88168.06, 103987.20, -187500.02, -187500.02, -187500.02, -187500.02, -187500.02, 187500.00, 0.000, 0.000, 0.000, 14:02:30.859
27, 94243.11, 110188.04, -187500.02, -187500.02, -187500.02, -187500.02, -187500.02, 187500.00, 0.370, 0.946, 0.122, 14:02:30.859
28, 96493.23, 110527.00, -187500.02, -187500.02, -187500.02, -187500.02, -187500.02, 187500.00, 0.000, 0.000, 0.000, 14:02:30.860
29, 89260.48, 103154.39, -187500.02, -187500.02, -187500.02, -187500.02, -187500.02, 187500.00, 0.000, 0.000, 0.000, 14:02:30.860
30, 87712.91, 103271.45, -187500.02, -187500.02, -187500.02, -187500.02, -187500.02, 187500.00, 0.000, 0.000, 0.000, 14:02:30.861
31, 93001.58, 109073.00, -187500.02, -187500.02, -187500.02, -187500.02, -187500.02, 187500.00, 0.000, 0.000, 0.000, 14:02:30.861
32, 97126.77, 111458.31, -187500.02, -187500.02, -187500.02, -187500.02, -187500.02, 187500.00, 0.000, 0.000, 0.000, 14:02:30.861
33, 90357.77, 104030.23, -187500.02, -187500.02, -187500.02, -187500.02, -187500.02, 187500.00, 0.000, 0.000, 0.000, 14:02:30.862
34, 87371.60, 102662.72, -187500.02, -187500.02, -187500.02, -187500.02, -187500.02, 187500.00, 0.000, 0.000, 0.000, 14:02:30.862
35, 91759.12, 107845.77, -187500.02, -187500.02, -187500.02, -187500.02, -187500.02, 187500.00, 0.000, 0.000, 0.000, 14:02:30.863
36, 97338.06, 111970.26, -187500.02, -187500.02, -187500.02, -187500.02, -187500.02, 187500.00, 0.000, 0.000, 0.000, 14:02:30.863
37, 91721.59, 105240.16, -187500.02, -187500.02, -187500.02, -187500.02, -187500.02, 187500.00, 0.358, 0.944, 0.144, 14:02:30.864
38, 87230.18, 102279.30, -187500.02, -187500.02, -187500.02, -187500.02, -187500.02, 187500.00, 0.000, 0.000, 0.000, 14:02:30.864
39, 90503.53, 106649.98, -187500.02, -187500.02, -187500.02, -187500.02, -187500.02, 187500.00, 0.000, 0.000, 0.000, 14:02:30.864
40, 97006.77, 112067.20, -187500.02, -187500.02, -187500.02, -187500.02, -187500.02, 187500.00, 0.000, 0.000, 0.000, 14:02:30.865
41, 93163.95, 106650.36, -187500.02, -187500.02, -187500.02, -187500.02, -187500.02, 187500.00, 0.000, 0.000, 0.000, 14:02:30.865
42, 87329.11, 102075.88, -187500.02, -187500.02, -187500.02, -187500.02, -187500.02, 187500.00, 0.000, 0.000, 0.000, 14:02:30.866
43, 89450.83, 105558.08, -187500.02, -187500.02, -187500.02, -187500.02, -187500.02, 187500.00, 0.000, 0.000, 0.000, 14:02:30.866
44, 96293.46, 111732.74, -187500.02, -187500.02, -187500.02, -187500.02, -187500.02, 187500.00, 0.000, 0.000, 0.000, 14:02:30.866
45, 94602.80, 108168.70, -187500.02, -187500.02, -187500.02, -187500.02, -187500.02, 187500.00, 0.000, 0.000, 0.000, 14:02:30.867
46, 87694.97, 102130.23, -187500.02, -187500.02, -187500.02, -187500.02, -187500.02, 187500.00, 0.000, 0.000, 0.000, 14:02:30.867
47, 88560.27, 104530.34, -187500.02, -187500.02, -187500.02, -187500.02, -187500.02, 187500.00, 0.338, 0.932, 0.146, 14:02:30.868
48, 95229.80, 110980.03, -187500.02, -187500.02, -187500.02, -187500.02, -187500.02, 187500.00, 0.000, 0.000, 0.000, 14:02:30.868
49, 95830.95, 109610.18, -187500.02, -187500.02, -187500.02, -187500.02, -187500.02, 187500.00, 0.000, 0.000, 0.000, 14:02:30.868
50, 88369.79, 102488.66, -187500.02, -187500.02, -187500.02, -187500.02, -187500.02, 187500.00, 0.000, 0.000, 0.000, 14:02:30.869
51, 87888.82, 103685.02, -187500.02, -187500.02, -187500.02, -187500.02, -187500.02, 187500.00, 0.000, 0.000, 0.000, 14:02:30.869
52, 94013.31, 109989.87, -187500.02, -187500.02, -187500.02, -187500.02, -187500.02, 187500.00, 0.000, 0.000, 0.000, 14:02:30.869
53, 96806.27, 110842.84, -187500.02, -187500.02, -187500.02, -187500.02, -187500.02, 187500.00, 0.000, 0.000, 0.000, 14:02:30.869
54, 89337.86, 103175.72, -187500.02, -187500.02, -187500.02, -187500.02, -187500.02, 187500.00, 0.000, 0.000, 0.000, 14:02:30.870
55, 87382.24, 102964.29, -187500.02, -187500.02, -187500.02, -187500.02, -187500.02, 187500.00, 0.000, 0.000, 0.000, 14:02:30.870
56, 92666.15, 108811.02, -187500.02, -187500.02, -187500.02, -187500.02, -187500.02, 187500.00, 0.000, 0.000, 0.000, 14:02:30.870
57, 97315.06, 111719.54, -187500.02, -187500.02, -187500.02, -187500.02, -187500.02, 187500.00, 0.352, 0.938, 0.144, 14:02:30.871
58, 90618.82, 104194.76, -187500.02, -187500.02, -187500.02, -187500.02, -187500.02, 187500.00, 0.000, 0.000, 0.000, 14:02:30.871
59, 87159.30, 102426.82, -187500.02, -187500.02, -187500.02, -187500.02, -187500.02, 187500.00, 0.000, 0.000, 0.000, 14:02:30.871
60, 91374.55, 107590.21, -187500.02, -187500.02, -187500.02, -187500.02, -187500.02, 187500.00, 0.000, 0.000, 0.000, 14:02:30.872
61, 97348.08, 112180.95, -187500.02, -187500.02, -187500.02, -187500.02, -187500.02, 187500.00, 0.000, 0.000, 0.000, 14:02:30.872
62, 92025.62, 105519.66, -187500.02, -187500.02, -187500.02, -187500.02, -187500.02, 187500.00, 0.000, 0.000, 0.000, 14:02:30.872
63, 87120.19, 102081.04, -187500.02, -187500.02, -187500.02, -187500.02, -187500.02, 187500.00, 0.000, 0.000, 0.000, 14:02:30.873
64, 90190.59, 106361.53, -187500.02, -187500.02, -187500.02, -187500.02, -187500.02, 187500.00, 0.000, 0.000, 0.000, 14:02:30.873
65, 96949.68, 112151.69, -187500.02, -187500.02, -187500.02, -187500.02, -187500.02, 187500.00, 0.000, 0.000, 0.000, 14:02:30.874
66, 93538.72, 106995.77, -187500.02, -187500.02, -187500.02, -187500.02, -187500.02, 187500.00, 0.000, 0.000, 0.000, 14:02:30.874
67, 87309.91, 101913.16, -187500.02, -187500.02, -187500.02, -187500.02, -187500.02, 187500.00, 0.358, 0.950, 0.150, 14:02:30.874
68, 89172.20, 105231.54, -187500.02, -187500.02, -187500.02, -187500.02, -187500.02, 187500.00, 0.000, 0.000, 0.000, 14:02:30.875
69, 96140.28, 111691.84, -187500.02, -187500.02, -187500.02, -187500.02, -187500.02, 187500.00, 0.000, 0.000, 0.000, 14:02:30.875
70, 94964.42, 108563.91, -187500.02, -187500.02, -187500.02, -187500.02, -187500.02, 187500.00, 0.000, 0.000, 0.000, 14:02:30.875
71, 87791.57, 102081.87, -187500.02, -187500.02, -187500.02, -187500.02, -187500.02, 187500.00, 0.000, 0.000, 0.000, 14:02:30.876
72, 88341.27, 104250.68, -187500.02, -187500.02, -187500.02, -187500.02, -187500.02, 187500.00, 0.000, 0.000, 0.000, 14:02:30.876
73, 94993.59, 110833.94, -187500.02, -187500.02, -187500.02, -187500.02, -187500.02, 187500.00, 0.000, 0.000, 0.000, 14:02:30.876
74, 96175.04, 109963.12, -187500.02, -187500.02, -187500.02, -187500.02, -187500.02, 187500.00, 0.000, 0.000, 0.000, 14:02:30.876
75, 88583.65, 102506.86, -187500.02, -187500.02, -187500.02, -187500.02, -187500.02, 187500.00, 0.000, 0.000, 0.000, 14:02:30.877
76, 87766.87, 103397.58, -187500.02, -187500.02, -187500.02, -187500.02, -187500.02, 187500.00, 0.000, 0.000, 0.000, 14:02:30.877
77, 93784.88, 109742.21, -187500.02, -187500.02, -187500.02, -187500.02, -187500.02, 187500.00, 0.368, 0.956, 0.150, 14:02:30.877
78, 97087.16, 111125.98, -187500.02, -187500.02, -187500.02, -187500.02, -187500.02, 187500.00, 0.000, 0.000, 0.000, 14:02:30.878
79, 89633.27, 103255.42, -187500.02, -187500.02, -187500.02, -187500.02, -187500.02, 187500.00, 0.000, 0.000, 0.000, 14:02:30.878
80, 87297.38, 102674.99, -187500.02, -187500.02, -187500.02, -187500.02, -187500.02, 187500.00, 0.000, 0.000, 0.000, 14:02:30.878
81, 92408.63, 108494.91, -187500.02, -187500.02, -187500.02, -187500.02, -187500.02, 187500.00, 0.000, 0.000, 0.000, 14:02:30.879
82, 97492.27, 111934.27, -187500.02, -187500.02, -187500.02, -187500.02, -187500.02, 187500.00, 0.000, 0.000, 0.000, 14:02:30.879
83, 90975.89, 104391.74, -187500.02, -187500.02, -187500.02, -187500.02, -187500.02, 187500.00, 0.000, 0.000, 0.000, 14:02:30.880
84, 87123.05, 102184.21, -187500.02, -187500.02, -187500.02, -187500.02, -187500.02, 187500.00, 0.000, 0.000, 0.000, 14:02:30.880
85, 91107.90, 107246.37, -187500.02, -187500.02, -187500.02, -187500.02, -187500.02, 187500.00, 0.000, 0.000, 0.000, 14:02:30.880
86, 97396.29, 112304.26, -187500.02, -187500.02, -187500.02, -187500.02, -187500.02, 187500.00, 0.368, 0.938, 0.138, 14:02:30.881
87, 92440.06, 105812.84, -187500.02, -187500.02, -187500.02, -187500.02, -187500.02, 187500.00, 0.000, 0.000, 0.000, 14:02:30.881
88, 87138.05, 101897.04, -187500.02, -187500.02, -187500.02, -187500.02, -187500.02, 187500.00, 0.000, 0.000, 0.000, 14:02:30.882
89, 89993.33, 106060.45, -187500.02, -187500.02, -187500.02, -187500.02, -187500.02, 187500.00, 0.000, 0.000, 0.000, 14:02:30.882
90, 96937.16, 112187.85, -187500.02, -187500.02, -187500.02, -187500.02, -187500.02, 187500.00, 0.000, 0.000, 0.000, 14:02:30.883
91, 93977.44, 107385.22, -187500.02, -187500.02, -187500.02, -187500.02, -187500.02, 187500.00, 0.000, 0.000, 0.000, 14:02:30.883
92, 87380.84, 101813.31, -187500.02, -187500.02, -187500.02, -187500.02, -187500.02, 187500.00, 0.000, 0.000, 0.000, 14:02:30.883
93, 88970.65, 104972.84, -187500.02, -187500.02, -187500.02, -187500.02, -187500.02, 187500.00, 0.000, 0.000, 0.000, 14:02:30.884
94, 96003.11, 111663.12, -187500.02, -187500.02, -187500.02, -187500.02, -187500.02, 187500.00, 0.000, 0.000, 0.000, 14:02:30.884
95, 95361.63, 108970.36, -187500.02, -187500.02, -187500.02, -187500.02, -187500.02, 187500.00, 0.000, 0.000, 0.000, 14:02:30.884
96, 87929.21, 102034.84, -187500.02, -187500.02, -187500.02, -187500.02, -187500.02, 187500.00, 0.372, 0.938, 0.132, 14:02:30.885
97, 88180.34, 104002.40, -187500.02, -187500.02, -187500.02, -187500.02, -187500.02, 187500.00, 0.000, 0.000, 0.000, 14:02:30.885
98, 94851.44, 110764.27, -187500.02, -187500.02, -187500.02, -187500.02, -187500.02, 187500.00, 0.000, 0.000, 0.000, 14:02:30.886
99, 96551.40, 110412.43, -187500.02, -187500.02, -187500.02, -187500.02, -187500.02, 187500.00, 0.000, 0.000, 0.000, 14:02:30.886
100, 88747.58, 102595.42, -187500.02, -187500.02, -187500.02, -187500.02, -187500.02, 187500.00, 0.000, 0.000, 0.000, 14:02:30.886
101, 87537.77, 103165.57, -187500.02, -187500.02, -187500.02, -187500.02, -187500.02, 187500.00, 0.000, 0.000, 0.000, 14:02:30.887
102, 93458.98, 109565.88, -187500.02, -187500.02, -187500.02, -187500.02, -187500.02, 187500.00, 0.000, 0.000, 0.000, 14:02:30.887
103, 97268.24, 111515.94, -187500.02, -187500.02, -187500.02, -187500.02, -187500.02, 187500.00, 0.000, 0.000, 0.000, 14:02:30.887
104, 89902.29, 103513.34, -187500.02, -187500.02, -187500.02, -187500.02, -187500.02, 187500.00, 0.000, 0.000, 0.000, 14:02:30.888
105, 87182.10, 102544.95, -187500.02, -187500.02, -187500.02, -187500.02, -187500.02, 187500.00, 0.000, 0.000, 0.000, 14:02:31.321
106, 92116.68, 108329.85, -187500.02, -187500.02, -187500.02, -187500.02, -187500.02, 187500.00, 0.374, 0.930, 0.130, 14:02:31.321
107, 97595.24, 112253.59, -187500.02, -187500.02, -187500.02, -187500.02, -187500.02, 187500.00, 0.000, 0.000, 0.000, 14:02:31.321
108, 91311.77, 104754.66, -187500.02, -187500.02, -187500.02, -187500.02, -187500.02, 187500.00, 0.000, 0.000, 0.000, 14:02:31.322
109, 87045.40, 102087.68, -187500.02, -187500.02, -187500.02, -187500.02, -187500.02, 187500.00, 0.000, 0.000, 0.000, 14:02:31.322
110, 90828.84, 107038.77, -187500.02, -187500.02, -187500.02, -187500.02, -187500.02, 187500.00, 0.000, 0.000, 0.000, 14:02:31.322
111, 97409.30, 112481.71, -187500.02, -187500.02, -187500.02, -187500.02, -187500.02, 187500.00, 0.000, 0.000, 0.000, 14:02:31.323
112, 92804.62, 106205.72, -187500.02, -187500.02, -187500.02, -187500.02, -187500.02, 187500.00, 0.000, 0.000, 0.000, 14:02:31.323
113, 87089.52, 101793.04, -187500.02, -187500.02, -187500.02, -187500.02, -187500.02, 187500.00, 0.000, 0.000, 0.000, 14:02:31.323
114, 89687.98, 105787.72, -187500.02, -187500.02, -187500.02, -187500.02, -187500.02, 187500.00, 0.000, 0.000, 0.000, 14:02:31.324
115, 96801.73, 112189.91, -187500.02, -187500.02, -187500.02, -187500.02, -187500.02, 187500.00, 0.000, 0.000, 0.000, 14:02:31.324
116, 94312.94, 107764.57, -187500.02, -187500.02, -187500.02, -187500.02, -187500.02, 187500.00, 0.378, 0.932, 0.132, 14:02:31.324
117, 87381.05, 101750.39, -187500.02, -187500.02, -187500.02, -187500.02, -187500.02, 187500.00, 0.000, 0.000, 0.000, 14:02:31.324
118, 88707.56, 104678.00, -187500.02, -187500.02, -187500.02, -187500.02, -187500.02, 187500.00, 0.000, 0.000, 0.000, 14:02:31.325
119, 95781.34, 111512.76, -187500.02, -187500.02, -187500.02, -187500.02, -187500.02, 187500.00, 0.000, 0.000, 0.000, 14:02:31.325
120, 95701.29, 109330.27, -187500.02, -187500.02, -187500.02, -187500.02, -187500.02, 187500.00, 0.000, 0.000, 0.000, 14:02:31.325
121, 88021.08, 102026.91, -187500.02, -187500.02, -187500.02, -187500.02, -187500.02, 187500.00, 0.000, 0.000, 0.000, 14:02:31.326
122, 87918.44, 103698.32, -187500.02, -187500.02, -187500.02, -187500.02, -187500.02, 187500.00, 0.000, 0.000, 0.000, 14:02:31.326
123, 94512.23, 110513.19, -187500.02, -187500.02, -187500.02, -187500.02, -187500.02, 187500.00, 0.000, 0.000, 0.000, 14:02:31.326
124, 96780.39, 110740.26, -187500.02, -187500.02, -187500.02, -187500.02, -187500.02, 187500.00, 0.000, 0.000, 0.000, 14:02:31.327
125, 88971.07, 102687.89, -187500.02, -187500.02, -187500.02, -187500.02, -187500.02, 187500.00, 0.000, 0.000, 0.000, 14:02:31.327
126, 87385.77, 102915.16, -187500.02, -187500.02, -187500.02, -187500.02, -187500.02, 187500.00, 0.378, 0.934, 0.134, 14:02:31.327
127, 93139.67, 109301.26, -187500.02, -187500.02, -187500.02, -187500.02, -187500.02, 187500.00, 0.000, 0.000, 0.000, 14:02:31.328
128, 97463.46, 111801.68, -187500.02, -187500.02, -187500.02, -187500.02, -187500.02, 187500.00, 0.000, 0.000, 0.000, 14:02:31.328
129, 90205.94, 103700.94, -187500.02, -187500.02, -187500.02, -187500.02, -187500.02, 187500.00, 0.000, 0.000, 0.000, 14:02:31.328
130, 87068.29, 102308.47, -187500.02, -187500.02, -187500.02, -187500.02, -187500.02, 187500.00, 0.000, 0.000, 0.000, 14:02:31.329
131, 91805.97, 108012.99, -187500.02, -187500.02, -187500.02, -187500.02, -187500.02, 187500.00, 0.000, 0.000, 0.000, 14:02:31.329
132, 97704.01, 112426.08, -187500.02, -187500.02, -187500.02, -187500.02, -187500.02, 187500.00, 0.000, 0.000, 0.000, 14:02:31.329
133, 91648.43, 104983.84, -187500.02, -187500.02, -187500.02, -187500.02, -187500.02, 187500.00, 0.000, 0.000, 0.000, 14:02:31.330
134, 86951.14, 101847.48, -187500.02, -187500.02, -187500.02, -187500.02, -187500.02, 187500.00, 0.000, 0.000, 0.000, 14:02:31.330
135, 90523.35, 106711.18, -187500.02, -187500.02, -187500.02, -187500.02, -187500.02, 187500.00, 0.000, 0.000, 0.000, 14:02:31.330
136, 97396.56, 112578.58, -187500.02, -187500.02, -187500.02, -187500.02, -187500.02, 187500.00, 0.380, 0.934, 0.144, 14:02:31.331
137, 93193.00, 106525.51, -187500.02, -187500.02, -187500.02, -187500.02, -187500.02, 187500.00, 0.000, 0.000, 0.000, 14:02:31.331
138, 87068.06, 101622.70, -187500.02, -187500.02, -187500.02, -187500.02, -187500.02, 187500.00, 0.000, 0.000, 0.000, 14:02:31.331
139, 89420.81, 105504.25, -187500.02, -187500.02, -187500.02, -187500.02, -187500.02, 187500.00, 0.000, 0.000, 0.000, 14:02:31.332
140, 96713.45, 112250.30, -187500.02, -187500.02, -187500.02, -187500.02, -187500.02, 187500.00, 0.000, 0.000, 0.000, 14:02:31.332
141, 94732.12, 108182.84, -187500.02, -187500.02, -187500.02, -187500.02, -187500.02, 187500.00, 0.000, 0.000, 0.000, 14:02:31.333
142, 87438.48, 101653.36, -187500.02, -187500.02, -187500.02, -187500.02, -187500.02, 187500.00, 0.000, 0.000, 0.000, 14:02:31.333
143, 88454.43, 104404.70, -187500.02, -187500.02, -187500.02, -187500.02, -187500.02, 187500.00, 0.000, 0.000, 0.000, 14:02:31.333
144, 95572.46, 111494.66, -187500.02, -187500.02, -187500.02, -187500.02, -187500.02, 187500.00, 0.000, 0.000, 0.000, 14:02:31.334
145, 96079.33, 109838.08, -187500.02, -187500.02, -187500.02, -187500.02, -187500.02, 187500.00, 0.000, 0.000, 0.000, 14:02:31.334
146, 88211.89, 102081.20, -187500.02, -187500.02, -187500.02, -187500.02, -187500.02, 187500.00, 0.382, 0.942, 0.140, 14:02:31.334
147, 87760.08, 103480.99, -187500.02, -187500.02, -187500.02, -187500.02, -187500.02, 187500.00, 0.000, 0.000, 0.000, 14:02:31.335
148, 94294.95, 110434.94, -187500.02, -187500.02, -187500.02, -187500.02, -187500.02, 187500.00, 0.000, 0.000, 0.000, 14:02:31.335
149, 97088.84, 111206.25, -187500.02, -187500.02, -187500.02, -187500.02, -187500.02, 187500.00, 0.000, 0.000, 0.000, 14:02:31.335
150, 89219.45, 102831.74, -187500.02, -187500.02, -187500.02, -187500.02, -187500.02, 187500.00, 0.000, 0.000, 0.000, 14:02:31.336
151, 87281.34, 102713.70, -187500.02, -187500.02, -187500.02, -187500.02, -187500.02, 187500.00, 0.000, 0.000, 0.000, 14:02:31.336
152, 92952.14, 109192.27, -187500.02, -187500.02, -187500.02, -187500.02, -187500.02, 187500.00, 0.000, 0.000, 0.000, 14:02:31.337
153, 97719.72, 112249.70, -187500.02, -187500.02, -187500.02, -187500.02, -187500.02, 187500.00, 0.000, 0.000, 0.000, 14:02:31.337
154, 90539.83, 103949.40, -187500.02, -187500.02, -187500.02, -187500.02, -187500.02, 187500.00, 0.000, 0.000, 0.000, 14:02:31.337
155, 86946.52, 102093.00, -187500.02, -187500.02, -187500.02, -187500.02, -187500.02, 187500.00, 0.388, 0.936, 0.142, 14:02:31.338
156, 91510.68, 107824.19, -187500.02, -187500.02, -187500.02, -187500.02, -187500.02, 187500.00, 0.000, 0.000, 0.000, 14:02:31.338
157, 97805.17, 112804.98, -187500.02, -187500.02, -187500.02, -187500.02, -187500.02, 187500.00, 0.000, 0.000, 0.000, 14:02:31.338
158, 92078.73, 105379.22, -187500.02, -187500.02, -187500.02, -187500.02, -187500.02, 187500.00, 0.000, 0.000, 0.000, 14:02:31.339
159, 86927.97, 101676.72, -187500.02, -187500.02, -187500.02, -187500.02, -187500.02, 187500.00, 0.000, 0.000, 0.000, 14:02:31.339
160, 90300.66, 106503.00, -187500.02, -187500.02, -187500.02, -187500.02, -187500.02, 187500.00, 0.000, 0.000, 0.000, 14:02:31.339
161, 97489.14, 112857.15, -187500.02, -187500.02, -187500.02, -187500.02, -187500.02, 187500.00, 0.000, 0.000, 0.000, 14:02:31.339
162, 93692.50, 107013.29, -187500.02, -187500.02, -187500.02, -187500.02, -187500.02, 187500.00, 0.000, 0.000, 0.000, 14:02:31.340
163, 87091.52, 101470.97, -187500.02, -187500.02, -187500.02, -187500.02, -187500.02, 187500.00, 0.000, 0.000, 0.000, 14:02:31.340
164, 89146.22, 105225.59, -187500.02, -187500.02, -187500.02, -187500.02, -187500.02, 187500.00, 0.000, 0.000, 0.000, 14:02:31.341
165, 96579.27, 112377.46, -187500.02, -187500.02, -187500.02, -187500.02, -187500.02, 187500.00, 0.388, 0.938, 0.144, 14:02:31.341
166, 95196.48, 108728.29, -187500.02, -187500.02, -187500.02, -187500.02, -187500.02, 187500.00, 0.000, 0.000, 0.000, 14:02:31.341
167, 87557.39, 101583.60, -187500.02, -187500.02, -187500.02, -187500.02, -187500.02, 187500.00, 0.000, 0.000, 0.000, 14:02:31.342
168, 88250.48, 104127.37, -187500.02, -187500.02, -187500.02, -187500.02, -187500.02, 187500.00, 0.000, 0.000, 0.000, 14:02:31.342
169, 95468.08, 111540.27, -187500.02, -187500.02, -187500.02, -187500.02, -187500.02, 187500.00, 0.000, 0.000, 0.000, 14:02:31.342
170, 96543.75, 110403.04, -187500.02, -187500.02, -187500.02, -187500.02, -187500.02, 187500.00, 0.000, 0.000, 0.000, 14:02:31.342
171, 88355.88, 102054.24, -187500.02, -187500.02, -187500.02, -187500.02, -187500.02, 187500.00, 0.000, 0.000, 0.000, 14:02:31.343
172, 87546.02, 103150.46, -187500.02, -187500.02, -187500.02, -187500.02, -187500.02, 187500.00, 0.000, 0.000, 0.000, 14:02:31.343
173, 94107.08, 110356.95, -187500.02, -187500.02, -187500.02, -187500.02, -187500.02, 187500.00, 0.000, 0.000, 0.000, 14:02:31.343
174, 97481.97, 111766.20, -187500.02, -187500.02, -187500.02, -187500.02, -187500.02, 187500.00, 0.000, 0.000, 0.000, 14:02:31.344
175, 89443.95, 102907.14, -187500.02, -187500.02, -187500.02, -187500.02, -187500.02, 187500.00, 0.390, 0.940, 0.146, 14:02:31.344
176, 87028.77, 102346.24, -187500.02, -187500.02, -187500.02, -187500.02, -187500.02, 187500.00, 0.000, 0.000, 0.000, 14:02:31.344
177, 92622.77, 108982.52, -187500.02, -187500.02, -187500.02, -187500.02, -187500.02, 187500.00, 0.000, 0.000, 0.000, 14:02:31.345
178, 97994.96, 112715.38, -187500.02, -187500.02, -187500.02, -187500.02, -187500.02, 187500.00, 0.000, 0.000, 0.000, 14:02:31.345
179, 90854.97, 104102.17, -187500.02, -187500.02, -187500.02, -187500.02, -187500.02, 187500.00, 0.000, 0.000, 0.000, 14:02:31.345
180, 86743.25, 101681.75, -187500.02, -187500.02, -187500.02, -187500.02, -187500.02, 187500.00, 0.000, 0.000, 0.000, 14:02:31.345
181, 91197.39, 107523.80, -187500.02, -187500.02, -187500.02, -187500.02, -187500.02, 187500.00, 0.000, 0.000, 0.000, 14:02:31.346
182, 98005.55, 113163.57, -187500.02, -187500.02, -187500.02, -187500.02, -187500.02, 187500.00, 0.000, 0.000, 0.000, 14:02:31.362
183, 92420.41, 105617.30, -187500.02, -187500.02, -187500.02, -187500.02, -187500.02, 187500.00, 0.000, 0.000, 0.000, 14:02:31.362
184, 86666.05, 101230.73, -187500.02, -187500.02, -187500.02, -187500.02, -187500.02, 187500.00, 0.000, 0.000, 0.000, 14:02:31.362
185, 89859.40, 106092.84, -187500.02, -187500.02, -187500.02, -187500.02, -187500.02, 187500.00, 0.392, 0.938, 0.152, 14:02:31.363
186, 97458.54, 113087.09, -187500.02, -187500.02, -187500.02, -187500.02, -187500.02, 187500.00, 0.000, 0.000, 0.000, 14:02:31.363
187, 94068.63, 107388.08, -187500.02, -187500.02, -187500.02, -187500.02, -187500.02, 187500.00, 0.000, 0.000, 0.000, 14:02:31.363
188, 86901.43, 101060.23, -187500.02, -187500.02, -187500.02, -187500.02, -187500.02, 187500.00, 0.000, 0.000, 0.000, 14:02:31.363
189, 88766.95, 104780.46, -187500.02, -187500.02, -187500.02, -187500.02, -187500.02, 187500.00, 0.000, 0.000, 0.000, 14:02:31.363
190, 96547.98, 112508.59, -187500.02, -187500.02, -187500.02, -187500.02, -187500.02, 187500.00, 0.000, 0.000, 0.000, 14:02:31.364
191, 95689.40, 109233.44, -187500.02, -187500.02, -187500.02, -187500.02, -187500.02, 187500.00, 0.000, 0.000, 0.000, 14:02:31.364
192, 87475.27, 101256.59, -187500.02, -187500.02, -187500.02, -187500.02, -187500.02, 187500.00, 0.000, 0.000, 0.000, 14:02:31.364
193, 87856.13, 103625.30, -187500.02, -187500.02, -187500.02, -187500.02, -187500.02, 187500.00, 0.000, 0.000, 0.000, 14:02:31.364
194, 95317.73, 111518.34, -187500.02, -187500.02, -187500.02, -187500.02, -187500.02, 187500.00, 0.000, 0.000, 0.000, 14:02:31.365
195, 97050.94, 110945.95, -187500.02, -187500.02, -187500.02, -187500.02, -187500.02, 187500.00, 0.396, 0.934, 0.140, 14:02:31.365
196, 88433.84, 101847.46, -187500.02, -187500.02, -187500.02, -187500.02, -187500.02, 187500.00, 0.000, 0.000, 0.000, 14:02:31.365
197, 87184.38, 102629.87, -187500.02, -187500.02, -187500.02, -187500.02, -187500.02, 187500.00, 0.000, 0.000, 0.000, 14:02:31.366
198, 93891.59, 110218.33, -187500.02, -187500.02, -187500.02, -187500.02, -187500.02, 187500.00, 0.000, 0.000, 0.000, 14:02:31.366
199, 98039.11, 112336.09, -187500.02, -187500.02, -187500.02, -187500.02, -187500.02, 187500.00, 0.000, 0.000, 0.000, 14:02:31.366
200, 89711.96, 102852.06, -187500.02, -187500.02, -187500.02, -187500.02, -187500.02, 187500.00, 0.000, 0.000, 0.000, 14:02:31.366
201, 86708.59, 101783.85, -187500.02, -187500.02, -187500.02, -187500.02, -187500.02, 187500.00, 0.000, 0.000, 0.000, 14:02:31.366
202, 92388.56, 108728.02, -187500.02, -187500.02, -187500.02, -187500.02, -187500.02, 187500.00, 0.000, 0.000, 0.000, 14:02:31.367
203, 98538.58, 113275.89, -187500.02, -187500.02, -187500.02, -187500.02, -187500.02, 187500.00, 0.000, 0.000, 0.000, 14:02:31.367
204, 91281.64, 104267.66, -187500.02, -187500.02, -187500.02, -187500.02, -187500.02, 187500.00, 0.000, 0.000, 0.000, 14:02:31.367
205, 86458.18, 101177.83, -187500.02, -187500.02, -187500.02, -187500.02, -187500.02, 187500.00, 0.402, 0.928, 0.134, 14:02:31.367
206, 90919.25, 107207.59, -187500.02, -187500.02, -187500.02, -187500.02, -187500.02, 187500.00, 0.000, 0.000, 0.000, 14:02:31.367
207, 98420.94, 113626.77, -187500.02, -187500.02, -187500.02, -187500.02, -187500.02, 187500.00, 0.000, 0.000, 0.000, 14:02:31.368
208, 93016.18, 106002.05, -187500.02, -187500.02, -187500.02, -187500.02, -187500.02, 187500.00, 0.000, 0.000, 0.000, 14:02:31.368
209, 86503.17, 100810.16, -187500.02, -187500.02, -187500.02, -187500.02, -187500.02, 187500.00, 0.000, 0.000, 0.000, 14:02:31.368
210, 89578.32, 105721.42, -187500.02, -187500.02, -187500.02, -187500.02, -187500.02, 187500.00, 0.000, 0.000, 0.000, 14:02:31.368
211, 97793.39, 113417.40, -187500.02, -187500.02, -187500.02, -187500.02, -187500.02, 187500.00, 0.000, 0.000, 0.000, 14:02:31.368
212, 94816.52, 107944.52, -187500.02, -187500.02, -187500.02, -187500.02, -187500.02, 187500.00, 0.000, 0.000, 0.000, 14:02:31.369
213, 86852.22, 100779.79, -187500.02, -187500.02, -187500.02, -187500.02, -187500.02, 187500.00, 0.000, 0.000, 0.000, 14:02:31.369
214, 88439.88, 104389.21, -187500.02, -187500.02, -187500.02, -187500.02, -187500.02, 187500.00, 0.000, 0.000, 0.000, 14:02:31.369
215, 96702.98, 112657.48, -187500.02, -187500.02, -187500.02, -187500.02, -187500.02, 187500.00, 0.414, 0.918, 0.134, 14:02:31.369
216, 96469.52, 109856.63, -187500.02, -187500.02, -187500.02, -187500.02, -187500.02, 187500.00, 0.000, 0.000, 0.000, 14:02:31.369
217, 87571.05, 101088.13, -187500.02, -187500.02, -187500.02, -187500.02, -187500.02, 187500.00, 0.000, 0.000, 0.000, 14:02:31.370
218, 87531.20, 103197.87, -187500.02, -187500.02, -187500.02, -187500.02, -187500.02, 187500.00, 0.000, 0.000, 0.000, 14:02:31.370
219, 95294.16, 111479.12, -187500.02, -187500.02, -187500.02, -187500.02, -187500.02, 187500.00, 0.000, 0.000, 0.000, 14:02:31.370
220, 97781.75, 111556.91, -187500.02, -187500.02, -187500.02, -187500.02, -187500.02, 187500.00, 0.000, 0.000, 0.000, 14:02:31.370
221, 88635.03, 101829.94, -187500.02, -187500.02, -187500.02, -187500.02, -187500.02, 187500.00, 0.000, 0.000, 0.000, 14:02:31.370
222, 86841.13, 102200.91, -187500.02, -187500.02, -187500.02, -187500.02, -187500.02, 187500.00, 0.000, 0.000, 0.000, 14:02:31.370
223, 93689.95, 110023.46, -187500.02, -187500.02, -187500.02, -187500.02, -187500.02, 187500.00, 0.000, 0.000, 0.000, 14:02:31.371
224, 98581.20, 112869.04, -187500.02, -187500.02, -187500.02, -187500.02, -187500.02, 187500.00, 0.426, 0.918, 0.142, 14:02:31.371
225, 90016.06, 103011.77, -187500.02, -187500.02, -187500.02, -187500.02, -187500.02, 187500.00, 0.000, 0.000, 0.000, 14:02:31.807
226, 86395.68, 101418.38, -187500.02, -187500.02, -187500.02, -187500.02, -187500.02, 187500.00, 0.000, 0.000, 0.000, 14:02:31.808
227, 92072.58, 108448.34, -187500.02, -187500.02, -187500.02, -187500.02, -187500.02, 187500.00, 0.000, 0.000, 0.000, 14:02:31.808
228, 98884.13, 113693.15, -187500.02, -187500.02, -187500.02, -187500.02, -187500.02, 187500.00, 0.000, 0.000, 0.000, 14:02:31.809
229, 91699.59, 104594.29, -187500.02, -187500.02, -187500.02, -187500.02, -187500.02, 187500.00, 0.000, 0.000, 0.000, 14:02:31.809
230, 86255.20, 100883.77, -187500.02, -187500.02, -187500.02, -187500.02, -187500.02, 187500.00, 0.000, 0.000, 0.000, 14:02:31.810
231, 90564.44, 106880.09, -187500.02, -187500.02, -187500.02, -187500.02, -187500.02, 187500.00, 0.000, 0.000, 0.000, 14:02:31.810
232, 98576.66, 113876.91, -187500.02, -187500.02, -187500.02, -187500.02, -187500.02, 187500.00, 0.000, 0.000, 0.000, 14:02:31.810
233, 93526.53, 106460.70, -187500.02, -187500.02, -187500.02, -187500.02, -187500.02, 187500.00, 0.000, 0.000, 0.000, 14:02:31.811
234, 86396.66, 100603.70, -187500.02, -187500.02, -187500.02, -187500.02, -187500.02, 187500.00, 0.426, 0.916, 0.148, 14:02:31.811
235, 89219.65, 105375.48, -187500.02, -187500.02, -187500.02, -187500.02, -187500.02, 187500.00, 0.000, 0.000, 0.000, 14:02:31.812
236, 97740.29, 113503.14, -187500.02, -187500.02, -187500.02, -187500.02, -187500.02, 187500.00, 0.000, 0.000, 0.000, 14:02:31.812
237, 95303.27, 108462.93, -187500.02, -187500.02, -187500.02, -187500.02, -187500.02, 187500.00, 0.000, 0.000, 0.000, 14:02:31.812
238, 86834.98, 100635.13, -187500.02, -187500.02, -187500.02, -187500.02, -187500.02, 187500.00, 0.000, 0.000, 0.000, 14:02:31.813
239, 88111.65, 104024.77, -187500.02, -187500.02, -187500.02, -187500.02, -187500.02, 187500.00, 0.000, 0.000, 0.000, 14:02:31.813
240, 96491.20, 112583.16, -187500.02, -187500.02, -187500.02, -187500.02, -187500.02, 187500.00, 0.000, 0.000, 0.000, 14:02:31.814
241, 96883.21, 110375.62, -187500.02, -187500.02, -187500.02, -187500.02, -187500.02, 187500.00, 0.000, 0.000, 0.000, 14:02:31.814
242, 87683.30, 101081.24, -187500.02, -187500.02, -187500.02, -187500.02, -187500.02, 187500.00, 0.000, 0.000, 0.000, 14:02:31.815
243, 87260.49, 102856.71, -187500.02, -187500.02, -187500.02, -187500.02, -187500.02, 187500.00, 0.000, 0.000, 0.000, 14:02:31.816
244, 94972.31, 111290.52, -187500.02, -187500.02, -187500.02, -187500.02, -187500.02, 187500.00, 0.418, 0.918, 0.150, 14:02:31.816
245, 98090.16, 112058.37, -187500.02, -187500.02, -187500.02, -187500.02, -187500.02, 187500.00, 0.000, 0.000, 0.000, 14:02:31.817
246, 88868.21, 101983.43, -187500.02, -187500.02, -187500.02, -187500.02, -187500.02, 187500.00, 0.000, 0.000, 0.000, 14:02:31.817
247, 86641.69, 101923.15, -187500.02, -187500.02, -187500.02, -187500.02, -187500.02, 187500.00, 0.000, 0.000, 0.000, 14:02:31.818
248, 93315.94, 109768.61, -187500.02, -187500.02, -187500.02, -187500.02, -187500.02, 187500.00, 0.000, 0.000, 0.000, 14:02:31.818
249, 98737.35, 113272.20, -187500.02, -187500.02, -187500.02, -187500.02, -187500.02, 187500.00, 0.000, 0.000, 0.000, 14:02:31.818
250, 90376.23, 103309.16, -187500.02, -187500.02, -187500.02, -187500.02, -187500.02, 187500.00, 0.000, 0.000, 0.000, 14:02:31.819
251, 86320.27, 101191.62, -187500.02, -187500.02, -187500.02, -187500.02, -187500.02, 187500.00, 0.000, 0.000, 0.000, 14:02:31.819
252, 91703.52, 108112.08, -187500.02, -187500.02, -187500.02, -187500.02, -187500.02, 187500.00, 0.000, 0.000, 0.000, 14:02:31.820
253, 98855.26, 113900.09, -187500.02, -187500.02, -187500.02, -187500.02, -187500.02, 187500.00, 0.000, 0.000, 0.000, 14:02:31.820
254, 92109.48, 104971.59, -187500.02, -187500.02, -187500.02, -187500.02, -187500.02, 187500.00, 0.418, 0.918, 0.150, 14:02:31.820
255, 86249.03, 100687.70, -187500.02, -187500.02, -187500.02, -187500.02, -187500.02, 187500.00, 0.000, 0.000, 0.000, 14:02:31.821
0, 90234.19, 106514.71, -187500.02, -187500.02, -187500.02, -187500.02, -187500.02, 187500.00, 0.000, 0.000, 0.000, 14:02:31.821
1, 98441.17, 113956.37, -187500.02, -187500.02, -187500.02, -187500.02, -187500.02, 187500.00, 0.000, 0.000, 0.000, 14:02:31.822
2, 93956.18, 106946.19, -187500.02, -187500.02, -187500.02, -187500.02, -187500.02, 187500.00, 0.000, 0.000, 0.000, 14:02:31.822
3, 86497.47, 100538.99, -187500.02, -187500.02, -187500.02, -187500.02, -187500.02, 187500.00, 0.000, 0.000, 0.000, 14:02:31.822
4, 88978.96, 105052.66, -187500.02, -187500.02, -187500.02, -187500.02, -187500.02, 187500.00, 0.000, 0.000, 0.000, 14:02:31.823
5, 97499.38, 113397.34, -187500.02, -187500.02, -187500.02, -187500.02, -187500.02, 187500.00, 0.000, 0.000, 0.000, 14:02:31.823
6, 95715.48, 108954.87, -187500.02, -187500.02, -187500.02, -187500.02, -187500.02, 187500.00, 0.000, 0.000, 0.000, 14:02:31.823
7, 87056.82, 100685.20, -187500.02, -187500.02, -187500.02, -187500.02, -187500.02, 187500.00, 0.000, 0.000, 0.000, 14:02:31.824
8, 87951.27, 103739.54, -187500.02, -187500.02, -187500.02, -187500.02, -187500.02, 187500.00, 0.416, 0.916, 0.160, 14:02:31.824
9, 96177.79, 112368.43, -187500.02, -187500.02, -187500.02, -187500.02, -187500.02, 187500.00, 0.000, 0.000, 0.000, 14:02:31.824
10, 97235.09, 110852.78, -187500.02, -187500.02, -187500.02, -187500.02, -187500.02, 187500.00, 0.000, 0.000, 0.000, 14:02:31.825
11, 88021.44, 101274.99, -187500.02, -187500.02, -187500.02, -187500.02, -187500.02, 187500.00, 0.000, 0.000, 0.000, 14:02:31.825
12, 87177.08, 102640.80, -187500.02, -187500.02, -187500.02, -187500.02, -187500.02, 187500.00, 0.000, 0.000, 0.000, 14:02:31.825
13, 94646.02, 110985.64, -187500.02, -187500.02, -187500.02, -187500.02, -187500.02, 187500.00, 0.000, 0.000, 0.000, 14:02:31.825
14, 98322.66, 112406.94, -187500.02, -187500.02, -187500.02, -187500.02, -187500.02, 187500.00, 0.000, 0.000, 0.000, 14:02:31.826
15, 89264.17, 102254.27, -187500.02, -187500.02, -187500.02, -187500.02, -187500.02, 187500.00, 0.000, 0.000, 0.000, 14:02:31.826
16, 86648.26, 101739.20, -187500.02, -187500.02, -187500.02, -187500.02, -187500.02, 187500.00, 0.000, 0.000, 0.000, 14:02:31.826
17, 93018.48, 109397.73, -187500.02, -187500.02, -187500.02, -187500.02, -187500.02, 187500.00, 0.000, 0.000, 0.000, 14:02:31.827
18, 98871.69, 113478.48, -187500.02, -187500.02, -187500.02, -187500.02, -187500.02, 187500.00, 0.420, 0.918, 0.156, 14:02:31.827
19, 90837.15, 103668.88, -187500.02, -187500.02, -187500.02, -187500.02, -187500.02, 187500.00, 0.000, 0.000, 0.000, 14:02:31.827
20, 86376.70, 101062.09, -187500.02, -187500.02, -187500.02, -187500.02, -187500.02, 187500.00, 0.000, 0.000, 0.000, 14:02:31.828
21, 91431.82, 107749.80, -187500.02, -187500.02, -187500.02, -187500.02, -187500.02, 187500.00, 0.000, 0.000, 0.000, 14:02:31.828
22, 98845.94, 113971.52, -187500.02, -187500.02, -187500.02, -187500.02, -187500.02, 187500.00, 0.000, 0.000, 0.000, 14:02:31.828
23, 92593.62, 105418.52, -187500.02, -187500.02, -187500.02, -187500.02, -187500.02, 187500.00, 0.000, 0.000, 0.000, 14:02:31.828
24, 86364.88, 100641.56, -187500.02, -187500.02, -187500.02, -187500.02, -187500.02, 187500.00, 0.000, 0.000, 0.000, 14:02:31.829
25, 89987.77, 106164.45, -187500.02, -187500.02, -187500.02, -187500.02, -187500.02, 187500.00, 0.000, 0.000, 0.000, 14:02:31.829
26, 98276.73, 113861.10, -187500.02, -187500.02, -187500.02, -187500.02, -187500.02, 187500.00, 0.000, 0.000, 0.000, 14:02:31.829
27, 94428.31, 107399.99, -187500.02, -187500.02, -187500.02, -187500.02, -187500.02, 187500.00, 0.418, 0.920, 0.154, 14:02:31.829
28, 86682.70, 100527.23, -187500.02, -187500.02, -187500.02, -187500.02, -187500.02, 187500.00, 0.000, 0.000, 0.000, 14:02:31.830
29, 88780.57, 104718.50, -187500.02, -187500.02, -187500.02, -187500.02, -187500.02, 187500.00, 0.000, 0.000, 0.000, 14:02:31.830
30, 97246.54, 113190.13, -187500.02, -187500.02, -187500.02, -187500.02, -187500.02, 187500.00, 0.000, 0.000, 0.000, 14:02:31.830
31, 96129.10, 109402.42, -187500.02, -187500.02, -187500.02, -187500.02, -187500.02, 187500.00, 0.000, 0.000, 0.000, 14:02:31.830
32, 87315.39, 100793.49, -187500.02, -187500.02, -187500.02, -187500.02, -187500.02, 187500.00, 0.000, 0.000, 0.000, 14:02:31.831
33, 87797.91, 103469.53, -187500.02, -187500.02, -187500.02, -187500.02, -187500.02, 187500.00, 0.000, 0.000, 0.000, 14:02:31.831
34, 95832.97, 112060.29, -187500.02, -187500.02, -187500.02, -187500.02, -187500.02, 187500.00, 0.000, 0.000, 0.000, 14:02:31.831
35, 97513.69, 111241.01, -187500.02, -187500.02, -187500.02, -187500.02, -187500.02, 187500.00, 0.000, 0.000, 0.000, 14:02:31.831
36, 88313.75, 101462.39, -187500.02, -187500.02, -187500.02, -187500.02, -187500.02, 187500.00, 0.000, 0.000, 0.000, 14:02:31.831
37, 87088.14, 102415.16, -187500.02, -187500.02, -187500.02, -187500.02, -187500.02, 187500.00, 0.414, 0.920, 0.150, 14:02:31.832
38, 94300.53, 110620.14, -187500.02, -187500.02, -187500.02, -187500.02, -187500.02, 187500.00, 0.000, 0.000, 0.000, 14:02:31.832
39, 98515.38, 112678.00, -187500.02, -187500.02, -187500.02, -187500.02, -187500.02, 187500.00, 0.000, 0.000, 0.000, 14:02:31.832
40, 89645.31, 102567.01, -187500.02, -187500.02, -187500.02, -187500.02, -187500.02, 187500.00, 0.000, 0.000, 0.000, 14:02:31.832
41, 86593.23, 101581.14, -187500.02, -187500.02, -187500.02, -187500.02, -187500.02, 187500.00, 0.000, 0.000, 0.000, 14:02:31.833
42, 92629.74, 109009.79, -187500.02, -187500.02, -187500.02, -187500.02, -187500.02, 187500.00, 0.000, 0.000, 0.000, 14:02:31.833
43, 98894.58, 113625.52, -187500.02, -187500.02, -187500.02, -187500.02, -187500.02, 187500.00, 0.000, 0.000, 0.000, 14:02:31.833
44, 91238.48, 104050.12, -187500.02, -187500.02, -187500.02, -187500.02, -187500.02, 187500.00, 0.000, 0.000, 0.000, 14:02:31.833
45, 86369.95, 100965.69, -187500.02, -187500.02, -187500.02, -187500.02, -187500.02, 187500.00, 0.000, 0.000, 0.000, 14:02:31.834
46, 91082.06, 107379.09, -187500.02, -187500.02, -187500.02, -187500.02, -187500.02, 187500.00, 0.000, 0.000, 0.000, 14:02:31.834
47, 98755.10, 113977.91, -187500.02, -187500.02, -187500.02, -187500.02, -187500.02, 187500.00, 0.414, 0.918, 0.148, 14:02:31.834
48, 93044.43, 105871.29, -187500.02, -187500.02, -187500.02, -187500.02, -187500.02, 187500.00, 0.000, 0.000, 0.000, 14:02:31.835
49, 86469.11, 100615.66, -187500.02, -187500.02, -187500.02, -187500.02, -187500.02, 187500.00, 0.000, 0.000, 0.000, 14:02:31.835
50, 89731.05, 105824.20, -187500.02, -187500.02, -187500.02, -187500.02, -187500.02, 187500.00, 0.000, 0.000, 0.000, 14:02:31.836
51, 98069.41, 113723.10, -187500.02, -187500.02, -187500.02, -187500.02, -187500.02, 187500.00, 0.000, 0.000, 0.000, 14:02:31.836
52, 94832.15, 107848.70, -187500.02, -187500.02, -187500.02, -187500.02, -187500.02, 187500.00, 0.000, 0.000, 0.000, 14:02:31.836
53, 86813.66, 100575.59, -187500.02, -187500.02, -187500.02, -187500.02, -187500.02, 187500.00, 0.000, 0.000, 0.000, 14:02:31.837
54, 88552.67, 104433.70, -187500.02, -187500.02, -187500.02, -187500.02, -187500.02, 187500.00, 0.000, 0.000, 0.000, 14:02:31.837
55, 96943.29, 112935.85, -187500.02, -187500.02, -187500.02, -187500.02, -187500.02, 187500.00, 0.000, 0.000, 0.000, 14:02:31.837
56, 96499.48, 109842.30, -187500.02, -187500.02, -187500.02, -187500.02, -187500.02, 187500.00, 0.000, 0.000, 0.000, 14:02:31.838
57, 87568.95, 100936.01, -187500.02, -187500.02, -187500.02, -187500.02, -187500.02, 187500.00, 0.420, 0.918, 0.150, 14:02:31.838
58, 87658.60, 103230.37, -187500.02, -187500.02, -187500.02, -187500.02, -187500.02, 187500.00, 0.000, 0.000, 0.000, 14:02:31.838
59, 95516.89, 111731.59, -187500.02, -187500.02, -187500.02, -187500.02, -187500.02, 187500.00, 0.000, 0.000, 0.000, 14:02:31.839
60, 97805.27, 111584.06, -187500.02, -187500.02, -187500.02, -187500.02, -187500.02, 187500.00, 0.000, 0.000, 0.000, 14:02:31.839
61, 88605.02, 101686.13, -187500.02, -187500.02, -187500.02, -187500.02, -187500.02, 187500.00, 0.000, 0.000, 0.000, 14:02:31.839
62, 86963.84, 102217.52, -187500.02, -187500.02, -187500.02, -187500.02, -187500.02, 187500.00, 0.000, 0.000, 0.000, 14:02:31.839
63, 93912.86, 110238.45, -187500.02, -187500.02, -187500.02, -187500.02, -187500.02, 187500.00, 0.000, 0.000, 0.000, 14:02:31.840
64, 98634.63, 112918.98, -187500.02, -187500.02, -187500.02, -187500.02, -187500.02, 187500.00, 0.000, 0.000, 0.000, 14:02:31.840
65, 90022.16, 102878.93, -187500.02, -187500.02, -187500.02, -187500.02, -187500.02, 187500.00, 0.000, 0.000, 0.000, 14:02:31.840
66, 86548.30, 101417.91, -187500.02, -187500.02, -187500.02, -187500.02, -187500.02, 187500.00, 0.000, 0.000, 0.000, 14:02:31.840
67, 92265.30, 108610.68, -187500.02, -187500.02, -187500.02, -187500.02, -187500.02, 187500.00, 0.416, 0.922, 0.152, 14:02:31.841
68, 98909.93, 113746.03, -187500.02, -187500.02, -187500.02, -187500.02, -187500.02, 187500.00, 0.000, 0.000, 0.000, 14:02:31.841
69, 91672.57, 104477.17, -187500.02, -187500.02, -187500.02, -187500.02, -187500.02, 187500.00, 0.000, 0.000, 0.000, 14:02:31.841
70, 86383.50, 100884.10, -187500.02, -187500.02, -187500.02, -187500.02, -187500.02, 187500.00, 0.000, 0.000, 0.000, 14:02:31.842
71, 90767.19, 107014.47, -187500.02, -187500.02, -187500.02, -187500.02, -187500.02, 187500.00, 0.000, 0.000, 0.000, 14:02:31.842
72, 98656.71, 113967.95, -187500.02, -187500.02, -187500.02, -187500.02, -187500.02, 187500.00, 0.000, 0.000, 0.000, 14:02:31.842
73, 93470.32, 106346.42, -187500.02, -187500.02, -187500.02, -187500.02, -187500.02, 187500.00, 0.000, 0.000, 0.000, 14:02:31.842
74, 86488.82, 100595.84, -187500.02, -187500.02, -187500.02, -187500.02, -187500.02, 187500.00, 0.000, 0.000, 0.000, 14:02:31.842
75, 89394.50, 105471.82, -187500.02, -187500.02, -187500.02, -187500.02, -187500.02, 187500.00, 0.000, 0.000, 0.000, 14:02:31.843
76, 97813.55, 113553.74, -187500.02, -187500.02, -187500.02, -187500.02, -187500.02, 187500.00, 0.000, 0.000, 0.000, 14:02:31.843
77, 95257.16, 108342.91, -187500.02, -187500.02, -187500.02, -187500.02, -187500.02, 187500.00, 0.416, 0.920, 0.152, 14:02:31.843
78, 86975.98, 100641.66, -187500.02, -187500.02, -187500.02, -187500.02, -187500.02, 187500.00, 0.000, 0.000, 0.000, 14:02:31.843
79, 88320.92, 104122.67, -187500.02, -187500.02, -187500.02, -187500.02, -187500.02, 187500.00, 0.000, 0.000, 0.000, 14:02:31.844
80, 96622.79, 112663.83, -187500.02, -187500.02, -187500.02, -187500.02, -187500.02, 187500.00, 0.000, 0.000, 0.000, 14:02:31.844
81, 96839.35, 110277.20, -187500.02, -187500.02, -187500.02, -187500.02, -187500.02, 187500.00, 0.000, 0.000, 0.000, 14:02:31.844
82, 87785.22, 101101.88, -187500.02, -187500.02, -187500.02, -187500.02, -187500.02, 187500.00, 0.000, 0.000, 0.000, 14:02:31.844
83, 87465.13, 102986.22, -187500.02, -187500.02, -187500.02, -187500.02, -187500.02, 187500.00, 0.000, 0.000, 0.000, 14:02:31.844
84, 95143.35, 111394.92, -187500.02, -187500.02, -187500.02, -187500.02, -187500.02, 187500.00, 0.000, 0.000, 0.000, 14:02:31.844
85, 98071.54, 111944.64, -187500.02, -187500.02, -187500.02, -187500.02, -187500.02, 187500.00, 0.000, 0.000, 0.000, 14:02:31.845
86, 88914.27, 101947.51, -187500.02, -187500.02, -187500.02, -187500.02, -187500.02, 187500.00, 0.000, 0.000, 0.000, 14:02:31.845
87, 86816.95, 102023.82, -187500.02, -187500.02, -187500.02, -187500.02, -187500.02, 187500.00, 0.416, 0.918, 0.148, 14:02:31.845
88, 93514.13, 109866.33, -187500.02, -187500.02, -187500.02, -187500.02, -187500.02, 187500.00, 0.000, 0.000, 0.000, 14:02:31.845
89, 98759.73, 113169.13, -187500.02, -187500.02, -187500.02, -187500.02, -187500.02, 187500.00, 0.000, 0.000, 0.000, 14:02:31.846
90, 90394.56, 103255.69, -187500.02, -187500.02, -187500.02, -187500.02, -187500.02, 187500.00, 0.000, 0.000, 0.000, 14:02:32.283
91, 86491.05, 101307.38, -187500.02, -187500.02, -187500.02, -187500.02, -187500.02, 187500.00, 0.000, 0.000, 0.000, 14:02:32.283
92, 91917.61, 108253.14, -187500.02, -187500.02, -187500.02, -187500.02, -187500.02, 187500.00, 0.000, 0.000, 0.000, 14:02:32.284
93, 98907.31, 113858.53, -187500.02, -187500.02, -187500.02, -187500.02, -187500.02, 187500.00, 0.000, 0.000, 0.000, 14:02:32.284
94, 92107.58, 104940.52, -187500.02, -187500.02, -187500.02, -187500.02, -187500.02, 187500.00, 0.000, 0.000, 0.000, 14:02:32.284
95, 86397.18, 100832.60, -187500.02, -187500.02, -187500.02, -187500.02, -187500.02, 187500.00, 0.000, 0.000, 0.000, 14:02:32.284
96, 90420.36, 106650.27, -187500.02, -187500.02, -187500.02, -187500.02, -187500.02, 187500.00, 0.420, 0.920, 0.144, 14:02:32.284
97, 98465.42, 113892.48, -187500.02, -187500.02, -187500.02, -187500.02, -187500.02, 187500.00, 0.000, 0.000, 0.000, 14:02:32.285
98, 93889.17, 106805.52, -187500.02, -187500.02, -187500.02, -187500.02, -187500.02, 187500.00, 0.000, 0.000, 0.000, 14:02:32.285
99, 86600.42, 100606.45, -187500.02, -187500.02, -187500.02, -187500.02, -187500.02, 187500.00, 0.000, 0.000, 0.000, 14:02:32.285
100, 89149.62, 105172.46, -187500.02, -187500.02, -187500.02, -187500.02, -187500.02, 187500.00, 0.000, 0.000, 0.000, 14:02:32.285
101, 97593.68, 113397.64, -187500.02, -187500.02, -187500.02, -187500.02, -187500.02, 187500.00, 0.000, 0.000, 0.000, 14:02:32.286
102, 95670.42, 108823.13, -187500.02, -187500.02, -187500.02, -187500.02, -187500.02, 187500.00, 0.000, 0.000, 0.000, 14:02:32.286
103, 87146.37, 100751.52, -187500.02, -187500.02, -187500.02, -187500.02, -187500.02, 187500.00, 0.000, 0.000, 0.000, 14:02:32.286
104, 88102.28, 103869.47, -187500.02, -187500.02, -187500.02, -187500.02, -187500.02, 187500.00, 0.000, 0.000, 0.000, 14:02:32.287
105, 96303.92, 112393.71, -187500.02, -187500.02, -187500.02, -187500.02, -187500.02, 187500.00, 0.000, 0.000, 0.000, 14:02:32.287
106, 97165.89, 110678.93, -187500.02, -187500.02, -187500.02, -187500.02, -187500.02, 187500.00, 0.422, 0.922, 0.146, 14:02:32.288
107, 88026.02, 101276.38, -187500.02, -187500.02, -187500.02, -187500.02, -187500.02, 187500.00, 0.000, 0.000, 0.000, 14:02:32.288
108, 87304.16, 102762.79, -187500.02, -187500.02, -187500.02, -187500.02, -187500.02, 187500.00, 0.000, 0.000, 0.000, 14:02:32.288
109, 94762.07, 111054.88, -187500.02, -187500.02, -187500.02, -187500.02, -187500.02, 187500.00, 0.000, 0.000, 0.000, 14:02:32.289
110, 98246.73, 112245.61, -187500.02, -187500.02, -187500.02, -187500.02, -187500.02, 187500.00, 0.000, 0.000, 0.000, 14:02:32.289
111, 89239.41, 102206.05, -187500.02, -187500.02, -187500.02, -187500.02, -187500.02, 187500.00, 0.000, 0.000, 0.000, 14:02:32.289
112, 86755.63, 101842.59, -187500.02, -187500.02, -187500.02, -187500.02, -187500.02, 187500.00, 0.000, 0.000, 0.000, 14:02:32.290
113, 93150.71, 109496.74, -187500.02, -187500.02, -187500.02, -187500.02, -187500.02, 187500.00, 0.000, 0.000, 0.000, 14:02:32.290
114, 98853.29, 113371.58, -187500.02, -187500.02, -187500.02, -187500.02, -187500.02, 187500.00, 0.000, 0.000, 0.000, 14:02:32.291
115, 90790.81, 103597.83, -187500.02, -187500.02, -187500.02, -187500.02, -187500.02, 187500.00, 0.000, 0.000, 0.000, 14:02:32.291
116, 86459.38, 101155.37, -187500.02, -187500.02, -187500.02, -187500.02, -187500.02, 187500.00, 0.422, 0.922, 0.148, 14:02:32.291
117, 91571.61, 107850.98, -187500.02, -187500.02, -187500.02, -187500.02, -187500.02, 187500.00, 0.000, 0.000, 0.000, 14:02:32.292
118, 98888.56, 113889.98, -187500.02, -187500.02, -187500.02, -187500.02, -187500.02, 187500.00, 0.000, 0.000, 0.000, 14:02:32.292
119, 92529.87, 105317.68, -187500.02, -187500.02, -187500.02, -187500.02, -187500.02, 187500.00, 0.000, 0.000, 0.000, 14:02:32.292
120, 86427.42, 100720.29, -187500.02, -187500.02, -187500.02, -187500.02, -187500.02, 187500.00, 0.000, 0.000, 0.000, 14:02:32.292
121, 90112.82, 106273.06, -187500.02, -187500.02, -187500.02, -187500.02, -187500.02, 187500.00, 0.000, 0.000, 0.000, 14:02:32.293
122, 98331.04, 113847.29, -187500.02, -187500.02, -187500.02, -187500.02, -187500.02, 187500.00, 0.000, 0.000, 0.000, 14:02:32.293
123, 94321.09, 107276.97, -187500.02, -187500.02, -187500.02, -187500.02, -187500.02, 187500.00, 0.000, 0.000, 0.000, 14:02:32.293
124, 86679.86, 100588.81, -187500.02, -187500.02, -187500.02, -187500.02, -187500.02, 187500.00, 0.000, 0.000, 0.000, 14:02:32.294
125, 88885.13, 104856.45, -187500.02, -187500.02, -187500.02, -187500.02, -187500.02, 187500.00, 0.000, 0.000, 0.000, 14:02:32.294
126, 97317.91, 113228.19, -187500.02, -187500.02, -187500.02, -187500.02, -187500.02, 187500.00, 0.426, 0.922, 0.142, 14:02:32.294
127, 96009.97, 109269.02, -187500.02, -187500.02, -187500.02, -187500.02, -187500.02, 187500.00, 0.000, 0.000, 0.000, 14:02:32.295
128, 87275.52, 100802.09, -187500.02, -187500.02, -187500.02, -187500.02, -187500.02, 187500.00, 0.000, 0.000, 0.000, 14:02:32.295
129, 87886.72, 103587.30, -187500.02, -187500.02, -187500.02, -187500.02, -187500.02, 187500.00, 0.000, 0.000, 0.000, 14:02:32.295
130, 95953.47, 112141.98, -187500.02, -187500.02, -187500.02, -187500.02, -187500.02, 187500.00, 0.000, 0.000, 0.000, 14:02:32.296
131, 97450.59, 111111.99, -187500.02, -187500.02, -187500.02, -187500.02, -187500.02, 187500.00, 0.000, 0.000, 0.000, 14:02:32.296
132, 88241.64, 101428.79, -187500.02, -187500.02, -187500.02, -187500.02, -187500.02, 187500.00, 0.000, 0.000, 0.000, 14:02:32.296
133, 87123.12, 102504.38, -187500.02, -187500.02, -187500.02, -187500.02, -187500.02, 187500.00, 0.000, 0.000, 0.000, 14:02:32.297
134, 94377.63, 110706.04, -187500.02, -187500.02, -187500.02, -187500.02, -187500.02, 187500.00, 0.000, 0.000, 0.000, 14:02:32.297
135, 98450.58, 112601.34, -187500.02, -187500.02, -187500.02, -187500.02, -187500.02, 187500.00, 0.000, 0.000, 0.000, 14:02:32.297
136, 89581.50, 102517.39, -187500.02, -187500.02, -187500.02, -187500.02, -187500.02, 187500.00, 0.422, 0.918, 0.146, 14:02:32.298
137, 86641.70, 101656.22, -187500.02, -187500.02, -187500.02, -187500.02, -187500.02, 187500.00, 0.000, 0.000, 0.000, 14:02:32.298
138, 92765.50, 109132.27, -187500.02, -187500.02, -187500.02, -187500.02, -187500.02, 187500.00, 0.000, 0.000, 0.000, 14:02:32.299
139, 98920.97, 113582.40, -187500.02, -187500.02, -187500.02, -187500.02, -187500.02, 187500.00, 0.000, 0.000, 0.000, 14:02:32.299
140, 91158.81, 103962.38, -187500.02, -187500.02, -187500.02, -187500.02, -187500.02, 187500.00, 0.000, 0.000, 0.000, 14:02:32.299
141, 86383.86, 101020.38, -187500.02, -187500.02, -187500.02, -187500.02, -187500.02, 187500.00, 0.000, 0.000, 0.000, 14:02:32.300
142, 91187.78, 107496.42, -187500.02, -187500.02, -187500.02, -187500.02, -187500.02, 187500.00, 0.000, 0.000, 0.000, 14:02:32.300
143, 98803.67, 113991.30, -187500.02, -187500.02, -187500.02, -187500.02, -187500.02, 187500.00, 0.000, 0.000, 0.000, 14:02:32.301
144, 92924.76, 105767.80, -187500.02, -187500.02, -187500.02, -187500.02, -187500.02, 187500.00, 0.000, 0.000, 0.000, 14:02:32.301
145, 86424.09, 100646.62, -187500.02, -187500.02, -187500.02, -187500.02, -187500.02, 187500.00, 0.000, 0.000, 0.000, 14:02:32.301
146, 89799.78, 105939.95, -187500.02, -187500.02, -187500.02, -187500.02, -187500.02, 187500.00, 0.424, 0.920, 0.148, 14:02:32.302
147, 98161.41, 113784.77, -187500.02, -187500.02, -187500.02, -187500.02, -187500.02, 187500.00, 0.000, 0.000, 0.000, 14:02:32.302
148, 94721.64, 107741.17, -187500.02, -187500.02, -187500.02, -187500.02, -187500.02, 187500.00, 0.000, 0.000, 0.000, 14:02:32.302
149, 86748.97, 100573.44, -187500.02, -187500.02, -187500.02, -187500.02, -187500.02, 187500.00, 0.000, 0.000, 0.000, 14:02:32.303
150, 88590.69, 104527.73, -187500.02, -187500.02, -187500.02, -187500.02, -187500.02, 187500.00, 0.000, 0.000, 0.000, 14:02:32.303
151, 97019.15, 113021.93, -187500.02, -187500.02, -187500.02, -187500.02, -187500.02, 187500.00, 0.000, 0.000, 0.000, 14:02:32.304
152, 96388.63, 109713.45, -187500.02, -187500.02, -187500.02, -187500.02, -187500.02, 187500.00, 0.000, 0.000, 0.000, 14:02:32.304
153, 87492.21, 100898.48, -187500.02, -187500.02, -187500.02, -187500.02, -187500.02, 187500.00, 0.000, 0.000, 0.000, 14:02:32.304
154, 87698.27, 103310.05, -187500.02, -187500.02, -187500.02, -187500.02, -187500.02, 187500.00, 0.000, 0.000, 0.000, 14:02:32.305
155, 95621.63, 111841.62, -187500.02, -187500.02, -187500.02, -187500.02, -187500.02, 187500.00, 0.426, 0.914, 0.144, 14:02:32.305
156, 97728.44, 111498.50, -187500.02, -187500.02, -187500.02, -187500.02, -187500.02, 187500.00, 0.000, 0.000, 0.000, 14:02:32.305
157, 88512.39, 101624.35, -187500.02, -187500.02, -187500.02, -187500.02, -187500.02, 187500.00, 0.000, 0.000, 0.000, 14:02:32.306
158, 87007.27, 102284.89, -187500.02, -187500.02, -187500.02, -187500.02, -187500.02, 187500.00, 0.000, 0.000, 0.000, 14:02:32.306
159, 94028.33, 110368.69, -187500.02, -187500.02, -187500.02, -187500.02, -187500.02, 187500.00, 0.000, 0.000, 0.000, 14:02:32.306
160, 98628.77, 112886.16, -187500.02, -187500.02, -187500.02, -187500.02, -187500.02, 187500.00, 0.000, 0.000, 0.000, 14:02:32.307
161, 89928.62, 102798.44, -187500.02, -187500.02, -187500.02, -187500.02, -187500.02, 187500.00, 0.000, 0.000, 0.000, 14:02:32.307
162, 86570.83, 101470.52, -187500.02, -187500.02, -187500.02, -187500.02, -187500.02, 187500.00, 0.000, 0.000, 0.000, 14:02:32.307
163, 92393.77, 108740.30, -187500.02, -187500.02, -187500.02, -187500.02, -187500.02, 187500.00, 0.000, 0.000, 0.000, 14:02:32.308
164, 98956.18, 113732.80, -187500.02, -187500.02, -187500.02, -187500.02, -187500.02, 187500.00, 0.000, 0.000, 0.000, 14:02:32.308
165, 91576.16, 104362.33, -187500.02, -187500.02, -187500.02, -187500.02, -187500.02, 187500.00, 0.428, 0.914, 0.146, 14:02:32.308
166, 86385.60, 100904.33, -187500.02, -187500.02, -187500.02, -187500.02, -187500.02, 187500.00, 0.000, 0.000, 0.000, 14:02:32.309
167, 90872.66, 107137.34, -187500.02, -187500.02, -187500.02, -187500.02, -187500.02, 187500.00, 0.000, 0.000, 0.000, 14:02:32.309
168, 98711.24, 114004.94, -187500.02, -187500.02, -187500.02, -187500.02, -187500.02, 187500.00, 0.000, 0.000, 0.000, 14:02:32.309
169, 93363.57, 106215.95, -187500.02, -187500.02, -187500.02, -187500.02, -187500.02, 187500.00, 0.000, 0.000, 0.000, 14:02:32.310
170, 86481.42, 100599.95, -187500.02, -187500.02, -187500.02, -187500.02, -187500.02, 187500.00, 0.000, 0.000, 0.000, 14:02:32.310
171, 89522.33, 105606.73, -187500.02, -187500.02, -187500.02, -187500.02, -187500.02, 187500.00, 0.000, 0.000, 0.000, 14:02:32.310
172, 97970.55, 113661.19, -187500.02, -187500.02, -187500.02, -187500.02, -187500.02, 187500.00, 0.000, 0.000, 0.000, 14:02:32.311
173, 95175.38, 108205.71, -187500.02, -187500.02, -187500.02, -187500.02, -187500.02, 187500.00, 0.000, 0.000, 0.000, 14:02:32.311
174, 86924.61, 100605.78, -187500.02, -187500.02, -187500.02, -187500.02, -187500.02, 187500.00, 0.000, 0.000, 0.000, 14:02:32.311
175, 88391.83, 104225.11, -187500.02, -187500.02, -187500.02, -187500.02, -187500.02, 187500.00, 0.426, 0.910, 0.146, 14:02:32.312
176, 96779.49, 112798.12, -187500.02, -187500.02, -187500.02, -187500.02, -187500.02, 187500.00, 0.000, 0.000, 0.000, 14:02:32.312
177, 96791.08, 110163.23, -187500.02, -187500.02, -187500.02, -187500.02, -187500.02, 187500.00, 0.000, 0.000, 0.000, 14:02:32.312
178, 87686.70, 101003.39, -187500.02, -187500.02, -187500.02, -187500.02, -187500.02, 187500.00, 0.000, 0.000, 0.000, 14:02:32.313
179, 87499.19, 103039.93, -187500.02, -187500.02, -187500.02, -187500.02, -187500.02, 187500.00, 0.000, 0.000, 0.000, 14:02:32.313
180, 95290.36, 111548.57, -187500.02, -187500.02, -187500.02, -187500.02, -187500.02, 187500.00, 0.000, 0.000, 0.000, 14:02:32.313
181, 98037.95, 111888.25, -187500.02, -187500.02, -187500.02, -187500.02, -187500.02, 187500.00, 0.000, 0.000, 0.000, 14:02:32.313
182, 88801.94, 101840.55, -187500.02, -187500.02, -187500.02, -187500.02, -187500.02, 187500.00, 0.000, 0.000, 0.000, 14:02:32.314
183, 86839.09, 102053.39, -187500.02, -187500.02, -187500.02, -187500.02, -187500.02, 187500.00, 0.000, 0.000, 0.000, 14:02:32.314
184, 93639.50, 110008.89, -187500.02, -187500.02, -187500.02, -187500.02, -187500.02, 187500.00, 0.000, 0.000, 0.000, 14:02:32.315
185, 98764.82, 113143.84, -187500.02, -187500.02, -187500.02, -187500.02, -187500.02, 187500.00, 0.424, 0.916, 0.142, 14:02:32.315
186, 90252.48, 103095.83, -187500.02, -187500.02, -187500.02, -187500.02, -187500.02, 187500.00, 0.000, 0.000, 0.000, 14:02:32.315
187, 86454.33, 101294.55, -187500.02, -187500.02, -187500.02, -187500.02, -187500.02, 187500.00, 0.000, 0.000, 0.000, 14:02:32.316
188, 92004.74, 108379.85, -187500.02, -187500.02, -187500.02, -187500.02, -187500.02, 187500.00, 0.000, 0.000, 0.000, 14:02:32.316
189, 98963.44, 113876.97, -187500.02, -187500.02, -187500.02, -187500.02, -187500.02, 187500.00, 0.000, 0.000, 0.000, 14:02:32.317
190, 91984.87, 104745.39, -187500.02, -187500.02, -187500.02, -187500.02, -187500.02, 187500.00, 0.000, 0.000, 0.000, 14:02:32.317
191, 86350.77, 100753.13, -187500.02, -187500.02, -187500.02, -187500.02, -187500.02, 187500.00, 0.000, 0.000, 0.000, 14:02:32.318
192, 90528.32, 106746.34, -187500.02, -187500.02, -187500.02, -187500.02, -187500.02, 187500.00, 0.000, 0.000, 0.000, 14:02:32.318
193, 98609.61, 114003.64, -187500.02, -187500.02, -187500.02, -187500.02, -187500.02, 187500.00, 0.000, 0.000, 0.000, 14:02:32.318
194, 93799.90, 106659.88, -187500.02, -187500.02, -187500.02, -187500.02, -187500.02, 187500.00, 0.000, 0.000, 0.000, 14:02:32.319
195, 86531.63, 100537.34, -187500.02, -187500.02, -187500.02, -187500.02, -187500.02, 187500.00, 0.422, 0.918, 0.146, 14:02:32.319
196, 89214.34, 105259.70, -187500.02, -187500.02, -187500.02, -187500.02, -187500.02, 187500.00, 0.000, 0.000, 0.000, 14:02:32.320
197, 97733.38, 113523.57, -187500.02, -187500.02, -187500.02, -187500.02, -187500.02, 187500.00, 0.000, 0.000, 0.000, 14:02:32.320
198, 95563.72, 108676.99, -187500.02, -187500.02, -187500.02, -187500.02, -187500.02, 187500.00, 0.000, 0.000, 0.000, 14:02:32.320
199, 87017.13, 100634.88, -187500.02, -187500.02, -187500.02, -187500.02, -187500.02, 187500.00, 0.000, 0.000, 0.000, 14:02:32.321
200, 88119.24, 103924.68, -187500.02, -187500.02, -187500.02, -187500.02, -187500.02, 187500.00, 0.000, 0.000, 0.000, 14:02:32.321
201, 96428.46, 112553.52, -187500.02, -187500.02, -187500.02, -187500.02, -187500.02, 187500.00, 0.000, 0.000, 0.000, 14:02:32.321
202, 97104.05, 110605.41, -187500.02, -187500.02, -187500.02, -187500.02, -187500.02, 187500.00, 0.000, 0.000, 0.000, 14:02:32.322
203, 87884.77, 101134.58, -187500.02, -187500.02, -187500.02, -187500.02, -187500.02, 187500.00, 0.000, 0.000, 0.000, 14:02:32.322
204, 87294.42, 102770.26, -187500.02, -187500.02, -187500.02, -187500.02, -187500.02, 187500.00, 0.000, 0.000, 0.000, 14:02:32.322
205, 94910.33, 111204.09, -187500.02, -187500.02, -187500.02, -187500.02, -187500.02, 187500.00, 0.424, 0.914, 0.146, 14:02:32.323
206, 98245.37, 112212.05, -187500.02, -187500.02, -187500.02, -187500.02, -187500.02, 187500.00, 0.000, 0.000, 0.000, 14:02:32.323
207, 89099.13, 102060.23, -187500.02, -187500.02, -187500.02, -187500.02, -187500.02, 187500.00, 0.000, 0.000, 0.000, 14:02:32.323
208, 86699.13, 101822.81, -187500.02, -187500.02, -187500.02, -187500.02, -187500.02, 187500.00, 0.000, 0.000, 0.000, 14:02:32.324
209, 93270.65, 109642.66, -187500.02, -187500.02, -187500.02, -187500.02, -187500.02, 187500.00, 0.000, 0.000, 0.000, 14:02:32.324
210, 98900.72, 113383.94, -187500.02, -187500.02, -187500.02, -187500.02, -187500.02, 187500.00, 0.000, 0.000, 0.000, 14:02:32.768
211, 90652.16, 103434.46, -187500.02, -187500.02, -187500.02, -187500.02, -187500.02, 187500.00, 0.000, 0.000, 0.000, 14:02:32.769
212, 86393.47, 101115.98, -187500.02, -187500.02, -187500.02, -187500.02, -187500.02, 187500.00, 0.000, 0.000, 0.000, 14:02:32.769
213, 91664.84, 107993.84, -187500.02, -187500.02, -187500.02, -187500.02, -187500.02, 187500.00, 0.000, 0.000, 0.000, 14:02:32.769
214, 98971.80, 113976.84, -187500.02, -187500.02, -187500.02, -187500.02, -187500.02, 187500.00, 0.000, 0.000, 0.000, 14:02:32.770
215, 92360.38, 105136.52, -187500.02, -187500.02, -187500.02, -187500.02, -187500.02, 187500.00, 0.426, 0.914, 0.150, 14:02:32.770
216, 86329.63, 100657.59, -187500.02, -187500.02, -187500.02, -187500.02, -187500.02, 187500.00, 0.000, 0.000, 0.000, 14:02:32.771
217, 90190.20, 106406.17, -187500.02, -187500.02, -187500.02, -187500.02, -187500.02, 187500.00, 0.000, 0.000, 0.000, 14:02:32.771
218, 98444.90, 113962.94, -187500.02, -187500.02, -187500.02, -187500.02, -187500.02, 187500.00, 0.000, 0.000, 0.000, 14:02:32.771
219, 94210.43, 107126.79, -187500.02, -187500.02, -187500.02, -187500.02, -187500.02, 187500.00, 0.000, 0.000, 0.000, 14:02:32.772
220, 86607.98, 100512.39, -187500.02, -187500.02, -187500.02, -187500.02, -187500.02, 187500.00, 0.000, 0.000, 0.000, 14:02:32.772
221, 88932.67, 104919.29, -187500.02, -187500.02, -187500.02, -187500.02, -187500.02, 187500.00, 0.000, 0.000, 0.000, 14:02:32.772
222, 97458.38, 113362.08, -187500.02, -187500.02, -187500.02, -187500.02, -187500.02, 187500.00, 0.000, 0.000, 0.000, 14:02:32.773
223, 95931.09, 109143.74, -187500.02, -187500.02, -187500.02, -187500.02, -187500.02, 187500.00, 0.000, 0.000, 0.000, 14:02:32.773
224, 87186.04, 100694.90, -187500.02, -187500.02, -187500.02, -187500.02, -187500.02, 187500.00, 0.430, 0.916, 0.144, 14:02:32.773
225, 87910.97, 103620.96, -187500.02, -187500.02, -187500.02, -187500.02, -187500.02, 187500.00, 0.000, 0.000, 0.000, 14:02:32.774
226, 96114.60, 112283.45, -187500.02, -187500.02, -187500.02, -187500.02, -187500.02, 187500.00, 0.000, 0.000, 0.000, 14:02:32.774
227, 97413.01, 111007.77, -187500.02, -187500.02, -187500.02, -187500.02, -187500.02, 187500.00, 0.000, 0.000, 0.000, 14:02:32.774
228, 88132.05, 101293.48, -187500.02, -187500.02, -187500.02, -187500.02, -187500.02, 187500.00, 0.000, 0.000, 0.000, 14:02:32.774
229, 87131.50, 102528.63, -187500.02, -187500.02, -187500.02, -187500.02, -187500.02, 187500.00, 0.000, 0.000, 0.000, 14:02:32.775
230, 94546.04, 110869.72, -187500.02, -187500.02, -187500.02, -187500.02, -187500.02, 187500.00, 0.000, 0.000, 0.000, 14:02:32.775
231, 98466.98, 112532.87, -187500.02, -187500.02, -187500.02, -187500.02, -187500.02, 187500.00, 0.000, 0.000, 0.000, 14:02:32.776
232, 89447.19, 102339.72, -187500.02, -187500.02, -187500.02, -187500.02, -187500.02, 187500.00, 0.000, 0.000, 0.000, 14:02:32.776
233, 86630.30, 101655.30, -187500.02, -187500.02, -187500.02, -187500.02, -187500.02, 187500.00, 0.000, 0.000, 0.000, 14:02:32.776
234, 92881.60, 109265.63, -187500.02, -187500.02, -187500.02, -187500.02, -187500.02, 187500.00, 0.430, 0.916, 0.144, 14:02:32.777
235, 98936.93, 113579.71, -187500.02, -187500.02, -187500.02, -187500.02, -187500.02, 187500.00, 0.000, 0.000, 0.000, 14:02:32.777
236, 91035.59, 103816.65, -187500.02, -187500.02, -187500.02, -187500.02, -187500.02, 187500.00, 0.000, 0.000, 0.000, 14:02:32.778
237, 86359.45, 100998.09, -187500.02, -187500.02, -187500.02, -187500.02, -187500.02, 187500.00, 0.000, 0.000, 0.000, 14:02:32.778
238, 91306.07, 107614.30, -187500.02, -187500.02, -187500.02, -187500.02, -187500.02, 187500.00, 0.000, 0.000, 0.000, 14:02:32.779
239, 98902.51, 114034.75, -187500.02, -187500.02, -187500.02, -187500.02, -187500.02, 187500.00, 0.000, 0.000, 0.000, 14:02:32.779
240, 92803.86, 105602.35, -187500.02, -187500.02, -187500.02, -187500.02, -187500.02, 187500.00, 0.000, 0.000, 0.000, 14:02:32.779
241, 86382.74, 100608.41, -187500.02, -187500.02, -187500.02, -187500.02, -187500.02, 187500.00, 0.000, 0.000, 0.000, 14:02:32.780
242, 89893.69, 106045.68, -187500.02, -187500.02, -187500.02, -187500.02, -187500.02, 187500.00, 0.000, 0.000, 0.000, 14:02:32.781
243, 98256.21, 113861.75, -187500.02, -187500.02, -187500.02, -187500.02, -187500.02, 187500.00, 0.000, 0.000, 0.000, 14:02:32.781
244, 94615.00, 107586.07, -187500.02, -187500.02, -187500.02, -187500.02, -187500.02, 187500.00, 0.428, 0.918, 0.148, 14:02:32.782
245, 86704.47, 100523.97, -187500.02, -187500.02, -187500.02, -187500.02, -187500.02, 187500.00, 0.000, 0.000, 0.000, 14:02:32.782
246, 88671.05, 104613.76, -187500.02, -187500.02, -187500.02, -187500.02, -187500.02, 187500.00, 0.000, 0.000, 0.000, 14:02:32.782
247, 97180.04, 113139.07, -187500.02, -187500.02, -187500.02, -187500.02, -187500.02, 187500.00, 0.000, 0.000, 0.000, 14:02:32.783
248, 96330.63, 109606.02, -187500.02, -187500.02, -187500.02, -187500.02, -187500.02, 187500.00, 0.000, 0.000, 0.000, 14:02:32.783
249, 87395.85, 100828.91, -187500.02, -187500.02, -187500.02, -187500.02, -187500.02, 187500.00, 0.000, 0.000, 0.000, 14:02:32.784
250, 87733.52, 103376.21, -187500.02, -187500.02, -187500.02, -187500.02, -187500.02, 187500.00, 0.000, 0.000, 0.000, 14:02:32.784
251, 95773.84, 111974.37, -187500.02, -187500.02, -187500.02, -187500.02, -187500.02, 187500.00, 0.000, 0.000, 0.000, 14:02:32.784
252, 97709.46, 111404.13, -187500.02, -187500.02, -187500.02, -187500.02, -187500.02, 187500.00, 0.000, 0.000, 0.000, 14:02:32.785
253, 88445.49, 101538.96, -187500.02, -187500.02, -187500.02, -187500.02, -187500.02, 187500.00, 0.000, 0.000, 0.000, 14:02:32.785
254, 87019.56, 102334.73, -187500.02, -187500.02, -187500.02, -187500.02, -187500.02, 187500.00, 0.428, 0.920, 0.146, 14:02:32.786
255, 94168.34, 110498.28, -187500.02, -187500.02, -187500.02, -187500.02, -187500.02, 187500.00, 0.000, 0.000, 0.000, 14:02:32.786
0, 98601.48, 112796.94, -187500.02, -187500.02, -187500.02, -187500.02, -187500.02, 187500.00, 0.000, 0.000, 0.000, 14:02:32.786
1, 89795.41, 102667.93, -187500.02, -187500.02, -187500.02, -187500.02, -187500.02, 187500.00, 0.000, 0.000, 0.000, 14:02:32.787
2, 86575.03, 101508.30, -187500.02, -187500.02, -187500.02, -187500.02, -187500.02, 187500.00, 0.000, 0.000, 0.000, 14:02:32.787
3, 92544.58, 108884.20, -187500.02, -187500.02, -187500.02, -187500.02, -187500.02, 187500.00, 0.000, 0.000, 0.000, 14:02:32.787
4, 98999.59, 113718.81, -187500.02, -187500.02, -187500.02, -187500.02, -187500.02, 187500.00, 0.000, 0.000, 0.000, 14:02:32.788
5, 91424.09, 104204.55, -187500.02, -187500.02, -187500.02, -187500.02, -187500.02, 187500.00, 0.000, 0.000, 0.000, 14:02:32.788
6, 86353.03, 100912.83, -187500.02, -187500.02, -187500.02, -187500.02, -187500.02, 187500.00, 0.000, 0.000, 0.000, 14:02:32.789
7, 90953.29, 107248.34, -187500.02, -187500.02, -187500.02, -187500.02, -187500.02, 187500.00, 0.000, 0.000, 0.000, 14:02:32.789
8, 98756.30, 114029.84, -187500.02, -187500.02, -187500.02, -187500.02, -187500.02, 187500.00, 0.422, 0.916, 0.142, 14:02:32.790
9, 93216.90, 106075.14, -187500.02, -187500.02, -187500.02, -187500.02, -187500.02, 187500.00, 0.000, 0.000, 0.000, 14:02:32.790
10, 86448.77, 100598.47, -187500.02, -187500.02, -187500.02, -187500.02, -187500.02, 187500.00, 0.000, 0.000, 0.000, 14:02:32.790
11, 89603.31, 105694.60, -187500.02, -187500.02, -187500.02, -187500.02, -187500.02, 187500.00, 0.000, 0.000, 0.000, 14:02:32.791
12, 98042.88, 113719.70, -187500.02, -187500.02, -187500.02, -187500.02, -187500.02, 187500.00, 0.000, 0.000, 0.000, 14:02:32.791
13, 95052.65, 108077.79, -187500.02, -187500.02, -187500.02, -187500.02, -187500.02, 187500.00, 0.000, 0.000, 0.000, 14:02:32.792
14, 86876.94, 100597.17, -187500.02, -187500.02, -187500.02, -187500.02, -187500.02, 187500.00, 0.000, 0.000, 0.000, 14:02:32.792
15, 88445.20, 104313.77, -187500.02, -187500.02, -187500.02, -187500.02, -187500.02, 187500.00, 0.000, 0.000, 0.000, 14:02:32.793
16, 96838.02, 112868.05, -187500.02, -187500.02, -187500.02, -187500.02, -187500.02, 187500.00, 0.000, 0.000, 0.000, 14:02:32.793
17, 96668.30, 110027.77, -187500.02, -187500.02, -187500.02, -187500.02, -187500.02, 187500.00, 0.000, 0.000, 0.000, 14:02:32.793
18, 87644.31, 100980.04, -187500.02, -187500.02, -187500.02, -187500.02, -187500.02, 187500.00, 0.426, 0.916, 0.146, 14:02:32.794
19, 87578.63, 103122.98, -187500.02, -187500.02, -187500.02, -187500.02, -187500.02, 187500.00, 0.000, 0.000, 0.000, 14:02:32.794
20, 95428.96, 111643.83, -187500.02, -187500.02, -187500.02, -187500.02, -187500.02, 187500.00, 0.000, 0.000, 0.000, 14:02:32.795
21, 97971.00, 111761.58, -187500.02, -187500.02, -187500.02, -187500.02, -187500.02, 187500.00, 0.000, 0.000, 0.000, 14:02:32.795
22, 88708.88, 101768.14, -187500.02, -187500.02, -187500.02, -187500.02, -187500.02, 187500.00, 0.000, 0.000, 0.000, 14:02:32.795
23, 86864.17, 102123.87, -187500.02, -187500.02, -187500.02, -187500.02, -187500.02, 187500.00, 0.000, 0.000, 0.000, 14:02:32.796
24, 93731.99, 110108.98, -187500.02, -187500.02, -187500.02, -187500.02, -187500.02, 187500.00, 0.000, 0.000, 0.000, 14:02:32.796
25, 98702.98, 113050.94, -187500.02, -187500.02, -187500.02, -187500.02, -187500.02, 187500.00, 0.000, 0.000, 0.000, 14:02:32.797
26, 90139.02, 103008.77, -187500.02, -187500.02, -187500.02, -187500.02, -187500.02, 187500.00, 0.000, 0.000, 0.000, 14:02:32.797
27, 86481.45, 101362.84, -187500.02, -187500.02, -187500.02, -187500.02, -187500.02, 187500.00, 0.000, 0.000, 0.000, 14:02:32.797
28, 92154.97, 108505.69, -187500.02, -187500.02, -187500.02, -187500.02, -187500.02, 187500.00, 0.424, 0.916, 0.152, 14:02:32.798
29, 98971.24, 113831.64, -187500.02, -187500.02, -187500.02, -187500.02, -187500.02, 187500.00, 0.000, 0.000, 0.000, 14:02:32.798
30, 91827.00, 104622.45, -187500.02, -187500.02, -187500.02, -187500.02, -187500.02, 187500.00, 0.000, 0.000, 0.000, 14:02:32.799
31, 86363.88, 100818.68, -187500.02, -187500.02, -187500.02, -187500.02, -187500.02, 187500.00, 0.000, 0.000, 0.000, 14:02:32.799
32, 90650.05, 106871.09, -187500.02, -187500.02, -187500.02, -187500.02, -187500.02, 187500.00, 0.000, 0.000, 0.000, 14:02:32.799
33, 98657.31, 113995.55, -187500.02, -187500.02, -187500.02, -187500.02, -187500.02, 187500.00, 0.000, 0.000, 0.000, 14:02:32.800
34, 93663.06, 106521.46, -187500.02, -187500.02, -187500.02, -187500.02, -187500.02, 187500.00, 0.000, 0.000, 0.000, 14:02:32.801
35, 86526.98, 100567.29, -187500.02, -187500.02, -187500.02, -187500.02, -187500.02, 187500.00, 0.000, 0.000, 0.000, 14:02:32.802
36, 89335.49, 105377.01, -187500.02, -187500.02, -187500.02, -187500.02, -187500.02, 187500.00, 0.000, 0.000, 0.000, 14:02:32.802
37, 97815.55, 113565.61, -187500.02, -187500.02, -187500.02, -187500.02, -187500.02, 187500.00, 0.424, 0.914, 0.152, 14:02:32.803
38, 95446.91, 108528.24, -187500.02, -187500.02, -187500.02, -187500.02, -187500.02, 187500.00, 0.000, 0.000, 0.000, 14:02:32.803
39, 87003.47, 100637.41, -187500.02, -187500.02, -187500.02, -187500.02, -187500.02, 187500.00, 0.000, 0.000, 0.000, 14:02:32.803
40, 88224.55, 104011.63, -187500.02, -187500.02, -187500.02, -187500.02, -187500.02, 187500.00, 0.000, 0.000, 0.000, 14:02:32.804
41, 96547.38, 112612.87, -187500.02, -187500.02, -187500.02, -187500.02, -187500.02, 187500.00, 0.000, 0.000, 0.000, 14:02:32.804
42, 96987.84, 110439.25, -187500.02, -187500.02, -187500.02, -187500.02, -187500.02, 187500.00, 0.000, 0.000, 0.000, 14:02:32.804
43, 87824.92, 101107.45, -187500.02, -187500.02, -187500.02, -187500.02, -187500.02, 187500.00, 0.000, 0.000, 0.000, 14:02:32.805
44, 87360.60, 102881.48, -187500.02, -187500.02, -187500.02, -187500.02, -187500.02, 187500.00, 0.000, 0.000, 0.000, 14:02:32.805
45, 95009.57, 111309.34, -187500.02, -187500.02, -187500.02, -187500.02, -187500.02, 187500.00, 0.000, 0.000, 0.000, 14:02:32.805
46, 98158.17, 112095.76, -187500.02, -187500.02, -187500.02, -187500.02, -187500.02, 187500.00, 0.000, 0.000, 0.000, 14:02:32.806
47, 89014.10, 102002.41, -187500.02, -187500.02, -187500.02, -187500.02, -187500.02, 187500.00, 0.426, 0.920, 0.150, 14:02:32.806
48, 86764.44, 101909.24, -187500.02, -187500.02, -187500.02, -187500.02, -187500.02, 187500.00, 0.000, 0.000, 0.000, 14:02:32.806
49, 93394.39, 109761.05, -187500.02, -187500.02, -187500.02, -187500.02, -187500.02, 187500.00, 0.000, 0.000, 0.000, 14:02:32.807
50, 98844.48, 113314.42, -187500.02, -187500.02, -187500.02, -187500.02, -187500.02, 187500.00, 0.000, 0.000, 0.000, 14:02:32.807
51, 90538.24, 103367.07, -187500.02, -187500.02, -187500.02, -187500.02, -187500.02, 187500.00, 0.000, 0.000, 0.000, 14:02:32.807
52, 86459.88, 101218.44, -187500.02, -187500.02, -187500.02, -187500.02, -187500.02, 187500.00, 0.000, 0.000, 0.000, 14:02:32.808
53, 91800.65, 108120.10, -187500.02, -187500.02, -187500.02, -187500.02, -187500.02, 187500.00, 0.000, 0.000, 0.000, 14:02:32.808
54, 98966.68, 113943.52, -187500.02, -187500.02, -187500.02, -187500.02, -187500.02, 187500.00, 0.000, 0.000, 0.000, 14:02:32.808
55, 92260.69, 105053.17, -187500.02, -187500.02, -187500.02, -187500.02, -187500.02, 187500.00, 0.000, 0.000, 0.000, 14:02:32.808
56, 86368.66, 100732.11, -187500.02, -187500.02, -187500.02, -187500.02, -187500.02, 187500.00, 0.000, 0.000, 0.000, 14:02:32.809
57, 90298.95, 106506.75, -187500.02, -187500.02, -187500.02, -187500.02, -187500.02, 187500.00, 0.424, 0.914, 0.146, 14:02:32.809
58, 98500.63, 113957.77, -187500.02, -187500.02, -187500.02, -187500.02, -187500.02, 187500.00, 0.000, 0.000, 0.000, 14:02:32.809
59, 94087.30, 107002.29, -187500.02, -187500.02, -187500.02, -187500.02, -187500.02, 187500.00, 0.000, 0.000, 0.000, 14:02:32.810
60, 86614.59, 100569.81, -187500.02, -187500.02, -187500.02, -187500.02, -187500.02, 187500.00, 0.000, 0.000, 0.000, 14:02:32.810
61, 89052.05, 105052.99, -187500.02, -187500.02, -187500.02, -187500.02, -187500.02, 187500.00, 0.000, 0.000, 0.000, 14:02:32.810
62, 97565.85, 113408.68, -187500.02, -187500.02, -187500.02, -187500.02, -187500.02, 187500.00, 0.000, 0.000, 0.000, 14:02:32.811
63, 95837.19, 109004.91, -187500.02, -187500.02, -187500.02, -187500.02, -187500.02, 187500.00, 0.000, 0.000, 0.000, 14:02:32.811
64, 87145.60, 100699.43, -187500.02, -187500.02, -187500.02, -187500.02, -187500.02, 187500.00, 0.000, 0.000, 0.000, 14:02:32.812
65, 88014.15, 103740.16, -187500.02, -187500.02, -187500.02, -187500.02, -187500.02, 187500.00, 0.000, 0.000, 0.000, 14:02:32.812
66, 96232.35, 112353.68, -187500.02, -187500.02, -187500.02, -187500.02, -187500.02, 187500.00, 0.000, 0.000, 0.000, 14:02:32.812
67, 97323.88, 110879.40, -187500.02, -187500.02, -187500.02, -187500.02, -187500.02, 187500.00, 0.422, 0.914, 0.150, 14:02:32.813
68, 88095.04, 101312.70, -187500.02, -187500.02, -187500.02, -187500.02, -187500.02, 187500.00, 0.000, 0.000, 0.000, 14:02:32.813
69, 87225.83, 102667.68, -187500.02, -187500.02, -187500.02, -187500.02, -187500.02, 187500.00, 0.000, 0.000, 0.000, 14:02:32.813
70, 94693.52, 110998.20, -187500.02, -187500.02, -187500.02, -187500.02, -187500.02, 187500.00, 0.000, 0.000, 0.000, 14:02:32.814
71, 98427.89, 112465.77, -187500.02, -187500.02, -187500.02, -187500.02, -187500.02, 187500.00, 0.000, 0.000, 0.000, 14:02:32.814
72, 89331.31, 102299.26, -187500.02, -187500.02, -187500.02, -187500.02, -187500.02, 187500.00, 0.000, 0.000, 0.000, 14:02:32.814
73, 86653.91, 101755.09, -187500.02, -187500.02, -187500.02, -187500.02, -187500.02, 187500.00, 0.000, 0.000, 0.000, 14:02:32.815
74, 93012.94, 109401.86, -187500.02, -187500.02, -187500.02, -187500.02, -187500.02, 187500.00, 0.000, 0.000, 0.000, 14:02:33.245
75, 98949.88, 113529.31, -187500.02, -187500.02, -187500.02, -187500.02, -187500.02, 187500.00, 0.000, 0.000, 0.000, 14:02:33.246
76, 90919.95, 103736.21, -187500.02, -187500.02, -187500.02, -187500.02, -187500.02, 187500.00, 0.000, 0.000, 0.000, 14:02:33.246
77, 86392.26, 101090.32, -187500.02, -187500.02, -187500.02, -187500.02, -187500.02, 187500.00, 0.420, 0.918, 0.152, 14:02:33.247
78, 91443.51, 107755.23, -187500.02, -187500.02, -187500.02, -187500.02, -187500.02, 187500.00, 0.000, 0.000, 0.000, 14:02:33.247
79, 98939.95, 114021.95, -187500.02, -187500.02, -187500.02, -187500.02, -187500.02, 187500.00, 0.000, 0.000, 0.000, 14:02:33.248
80, 92712.26, 105501.77, -187500.02, -187500.02, -187500.02, -187500.02, -187500.02, 187500.00, 0.000, 0.000, 0.000, 14:02:33.248
81, 86405.96, 100676.45, -187500.02, -187500.02, -187500.02, -187500.02, -187500.02, 187500.00, 0.000, 0.000, 0.000, 14:02:33.248
82, 90006.94, 106180.41, -187500.02, -187500.02, -187500.02, -187500.02, -187500.02, 187500.00, 0.000, 0.000, 0.000, 14:02:33.249
83, 98356.48, 113902.20, -187500.02, -187500.02, -187500.02, -187500.02, -187500.02, 187500.00, 0.000, 0.000, 0.000, 14:02:33.249
84, 94528.85, 107474.47, -187500.02, -187500.02, -187500.02, -187500.02, -187500.02, 187500.00, 0.000, 0.000, 0.000, 14:02:33.250
85, 86708.60, 100560.34, -187500.02, -187500.02, -187500.02, -187500.02, -187500.02, 187500.00, 0.000, 0.000, 0.000, 14:02:33.250
86, 88793.91, 104720.63, -187500.02, -187500.02, -187500.02, -187500.02, -187500.02, 187500.00, 0.000, 0.000, 0.000, 14:02:33.250
87, 97315.11, 113200.61, -187500.02, -187500.02, -187500.02, -187500.02, -187500.02, 187500.00, 0.424, 0.918, 0.148, 14:02:33.251
88, 96238.70, 109463.44, -187500.02, -187500.02, -187500.02, -187500.02, -187500.02, 187500.00, 0.000, 0.000, 0.000, 14:02:33.251
89, 87328.95, 100820.42, -187500.02, -187500.02, -187500.02, -187500.02, -187500.02, 187500.00, 0.000, 0.000, 0.000, 14:02:33.252
90, 87805.61, 103486.25, -187500.02, -187500.02, -187500.02, -187500.02, -187500.02, 187500.00, 0.000, 0.000, 0.000, 14:02:33.252
91, 95908.88, 112087.13, -187500.02, -187500.02, -187500.02, -187500.02, -187500.02, 187500.00, 0.000, 0.000, 0.000, 14:02:33.253
92, 97645.85, 111313.00, -187500.02, -187500.02, -187500.02, -187500.02, -187500.02, 187500.00, 0.000, 0.000, 0.000, 14:02:33.253
93, 88354.23, 101493.10, -187500.02, -187500.02, -187500.02, -187500.02, -187500.02, 187500.00, 0.000, 0.000, 0.000, 14:02:33.253
94, 87067.66, 102420.70, -187500.02, -187500.02, -187500.02, -187500.02, -187500.02, 187500.00, 0.000, 0.000, 0.000, 14:02:33.254
95, 94299.73, 110646.23, -187500.02, -187500.02, -187500.02, -187500.02, -187500.02, 187500.00, 0.000, 0.000, 0.000, 14:02:33.254
96, 98601.50, 112758.02, -187500.02, -187500.02, -187500.02, -187500.02, -187500.02, 187500.00, 0.420, 0.916, 0.148, 14:02:33.255
97, 89726.36, 102584.45, -187500.02, -187500.02, -187500.02, -187500.02, -187500.02, 187500.00, 0.000, 0.000, 0.000, 14:02:33.255
98, 86618.77, 101562.81, -187500.02, -187500.02, -187500.02, -187500.02, -187500.02, 187500.00, 0.000, 0.000, 0.000, 14:02:33.255
99, 92699.07, 109028.38, -187500.02, -187500.02, -187500.02, -187500.02, -187500.02, 187500.00, 0.000, 0.000, 0.000, 14:02:33.256
100, 99042.95, 113709.29, -187500.02, -187500.02, -187500.02, -187500.02, -187500.02, 187500.00, 0.000, 0.000, 0.000, 14:02:33.256
101, 91328.06, 104101.80, -187500.02, -187500.02, -187500.02, -187500.02, -187500.02, 187500.00, 0.000, 0.000, 0.000, 14:02:33.256
102, 86349.01, 100941.13, -187500.02, -187500.02, -187500.02, -187500.02, -187500.02, 187500.00, 0.000, 0.000, 0.000, 14:02:33.257
103, 91080.54, 107382.38, -187500.02, -187500.02, -187500.02, -187500.02, -187500.02, 187500.00, 0.000, 0.000, 0.000, 14:02:33.257
104, 98851.64, 114062.96, -187500.02, -187500.02, -187500.02, -187500.02, -187500.02, 187500.00, 0.000, 0.000, 0.000, 14:02:33.257
105, 93098.52, 105911.68, -187500.02, -187500.02, -187500.02, -187500.02, -187500.02, 187500.00, 0.000, 0.000, 0.000, 14:02:33.258
106, 86416.22, 100588.32, -187500.02, -187500.02, -187500.02, -187500.02, -187500.02, 187500.00, 0.422, 0.920, 0.146, 14:02:33.259
107, 89714.45, 105842.21, -187500.02, -187500.02, -187500.02, -187500.02, -187500.02, 187500.00, 0.000, 0.000, 0.000, 14:02:33.259
108, 98182.49, 113827.98, -187500.02, -187500.02, -187500.02, -187500.02, -187500.02, 187500.00, 0.000, 0.000, 0.000, 14:02:33.259
109, 94959.64, 107953.63, -187500.02, -187500.02, -187500.02, -187500.02, -187500.02, 187500.00, 0.000, 0.000, 0.000, 14:02:33.260
110, 86837.77, 100573.98, -187500.02, -187500.02, -187500.02, -187500.02, -187500.02, 187500.00, 0.000, 0.000, 0.000, 14:02:33.260
111, 88544.63, 104421.05, -187500.02, -187500.02, -187500.02, -187500.02, -187500.02, 187500.00, 0.000, 0.000, 0.000, 14:02:33.260
112, 97013.01, 113003.04, -187500.02, -187500.02, -187500.02, -187500.02, -187500.02, 187500.00, 0.000, 0.000, 0.000, 14:02:33.261
113, 96620.51, 109919.86, -187500.02, -187500.02, -187500.02, -187500.02, -187500.02, 187500.00, 0.000, 0.000, 0.000, 14:02:33.261
114, 87554.10, 100904.58, -187500.02, -187500.02, -187500.02, -187500.02, -187500.02, 187500.00, 0.000, 0.000, 0.000, 14:02:33.261
115, 87609.27, 103197.58, -187500.02, -187500.02, -187500.02, -187500.02, -187500.02, 187500.00, 0.000, 0.000, 0.000, 14:02:33.262
116, 95535.78, 111777.00, -187500.02, -187500.02, -187500.02, -187500.02, -187500.02, 187500.00, 0.426, 0.920, 0.146, 14:02:33.262
117, 97905.33, 111682.95, -187500.02, -187500.02, -187500.02, -187500.02, -187500.02, 187500.00, 0.000, 0.000, 0.000, 14:02:33.263
118, 88612.73, 101672.41, -187500.02, -187500.02, -187500.02, -187500.02, -187500.02, 187500.00, 0.000, 0.000, 0.000, 14:02:33.263
119, 86904.61, 102164.10, -187500.02, -187500.02, -187500.02, -187500.02, -187500.02, 187500.00, 0.000, 0.000, 0.000, 14:02:33.263
120, 93907.07, 110268.70, -187500.02, -187500.02, -187500.02, -187500.02, -187500.02, 187500.00, 0.000, 0.000, 0.000, 14:02:33.264
121, 98743.74, 113039.12, -187500.02, -187500.02, -187500.02, -187500.02, -187500.02, 187500.00, 0.000, 0.000, 0.000, 14:02:33.264
122, 90044.91, 102893.19, -187500.02, -187500.02, -187500.02, -187500.02, -187500.02, 187500.00, 0.000, 0.000, 0.000, 14:02:33.265
123, 86486.90, 101372.24, -187500.02, -187500.02, -187500.02, -187500.02, -187500.02, 187500.00, 0.000, 0.000, 0.000, 14:02:33.265
124, 92298.80, 108631.13, -187500.02, -187500.02, -187500.02, -187500.02, -187500.02, 187500.00, 0.000, 0.000, 0.000, 14:02:33.265
125, 99057.41, 113849.92, -187500.02, -187500.02, -187500.02, -187500.02, -187500.02, 187500.00, 0.000, 0.000, 0.000, 14:02:33.265
126, 91737.13, 104499.70, -187500.02, -187500.02, -187500.02, -187500.02, -187500.02, 187500.00, 0.424, 0.916, 0.150, 14:02:33.266
127, 86356.90, 100836.61, -187500.02, -187500.02, -187500.02, -187500.02, -187500.02, 187500.00, 0.000, 0.000, 0.000, 14:02:33.266
128, 90766.09, 107015.74, -187500.02, -187500.02, -187500.02, -187500.02, -187500.02, 187500.00, 0.000, 0.000, 0.000, 14:02:33.266
129, 98775.28, 114060.75, -187500.02, -187500.02, -187500.02, -187500.02, -187500.02, 187500.00, 0.000, 0.000, 0.000, 14:02:33.266
130, 93579.06, 106393.61, -187500.02, -187500.02, -187500.02, -187500.02, -187500.02, 187500.00, 0.000, 0.000, 0.000, 14:02:33.267
131, 86507.91, 100569.32, -187500.02, -187500.02, -187500.02, -187500.02, -187500.02, 187500.00, 0.000, 0.000, 0.000, 14:02:33.267
132, 89416.45, 105488.52, -187500.02, -187500.02, -187500.02, -187500.02, -187500.02, 187500.00, 0.000, 0.000, 0.000, 14:02:33.267
133, 97979.54, 113689.22, -187500.02, -187500.02, -187500.02, -187500.02, -187500.02, 187500.00, 0.000, 0.000, 0.000, 14:02:33.268
134, 95400.84, 108421.27, -187500.02, -187500.02, -187500.02, -187500.02, -187500.02, 187500.00, 0.000, 0.000, 0.000, 14:02:33.268
135, 86953.11, 100603.99, -187500.02, -187500.02, -187500.02, -187500.02, -187500.02, 187500.00, 0.000, 0.000, 0.000, 14:02:33.271
136, 88292.38, 104112.84, -187500.02, -187500.02, -187500.02, -187500.02, -187500.02, 187500.00, 0.422, 0.914, 0.148, 14:02:33.272
137, 96703.97, 112753.66, -187500.02, -187500.02, -187500.02, -187500.02, -187500.02, 187500.00, 0.000, 0.000, 0.000, 14:02:33.272
138, 96945.62, 110354.73, -187500.02, -187500.02, -187500.02, -187500.02, -187500.02, 187500.00, 0.000, 0.000, 0.000, 14:02:33.272
139, 87749.46, 101033.21, -187500.02, -187500.02, -187500.02, -187500.02, -187500.02, 187500.00, 0.000, 0.000, 0.000, 14:02:33.273
140, 87398.76, 102934.67, -187500.02, -187500.02, -187500.02, -187500.02, -187500.02, 187500.00, 0.000, 0.000, 0.000, 14:02:33.273
141, 95168.23, 111448.23, -187500.02, -187500.02, -187500.02, -187500.02, -187500.02, 187500.00, 0.000, 0.000, 0.000, 14:02:33.273
142, 98177.13, 112050.09, -187500.02, -187500.02, -187500.02, -187500.02, -187500.02, 187500.00, 0.000, 0.000, 0.000, 14:02:33.273
143, 88912.69, 101916.22, -187500.02, -187500.02, -187500.02, -187500.02, -187500.02, 187500.00, 0.000, 0.000, 0.000, 14:02:33.274
144, 86772.27, 101959.27, -187500.02, -187500.02, -187500.02, -187500.02, -187500.02, 187500.00, 0.000, 0.000, 0.000, 14:02:33.274
145, 93515.72, 109898.85, -187500.02, -187500.02, -187500.02, -187500.02, -187500.02, 187500.00, 0.000, 0.000, 0.000, 14:02:33.274
146, 98875.76, 113297.48, -187500.02, -187500.02, -187500.02, -187500.02, -187500.02, 187500.00, 0.422, 0.914, 0.146, 14:02:33.275
147, 90427.47, 103243.73, -187500.02, -187500.02, -187500.02, -187500.02, -187500.02, 187500.00, 0.000, 0.000, 0.000, 14:02:33.275
148, 86435.00, 101225.03, -187500.02, -187500.02, -187500.02, -187500.02, -187500.02, 187500.00, 0.000, 0.000, 0.000, 14:02:33.275
149, 91930.17, 108257.14, -187500.02, -187500.02, -187500.02, -187500.02, -187500.02, 187500.00, 0.000, 0.000, 0.000, 14:02:33.276
