%OpenBCI Raw EEG Data
%
%Sample Rate = 250.0 Hz
%First Column = SampleIndex
%Last Column = Timestamp 
%Other Columns = EEG data in microvolts followed by Accel Data (in G) interleaved with Aux Data
0, 0.00, 0.00, 0.00, 0.00, 0.00, 0.00, 0.00, 0.00, 0.000, 0.000, 0.000, 13:43:30.125
1, 47929.80, 84459.80, -187500.02, -187500.02, -187500.02, -187500.02, -187500.02, 187500.00, 0.300, 0.972, -0.104, 13:43:30.140
2, 48092.37, 84572.98, -187500.02, -187500.02, -187500.02, -187500.02, -187500.02, 187500.00, 0.000, 0.000, 0.000, 13:43:30.619
3, 46984.68, 83883.73, -187500.02, -187500.02, -187500.02, -187500.02, -187500.02, 187500.00, 0.000, 0.000, 0.000, 13:43:30.620
4, 46933.10, 83824.13, -187500.02, -187500.02, -187500.02, -187500.02, -187500.02, 187500.00, 0.000, 0.000, 0.000, 13:43:30.620
5, 47741.83, 84329.38, -187500.02, -187500.02, -187500.02, -187500.02, -187500.02, 187500.00, 0.000, 0.000, 0.000, 13:43:30.620
6, 48195.52, 84631.15, -187500.02, -187500.02, -187500.02, -187500.02, -187500.02, 187500.00, 0.000, 0.000, 0.000, 13:43:30.620
7, 47112.80, 83960.66, -187500.02, -187500.02, -187500.02, -187500.02, -187500.02, 187500.00, 0.000, 0.000, 0.000, 13:43:30.620
8, 46852.65, 83782.36, -187500.02, -187500.02, -187500.02, -187500.02, -187500.02, 187500.00, 0.296, 0.970, -0.112, 13:43:30.620
9, 47565.81, 84220.01, -187500.02, -187500.02, -187500.02, -187500.02, -187500.02, 187500.00, 0.000, 0.000, 0.000, 13:43:30.620
10, 48286.11, 84677.81, -187500.02, -187500.02, -187500.02, -187500.02, -187500.02, 187500.00, 0.000, 0.000, 0.000, 13:43:30.620
11, 47319.42, 84082.56, -187500.02, -187500.02, -187500.02, -187500.02, -187500.02, 187500.00, 0.000, 0.000, 0.000, 13:43:30.620
12, 46792.10, 83740.74, -187500.02, -187500.02, -187500.02, -187500.02, -187500.02, 187500.00, 0.000, 0.000, 0.000, 13:43:30.620
13, 47442.02, 84122.11, -187500.02, -187500.02, -187500.02, -187500.02, -187500.02, 187500.00, 0.000, 0.000, 0.000, 13:43:30.621
14, 48297.34, 84663.84, -187500.02, -187500.02, -187500.02, -187500.02, -187500.02, 187500.00, 0.000, 0.000, 0.000, 13:43:30.621
15, 47553.43, 84220.32, -187500.02, -187500.02, -187500.02, -187500.02, -187500.02, 187500.00, 0.000, 0.000, 0.000, 13:43:30.621
16, 46784.75, 83732.98, -187500.02, -187500.02, -187500.02, -187500.02, -187500.02, 187500.00, 0.000, 0.000, 0.000, 13:43:30.621
17, 47258.36, 84021.48, -187500.02, -187500.02, -187500.02, -187500.02, -187500.02, 187500.00, 0.298, 0.962, -0.104, 13:43:30.621
18, 48238.84, 84659.66, -187500.02, -187500.02, -187500.02, -187500.02, -187500.02, 187500.00, 0.000, 0.000, 0.000, 13:43:30.621
19, 47784.68, 84378.81, -187500.02, -187500.02, -187500.02, -187500.02, -187500.02, 187500.00, 0.000, 0.000, 0.000, 13:43:30.621
20, 46775.54, 83723.48, -187500.02, -187500.02, -187500.02, -187500.02, -187500.02, 187500.00, 0.000, 0.000, 0.000, 13:43:30.621
21, 47069.40, 83909.74, -187500.02, -187500.02, -187500.02, -187500.02, -187500.02, 187500.00, 0.000, 0.000, 0.000, 13:43:30.621
22, 48086.76, 84563.02, -187500.02, -187500.02, -187500.02, -187500.02, -187500.02, 187500.00, 0.000, 0.000, 0.000, 13:43:30.621
23, 48025.27, 84520.57, -187500.02, -187500.02, -187500.02, -187500.02, -187500.02, 187500.00, 0.000, 0.000, 0.000, 13:43:30.621
24, 46829.74, 83779.37, -187500.02, -187500.02, -187500.02, -187500.02, -187500.02, 187500.00, 0.000, 0.000, 0.000, 13:43:30.622
25, 46964.12, 83858.89, -187500.02, -187500.02, -187500.02, -187500.02, -187500.02, 187500.00, 0.000, 0.000, 0.000, 13:43:30.622
26, 47978.89, 84483.55, -187500.02, -187500.02, -187500.02, -187500.02, -187500.02, 187500.00, 0.000, 0.000, 0.000, 13:43:30.622
27, 48236.72, 84642.05, -187500.02, -187500.02, -187500.02, -187500.02, -187500.02, 187500.00, 0.298, 0.974, -0.108, 13:43:30.622
28, 46935.73, 83812.09, -187500.02, -187500.02, -187500.02, -187500.02, -187500.02, 187500.00, 0.000, 0.000, 0.000, 13:43:30.622
29, 46851.29, 83748.48, -187500.02, -187500.02, -187500.02, -187500.02, -187500.02, 187500.00, 0.000, 0.000, 0.000, 13:43:30.622
30, 47774.33, 84340.73, -187500.02, -187500.02, -187500.02, -187500.02, -187500.02, 187500.00, 0.000, 0.000, 0.000, 13:43:30.622
31, 48348.59, 84730.95, -187500.02, -187500.02, -187500.02, -187500.02, -187500.02, 187500.00, 0.000, 0.000, 0.000, 13:43:30.622
32, 47129.59, 83942.84, -187500.02, -187500.02, -187500.02, -187500.02, -187500.02, 187500.00, 0.000, 0.000, 0.000, 13:43:30.622
33, 46749.79, 83684.68, -187500.02, -187500.02, -187500.02, -187500.02, -187500.02, 187500.00, 0.000, 0.000, 0.000, 13:43:30.622
34, 47571.60, 84214.46, -187500.02, -187500.02, -187500.02, -187500.02, -187500.02, 187500.00, 0.000, 0.000, 0.000, 13:43:30.623
35, 48470.94, 84788.19, -187500.02, -187500.02, -187500.02, -187500.02, -187500.02, 187500.00, 0.000, 0.000, 0.000, 13:43:30.623
36, 47386.97, 84085.31, -187500.02, -187500.02, -187500.02, -187500.02, -187500.02, 187500.00, 0.000, 0.000, 0.000, 13:43:30.623
37, 46692.43, 83640.45, -187500.02, -187500.02, -187500.02, -187500.02, -187500.02, 187500.00, 0.292, 0.978, -0.106, 13:43:30.623
38, 47396.43, 84087.66, -187500.02, -187500.02, -187500.02, -187500.02, -187500.02, 187500.00, 0.000, 0.000, 0.000, 13:43:30.623
39, 48467.41, 84792.52, -187500.02, -187500.02, -187500.02, -187500.02, -187500.02, 187500.00, 0.000, 0.000, 0.000, 13:43:30.623
40, 47605.13, 84251.19, -187500.02, -187500.02, -187500.02, -187500.02, -187500.02, 187500.00, 0.000, 0.000, 0.000, 13:43:30.623
41, 46592.84, 83601.45, -187500.02, -187500.02, -187500.02, -187500.02, -187500.02, 187500.00, 0.000, 0.000, 0.000, 13:43:30.623
42, 47169.67, 83958.13, -187500.02, -187500.02, -187500.02, -187500.02, -187500.02, 187500.00, 0.000, 0.000, 0.000, 13:43:30.623
43, 48402.12, 84756.78, -187500.02, -187500.02, -187500.02, -187500.02, -187500.02, 187500.00, 0.000, 0.000, 0.000, 13:43:30.623
44, 47924.80, 84447.97, -187500.02, -187500.02, -187500.02, -187500.02, -187500.02, 187500.00, 0.000, 0.000, 0.000, 13:43:30.623
45, 46632.93, 83618.27, -187500.02, -187500.02, -187500.02, -187500.02, -187500.02, 187500.00, 0.000, 0.000, 0.000, 13:43:30.624
46, 46983.61, 83843.11, -187500.02, -187500.02, -187500.02, -187500.02, -187500.02, 187500.00, 0.000, 0.000, 0.000, 13:43:30.624
47, 48231.46, 84659.95, -187500.02, -187500.02, -187500.02, -187500.02, -187500.02, 187500.00, 0.300, 0.976, -0.106, 13:43:30.624
48, 48175.63, 84621.40, -187500.02, -187500.02, -187500.02, -187500.02, -187500.02, 187500.00, 0.000, 0.000, 0.000, 13:43:30.624
49, 46683.50, 83662.55, -187500.02, -187500.02, -187500.02, -187500.02, -187500.02, 187500.00, 0.000, 0.000, 0.000, 13:43:30.624
50, 46825.20, 83744.12, -187500.02, -187500.02, -187500.02, -187500.02, -187500.02, 187500.00, 0.000, 0.000, 0.000, 13:43:30.624
51, 48067.89, 84535.13, -187500.02, -187500.02, -187500.02, -187500.02, -187500.02, 187500.00, 0.000, 0.000, 0.000, 13:43:30.624
52, 48451.29, 84781.82, -187500.02, -187500.02, -187500.02, -187500.02, -187500.02, 187500.00, 0.000, 0.000, 0.000, 13:43:30.624
53, 46849.46, 83776.26, -187500.02, -187500.02, -187500.02, -187500.02, -187500.02, 187500.00, 0.000, 0.000, 0.000, 13:43:30.624
54, 46660.65, 83654.44, -187500.02, -187500.02, -187500.02, -187500.02, -187500.02, 187500.00, 0.000, 0.000, 0.000, 13:43:30.625
55, 47846.48, 84391.71, -187500.02, -187500.02, -187500.02, -187500.02, -187500.02, 187500.00, 0.000, 0.000, 0.000, 13:43:30.625
56, 48641.30, 84897.22, -187500.02, -187500.02, -187500.02, -187500.02, -187500.02, 187500.00, 0.000, 0.000, 0.000, 13:43:30.625
57, 47071.92, 83930.20, -187500.02, -187500.02, -187500.02, -187500.02, -187500.02, 187500.00, 0.298, 0.980, -0.110, 13:43:30.625
58, 46516.55, 83575.83, -187500.02, -187500.02, -187500.02, -187500.02, -187500.02, 187500.00, 0.000, 0.000, 0.000, 13:43:30.625
59, 47558.68, 84220.68, -187500.02, -187500.02, -187500.02, -187500.02, -187500.02, 187500.00, 0.000, 0.000, 0.000, 13:43:30.625
60, 48702.26, 84947.20, -187500.02, -187500.02, -187500.02, -187500.02, -187500.02, 187500.00, 0.000, 0.000, 0.000, 13:43:30.625
61, 47342.76, 84109.25, -187500.02, -187500.02, -187500.02, -187500.02, -187500.02, 187500.00, 0.000, 0.000, 0.000, 13:43:30.625
62, 46387.45, 83511.50, -187500.02, -187500.02, -187500.02, -187500.02, -187500.02, 187500.00, 0.000, 0.000, 0.000, 13:43:30.625
63, 47263.30, 84045.10, -187500.02, -187500.02, -187500.02, -187500.02, -187500.02, 187500.00, 0.000, 0.000, 0.000, 13:43:30.626
64, 48690.08, 84923.35, -187500.02, -187500.02, -187500.02, -187500.02, -187500.02, 187500.00, 0.000, 0.000, 0.000, 13:43:30.626
65, 47722.89, 84329.04, -187500.02, -187500.02, -187500.02, -187500.02, -187500.02, 187500.00, 0.000, 0.000, 0.000, 13:43:30.626
66, 46416.46, 83507.63, -187500.02, -187500.02, -187500.02, -187500.02, -187500.02, 187500.00, 0.000, 0.000, 0.000, 13:43:30.626
67, 47083.01, 83906.12, -187500.02, -187500.02, -187500.02, -187500.02, -187500.02, 187500.00, 0.292, 0.972, -0.108, 13:43:30.626
68, 48598.86, 84862.35, -187500.02, -187500.02, -187500.02, -187500.02, -187500.02, 187500.00, 0.000, 0.000, 0.000, 13:43:30.627
69, 48070.66, 84543.15, -187500.02, -187500.02, -187500.02, -187500.02, -187500.02, 187500.00, 0.000, 0.000, 0.000, 13:43:30.627
70, 46394.29, 83503.12, -187500.02, -187500.02, -187500.02, -187500.02, -187500.02, 187500.00, 0.000, 0.000, 0.000, 13:43:30.627
71, 46800.62, 83731.38, -187500.02, -187500.02, -187500.02, -187500.02, -187500.02, 187500.00, 0.000, 0.000, 0.000, 13:43:30.627
72, 48370.43, 84709.78, -187500.02, -187500.02, -187500.02, -187500.02, -187500.02, 187500.00, 0.000, 0.000, 0.000, 13:43:30.627
73, 48382.70, 84754.44, -187500.02, -187500.02, -187500.02, -187500.02, -187500.02, 187500.00, 0.000, 0.000, 0.000, 13:43:30.627
74, 46497.37, 83590.41, -187500.02, -187500.02, -187500.02, -187500.02, -187500.02, 187500.00, 0.000, 0.000, 0.000, 13:43:30.627
75, 46588.19, 83628.42, -187500.02, -187500.02, -187500.02, -187500.02, -187500.02, 187500.00, 0.000, 0.000, 0.000, 13:43:30.627
76, 48129.94, 84575.66, -187500.02, -187500.02, -187500.02, -187500.02, -187500.02, 187500.00, 0.000, 0.000, 0.000, 13:43:30.627
77, 48717.55, 84931.17, -187500.02, -187500.02, -187500.02, -187500.02, -187500.02, 187500.00, 0.294, 0.958, -0.112, 13:43:30.627
78, 46728.51, 83707.62, -187500.02, -187500.02, -187500.02, -187500.02, -187500.02, 187500.00, 0.000, 0.000, 0.000, 13:43:30.628
79, 46415.43, 83508.38, -187500.02, -187500.02, -187500.02, -187500.02, -187500.02, 187500.00, 0.000, 0.000, 0.000, 13:43:30.628
80, 47846.99, 84380.91, -187500.02, -187500.02, -187500.02, -187500.02, -187500.02, 187500.00, 0.000, 0.000, 0.000, 13:43:30.628
81, 48908.48, 85038.37, -187500.02, -187500.02, -187500.02, -187500.02, -187500.02, 187500.00, 0.000, 0.000, 0.000, 13:43:30.628
82, 47026.77, 83887.86, -187500.02, -187500.02, -187500.02, -187500.02, -187500.02, 187500.00, 0.000, 0.000, 0.000, 13:43:30.628
83, 46263.86, 83415.77, -187500.02, -187500.02, -187500.02, -187500.02, -187500.02, 187500.00, 0.000, 0.000, 0.000, 13:43:30.628
84, 47523.94, 84174.45, -187500.02, -187500.02, -187500.02, -187500.02, -187500.02, 187500.00, 0.000, 0.000, 0.000, 13:43:30.628
85, 48991.11, 85079.09, -187500.02, -187500.02, -187500.02, -187500.02, -187500.02, 187500.00, 0.000, 0.000, 0.000, 13:43:30.628
86, 47411.18, 84124.68, -187500.02, -187500.02, -187500.02, -187500.02, -187500.02, 187500.00, 0.298, 0.962, -0.110, 13:43:30.628
87, 46164.09, 83368.16, -187500.02, -187500.02, -187500.02, -187500.02, -187500.02, 187500.00, 0.000, 0.000, 0.000, 13:43:30.629
88, 47211.33, 83997.98, -187500.02, -187500.02, -187500.02, -187500.02, -187500.02, 187500.00, 0.000, 0.000, 0.000, 13:43:30.629
89, 48936.64, 85060.99, -187500.02, -187500.02, -187500.02, -187500.02, -187500.02, 187500.00, 0.000, 0.000, 0.000, 13:43:30.629
90, 47812.44, 84381.38, -187500.02, -187500.02, -187500.02, -187500.02, -187500.02, 187500.00, 0.000, 0.000, 0.000, 13:43:30.629
91, 46117.48, 83336.89, -187500.02, -187500.02, -187500.02, -187500.02, -187500.02, 187500.00, 0.000, 0.000, 0.000, 13:43:30.629
92, 46892.57, 83814.86, -187500.02, -187500.02, -187500.02, -187500.02, -187500.02, 187500.00, 0.000, 0.000, 0.000, 13:43:30.629
93, 48778.21, 84984.66, -187500.02, -187500.02, -187500.02, -187500.02, -187500.02, 187500.00, 0.000, 0.000, 0.000, 13:43:30.629
94, 48259.16, 84680.41, -187500.02, -187500.02, -187500.02, -187500.02, -187500.02, 187500.00, 0.000, 0.000, 0.000, 13:43:30.629
95, 46167.44, 83399.52, -187500.02, -187500.02, -187500.02, -187500.02, -187500.02, 187500.00, 0.000, 0.000, 0.000, 13:43:30.629
96, 46611.95, 83639.24, -187500.02, -187500.02, -187500.02, -187500.02, -187500.02, 187500.00, 0.300, 0.976, -0.120, 13:43:30.629
97, 48518.80, 84817.63, -187500.02, -187500.02, -187500.02, -187500.02, -187500.02, 187500.00, 0.000, 0.000, 0.000, 13:43:30.630
98, 48669.34, 84919.66, -187500.02, -187500.02, -187500.02, -187500.02, -187500.02, 187500.00, 0.000, 0.000, 0.000, 13:43:30.630
99, 46377.54, 83471.67, -187500.02, -187500.02, -187500.02, -187500.02, -187500.02, 187500.00, 0.000, 0.000, 0.000, 13:43:30.630
100, 46402.76, 83464.18, -187500.02, -187500.02, -187500.02, -187500.02, -187500.02, 187500.00, 0.000, 0.000, 0.000, 13:43:30.630
101, 48188.15, 84591.72, -187500.02, -187500.02, -187500.02, -187500.02, -187500.02, 187500.00, 0.000, 0.000, 0.000, 13:43:30.630
102, 48971.78, 85100.09, -187500.02, -187500.02, -187500.02, -187500.02, -187500.02, 187500.00, 0.000, 0.000, 0.000, 13:43:30.630
103, 46667.94, 83647.51, -187500.02, -187500.02, -187500.02, -187500.02, -187500.02, 187500.00, 0.000, 0.000, 0.000, 13:43:30.630
104, 46203.00, 83331.63, -187500.02, -187500.02, -187500.02, -187500.02, -187500.02, 187500.00, 0.000, 0.000, 0.000, 13:43:30.630
105, 47823.70, 84373.02, -187500.02, -187500.02, -187500.02, -187500.02, -187500.02, 187500.00, 0.000, 0.000, 0.000, 13:43:30.631
106, 49148.67, 85250.35, -187500.02, -187500.02, -187500.02, -187500.02, -187500.02, 187500.00, 0.302, 0.972, -0.118, 13:43:30.631
107, 47040.94, 83892.29, -187500.02, -187500.02, -187500.02, -187500.02, -187500.02, 187500.00, 0.000, 0.000, 0.000, 13:43:30.631
108, 46055.57, 83234.23, -187500.02, -187500.02, -187500.02, -187500.02, -187500.02, 187500.00, 0.000, 0.000, 0.000, 13:43:30.631
109, 47451.86, 84129.41, -187500.02, -187500.02, -187500.02, -187500.02, -187500.02, 187500.00, 0.000, 0.000, 0.000, 13:43:30.631
110, 49174.11, 85276.33, -187500.02, -187500.02, -187500.02, -187500.02, -187500.02, 187500.00, 0.000, 0.000, 0.000, 13:43:30.631
111, 47494.97, 84173.91, -187500.02, -187500.02, -187500.02, -187500.02, -187500.02, 187500.00, 0.000, 0.000, 0.000, 13:43:30.631
112, 46007.91, 83181.59, -187500.02, -187500.02, -187500.02, -187500.02, -187500.02, 187500.00, 0.000, 0.000, 0.000, 13:43:30.631
113, 47104.31, 83905.85, -187500.02, -187500.02, -187500.02, -187500.02, -187500.02, 187500.00, 0.000, 0.000, 0.000, 13:43:30.631
114, 49057.47, 85227.63, -187500.02, -187500.02, -187500.02, -187500.02, -187500.02, 187500.00, 0.000, 0.000, 0.000, 13:43:30.631
115, 47942.72, 84502.02, -187500.02, -187500.02, -187500.02, -187500.02, -187500.02, 187500.00, 0.000, 0.000, 0.000, 13:43:30.632
116, 45991.51, 83178.69, -187500.02, -187500.02, -187500.02, -187500.02, -187500.02, 187500.00, 0.302, 0.968, -0.116, 13:43:30.632
117, 46792.55, 83690.49, -187500.02, -187500.02, -187500.02, -187500.02, -187500.02, 187500.00, 0.000, 0.000, 0.000, 13:43:30.632
118, 48853.34, 85098.41, -187500.02, -187500.02, -187500.02, -187500.02, -187500.02, 187500.00, 0.000, 0.000, 0.000, 13:43:30.632
119, 48444.01, 84832.98, -187500.02, -187500.02, -187500.02, -187500.02, -187500.02, 187500.00, 0.000, 0.000, 0.000, 13:43:30.632
120, 46141.00, 83261.09, -187500.02, -187500.02, -187500.02, -187500.02, -187500.02, 187500.00, 0.000, 0.000, 0.000, 13:43:30.632
121, 46519.66, 83498.42, -187500.02, -187500.02, -187500.02, -187500.02, -187500.02, 187500.00, 0.000, 0.000, 0.000, 13:43:30.632
122, 48528.25, 84873.21, -187500.02, -187500.02, -187500.02, -187500.02, -187500.02, 187500.00, 0.000, 0.000, 0.000, 13:43:30.632
123, 48850.61, 85090.36, -187500.02, -187500.02, -187500.02, -187500.02, -187500.02, 187500.00, 0.000, 0.000, 0.000, 13:43:31.099
124, 46378.41, 83403.54, -187500.02, -187500.02, -187500.02, -187500.02, -187500.02, 187500.00, 0.000, 0.000, 0.000, 13:43:31.099
125, 46290.42, 83341.16, -187500.02, -187500.02, -187500.02, -187500.02, -187500.02, 187500.00, 0.000, 0.000, 0.000, 13:43:31.099
126, 48177.48, 84640.22, -187500.02, -187500.02, -187500.02, -187500.02, -187500.02, 187500.00, 0.294, 0.976, -0.112, 13:43:31.100
127, 49122.72, 85306.50, -187500.02, -187500.02, -187500.02, -187500.02, -187500.02, 187500.00, 0.000, 0.000, 0.000, 13:43:31.100
128, 46676.70, 83627.95, -187500.02, -187500.02, -187500.02, -187500.02, -187500.02, 187500.00, 0.000, 0.000, 0.000, 13:43:31.100
129, 46080.78, 83191.27, -187500.02, -187500.02, -187500.02, -187500.02, -187500.02, 187500.00, 0.000, 0.000, 0.000, 13:43:31.100
130, 47751.01, 84354.50, -187500.02, -187500.02, -187500.02, -187500.02, -187500.02, 187500.00, 0.000, 0.000, 0.000, 13:43:31.100
131, 49246.77, 85435.70, -187500.02, -187500.02, -187500.02, -187500.02, -187500.02, 187500.00, 0.000, 0.000, 0.000, 13:43:31.100
132, 47107.04, 83921.05, -187500.02, -187500.02, -187500.02, -187500.02, -187500.02, 187500.00, 0.000, 0.000, 0.000, 13:43:31.100
133, 45984.71, 83091.38, -187500.02, -187500.02, -187500.02, -187500.02, -187500.02, 187500.00, 0.000, 0.000, 0.000, 13:43:31.100
134, 47408.43, 84086.57, -187500.02, -187500.02, -187500.02, -187500.02, -187500.02, 187500.00, 0.000, 0.000, 0.000, 13:43:31.100
135, 49268.94, 85435.98, -187500.02, -187500.02, -187500.02, -187500.02, -187500.02, 187500.00, 0.000, 0.000, 0.000, 13:43:31.101
136, 47603.85, 84255.23, -187500.02, -187500.02, -187500.02, -187500.02, -187500.02, 187500.00, 0.294, 0.970, -0.110, 13:43:31.101
137, 45930.44, 83046.65, -187500.02, -187500.02, -187500.02, -187500.02, -187500.02, 187500.00, 0.000, 0.000, 0.000, 13:43:31.101
138, 47029.39, 83829.86, -187500.02, -187500.02, -187500.02, -187500.02, -187500.02, 187500.00, 0.000, 0.000, 0.000, 13:43:31.101
139, 49104.86, 85348.59, -187500.02, -187500.02, -187500.02, -187500.02, -187500.02, 187500.00, 0.000, 0.000, 0.000, 13:43:31.101
140, 48086.69, 84622.70, -187500.02, -187500.02, -187500.02, -187500.02, -187500.02, 187500.00, 0.000, 0.000, 0.000, 13:43:31.101
141, 45984.71, 83066.66, -187500.02, -187500.02, -187500.02, -187500.02, -187500.02, 187500.00, 0.000, 0.000, 0.000, 13:43:31.101
142, 46719.37, 83577.13, -187500.02, -187500.02, -187500.02, -187500.02, -187500.02, 187500.00, 0.000, 0.000, 0.000, 13:43:31.101
143, 48820.86, 85148.61, -187500.02, -187500.02, -187500.02, -187500.02, -187500.02, 187500.00, 0.000, 0.000, 0.000, 13:43:31.101
144, 48542.58, 84957.77, -187500.02, -187500.02, -187500.02, -187500.02, -187500.02, 187500.00, 0.000, 0.000, 0.000, 13:43:31.102
145, 46143.27, 83178.20, -187500.02, -187500.02, -187500.02, -187500.02, -187500.02, 187500.00, 0.296, 0.958, -0.110, 13:43:31.102
146, 46420.93, 83383.98, -187500.02, -187500.02, -187500.02, -187500.02, -187500.02, 187500.00, 0.000, 0.000, 0.000, 13:43:31.102
147, 48472.19, 84895.61, -187500.02, -187500.02, -187500.02, -187500.02, -187500.02, 187500.00, 0.000, 0.000, 0.000, 13:43:31.102
148, 48932.66, 85249.39, -187500.02, -187500.02, -187500.02, -187500.02, -187500.02, 187500.00, 0.000, 0.000, 0.000, 13:43:31.102
149, 46398.51, 83386.63, -187500.02, -187500.02, -187500.02, -187500.02, -187500.02, 187500.00, 0.000, 0.000, 0.000, 13:43:31.102
150, 46209.75, 83235.30, -187500.02, -187500.02, -187500.02, -187500.02, -187500.02, 187500.00, 0.000, 0.000, 0.000, 13:43:31.102
151, 48103.28, 84645.41, -187500.02, -187500.02, -187500.02, -187500.02, -187500.02, 187500.00, 0.000, 0.000, 0.000, 13:43:31.102
152, 49173.30, 85463.97, -187500.02, -187500.02, -187500.02, -187500.02, -187500.02, 187500.00, 0.000, 0.000, 0.000, 13:43:31.102
153, 46745.21, 83650.13, -187500.02, -187500.02, -187500.02, -187500.02, -187500.02, 187500.00, 0.000, 0.000, 0.000, 13:43:31.103
154, 46068.35, 83098.75, -187500.02, -187500.02, -187500.02, -187500.02, -187500.02, 187500.00, 0.000, 0.000, 0.000, 13:43:31.103
155, 47746.30, 84338.02, -187500.02, -187500.02, -187500.02, -187500.02, -187500.02, 187500.00, 0.302, 0.972, -0.118, 13:43:31.103
156, 49324.58, 85541.80, -187500.02, -187500.02, -187500.02, -187500.02, -187500.02, 187500.00, 0.000, 0.000, 0.000, 13:43:31.103
157, 47186.65, 83960.26, -187500.02, -187500.02, -187500.02, -187500.02, -187500.02, 187500.00, 0.000, 0.000, 0.000, 13:43:31.103
158, 45910.48, 82981.50, -187500.02, -187500.02, -187500.02, -187500.02, -187500.02, 187500.00, 0.000, 0.000, 0.000, 13:43:31.103
159, 47292.47, 84005.85, -187500.02, -187500.02, -187500.02, -187500.02, -187500.02, 187500.00, 0.000, 0.000, 0.000, 13:43:31.105
160, 49250.77, 85501.70, -187500.02, -187500.02, -187500.02, -187500.02, -187500.02, 187500.00, 0.000, 0.000, 0.000, 13:43:31.105
161, 47666.86, 84325.04, -187500.02, -187500.02, -187500.02, -187500.02, -187500.02, 187500.00, 0.000, 0.000, 0.000, 13:43:31.105
162, 45874.45, 82944.52, -187500.02, -187500.02, -187500.02, -187500.02, -187500.02, 187500.00, 0.000, 0.000, 0.000, 13:43:31.105
163, 46964.23, 83750.11, -187500.02, -187500.02, -187500.02, -187500.02, -187500.02, 187500.00, 0.000, 0.000, 0.000, 13:43:31.105
164, 49083.27, 85396.36, -187500.02, -187500.02, -187500.02, -187500.02, -187500.02, 187500.00, 0.000, 0.000, 0.000, 13:43:31.106
165, 48150.46, 84717.27, -187500.02, -187500.02, -187500.02, -187500.02, -187500.02, 187500.00, 0.304, 0.968, -0.114, 13:43:31.106
166, 45940.43, 82994.91, -187500.02, -187500.02, -187500.02, -187500.02, -187500.02, 187500.00, 0.000, 0.000, 0.000, 13:43:31.106
167, 46652.74, 83500.64, -187500.02, -187500.02, -187500.02, -187500.02, -187500.02, 187500.00, 0.000, 0.000, 0.000, 13:43:31.106
168, 48800.29, 85185.00, -187500.02, -187500.02, -187500.02, -187500.02, -187500.02, 187500.00, 0.000, 0.000, 0.000, 13:43:31.106
169, 48633.62, 85088.41, -187500.02, -187500.02, -187500.02, -187500.02, -187500.02, 187500.00, 0.000, 0.000, 0.000, 13:43:31.106
170, 46118.80, 83136.73, -187500.02, -187500.02, -187500.02, -187500.02, -187500.02, 187500.00, 0.000, 0.000, 0.000, 13:43:31.106
171, 46331.90, 83293.75, -187500.02, -187500.02, -187500.02, -187500.02, -187500.02, 187500.00, 0.000, 0.000, 0.000, 13:43:31.106
172, 48392.75, 84913.38, -187500.02, -187500.02, -187500.02, -187500.02, -187500.02, 187500.00, 0.000, 0.000, 0.000, 13:43:31.106
173, 48954.30, 85370.23, -187500.02, -187500.02, -187500.02, -187500.02, -187500.02, 187500.00, 0.000, 0.000, 0.000, 13:43:31.106
174, 46387.04, 83343.82, -187500.02, -187500.02, -187500.02, -187500.02, -187500.02, 187500.00, 0.000, 0.000, 0.000, 13:43:31.107
175, 46121.50, 83111.12, -187500.02, -187500.02, -187500.02, -187500.02, -187500.02, 187500.00, 0.300, 0.978, -0.108, 13:43:31.107
176, 48025.58, 84608.75, -187500.02, -187500.02, -187500.02, -187500.02, -187500.02, 187500.00, 0.000, 0.000, 0.000, 13:43:31.107
177, 49241.54, 85581.72, -187500.02, -187500.02, -187500.02, -187500.02, -187500.02, 187500.00, 0.000, 0.000, 0.000, 13:43:31.107
178, 46779.38, 83666.82, -187500.02, -187500.02, -187500.02, -187500.02, -187500.02, 187500.00, 0.000, 0.000, 0.000, 13:43:31.107
179, 45961.02, 82987.42, -187500.02, -187500.02, -187500.02, -187500.02, -187500.02, 187500.00, 0.000, 0.000, 0.000, 13:43:31.107
180, 47619.09, 84289.43, -187500.02, -187500.02, -187500.02, -187500.02, -187500.02, 187500.00, 0.000, 0.000, 0.000, 13:43:31.107
181, 49302.65, 85660.33, -187500.02, -187500.02, -187500.02, -187500.02, -187500.02, 187500.00, 0.000, 0.000, 0.000, 13:43:31.107
182, 47244.19, 84053.53, -187500.02, -187500.02, -187500.02, -187500.02, -187500.02, 187500.00, 0.000, 0.000, 0.000, 13:43:31.107
183, 45859.34, 82917.10, -187500.02, -187500.02, -187500.02, -187500.02, -187500.02, 187500.00, 0.000, 0.000, 0.000, 13:43:31.107
184, 47232.48, 83969.60, -187500.02, -187500.02, -187500.02, -187500.02, -187500.02, 187500.00, 0.000, 0.000, 0.000, 13:43:31.107
185, 49273.03, 85605.23, -187500.02, -187500.02, -187500.02, -187500.02, -187500.02, 187500.00, 0.294, 0.976, -0.106, 13:43:31.108
186, 47805.53, 84462.75, -187500.02, -187500.02, -187500.02, -187500.02, -187500.02, 187500.00, 0.000, 0.000, 0.000, 13:43:31.108
187, 45863.36, 82905.55, -187500.02, -187500.02, -187500.02, -187500.02, -187500.02, 187500.00, 0.000, 0.000, 0.000, 13:43:31.108
188, 46870.00, 83684.13, -187500.02, -187500.02, -187500.02, -187500.02, -187500.02, 187500.00, 0.000, 0.000, 0.000, 13:43:31.108
189, 49082.37, 85454.96, -187500.02, -187500.02, -187500.02, -187500.02, -187500.02, 187500.00, 0.000, 0.000, 0.000, 13:43:31.108
190, 48314.77, 84857.97, -187500.02, -187500.02, -187500.02, -187500.02, -187500.02, 187500.00, 0.000, 0.000, 0.000, 13:43:31.108
191, 45943.32, 82956.71, -187500.02, -187500.02, -187500.02, -187500.02, -187500.02, 187500.00, 0.000, 0.000, 0.000, 13:43:31.108
192, 46525.94, 83414.34, -187500.02, -187500.02, -187500.02, -187500.02, -187500.02, 187500.00, 0.000, 0.000, 0.000, 13:43:31.108
193, 48748.21, 85206.37, -187500.02, -187500.02, -187500.02, -187500.02, -187500.02, 187500.00, 0.000, 0.000, 0.000, 13:43:31.108
194, 48760.24, 85232.30, -187500.02, -187500.02, -187500.02, -187500.02, -187500.02, 187500.00, 0.000, 0.000, 0.000, 13:43:31.108
195, 46150.52, 83118.47, -187500.02, -187500.02, -187500.02, -187500.02, -187500.02, 187500.00, 0.292, 0.970, -0.110, 13:43:31.109
196, 46289.25, 83198.35, -187500.02, -187500.02, -187500.02, -187500.02, -187500.02, 187500.00, 0.000, 0.000, 0.000, 13:43:31.109
197, 48383.43, 84914.70, -187500.02, -187500.02, -187500.02, -187500.02, -187500.02, 187500.00, 0.000, 0.000, 0.000, 13:43:31.109
198, 49089.50, 85521.88, -187500.02, -187500.02, -187500.02, -187500.02, -187500.02, 187500.00, 0.000, 0.000, 0.000, 13:43:31.109
199, 46426.32, 83355.24, -187500.02, -187500.02, -187500.02, -187500.02, -187500.02, 187500.00, 0.000, 0.000, 0.000, 13:43:31.109
200, 46044.32, 83019.92, -187500.02, -187500.02, -187500.02, -187500.02, -187500.02, 187500.00, 0.000, 0.000, 0.000, 13:43:31.109
201, 47951.93, 84585.05, -187500.02, -187500.02, -187500.02, -187500.02, -187500.02, 187500.00, 0.000, 0.000, 0.000, 13:43:31.109
202, 49291.83, 85703.70, -187500.02, -187500.02, -187500.02, -187500.02, -187500.02, 187500.00, 0.000, 0.000, 0.000, 13:43:31.109
203, 46874.80, 83719.48, -187500.02, -187500.02, -187500.02, -187500.02, -187500.02, 187500.00, 0.000, 0.000, 0.000, 13:43:31.109
204, 45915.62, 82891.30, -187500.02, -187500.02, -187500.02, -187500.02, -187500.02, 187500.00, 0.000, 0.000, 0.000, 13:43:31.109
205, 47538.76, 84218.15, -187500.02, -187500.02, -187500.02, -187500.02, -187500.02, 187500.00, 0.294, 0.984, -0.112, 13:43:31.109
206, 49364.68, 85738.41, -187500.02, -187500.02, -187500.02, -187500.02, -187500.02, 187500.00, 0.000, 0.000, 0.000, 13:43:31.110
207, 47373.54, 84111.45, -187500.02, -187500.02, -187500.02, -187500.02, -187500.02, 187500.00, 0.000, 0.000, 0.000, 13:43:31.110
208, 45820.88, 82813.30, -187500.02, -187500.02, -187500.02, -187500.02, -187500.02, 187500.00, 0.000, 0.000, 0.000, 13:43:31.110
209, 47131.54, 83882.65, -187500.02, -187500.02, -187500.02, -187500.02, -187500.02, 187500.00, 0.000, 0.000, 0.000, 13:43:31.110
210, 49253.50, 85647.37, -187500.02, -187500.02, -187500.02, -187500.02, -187500.02, 187500.00, 0.000, 0.000, 0.000, 13:43:31.110
211, 47860.13, 84527.73, -187500.02, -187500.02, -187500.02, -187500.02, -187500.02, 187500.00, 0.000, 0.000, 0.000, 13:43:31.110
212, 45800.42, 82802.39, -187500.02, -187500.02, -187500.02, -187500.02, -187500.02, 187500.00, 0.000, 0.000, 0.000, 13:43:31.110
213, 46736.33, 83569.05, -187500.02, -187500.02, -187500.02, -187500.02, -187500.02, 187500.00, 0.000, 0.000, 0.000, 13:43:31.110
214, 48981.48, 85456.69, -187500.02, -187500.02, -187500.02, -187500.02, -187500.02, 187500.00, 0.294, 0.968, -0.108, 13:43:31.110
215, 48406.48, 84972.97, -187500.02, -187500.02, -187500.02, -187500.02, -187500.02, 187500.00, 0.000, 0.000, 0.000, 13:43:31.110
216, 45967.23, 82914.24, -187500.02, -187500.02, -187500.02, -187500.02, -187500.02, 187500.00, 0.000, 0.000, 0.000, 13:43:31.110
217, 46466.50, 83313.80, -187500.02, -187500.02, -187500.02, -187500.02, -187500.02, 187500.00, 0.000, 0.000, 0.000, 13:43:31.110
218, 48639.59, 85160.95, -187500.02, -187500.02, -187500.02, -187500.02, -187500.02, 187500.00, 0.000, 0.000, 0.000, 13:43:31.111
219, 48785.61, 85316.07, -187500.02, -187500.02, -187500.02, -187500.02, -187500.02, 187500.00, 0.000, 0.000, 0.000, 13:43:31.111
220, 46160.02, 83117.33, -187500.02, -187500.02, -187500.02, -187500.02, -187500.02, 187500.00, 0.000, 0.000, 0.000, 13:43:31.111
221, 46237.49, 83123.20, -187500.02, -187500.02, -187500.02, -187500.02, -187500.02, 187500.00, 0.000, 0.000, 0.000, 13:43:31.111
222, 48295.14, 84859.05, -187500.02, -187500.02, -187500.02, -187500.02, -187500.02, 187500.00, 0.000, 0.000, 0.000, 13:43:31.111
223, 49130.25, 85606.20, -187500.02, -187500.02, -187500.02, -187500.02, -187500.02, 187500.00, 0.000, 0.000, 0.000, 13:43:31.111
224, 46500.63, 83405.91, -187500.02, -187500.02, -187500.02, -187500.02, -187500.02, 187500.00, 0.296, 0.970, -0.104, 13:43:31.111
225, 46022.64, 82952.15, -187500.02, -187500.02, -187500.02, -187500.02, -187500.02, 187500.00, 0.000, 0.000, 0.000, 13:43:31.111
226, 47878.75, 84493.15, -187500.02, -187500.02, -187500.02, -187500.02, -187500.02, 187500.00, 0.000, 0.000, 0.000, 13:43:31.111
227, 49331.68, 85737.13, -187500.02, -187500.02, -187500.02, -187500.02, -187500.02, 187500.00, 0.000, 0.000, 0.000, 13:43:31.111
228, 46977.84, 83778.56, -187500.02, -187500.02, -187500.02, -187500.02, -187500.02, 187500.00, 0.000, 0.000, 0.000, 13:43:31.112
229, 45870.50, 82838.94, -187500.02, -187500.02, -187500.02, -187500.02, -187500.02, 187500.00, 0.000, 0.000, 0.000, 13:43:31.112
230, 47423.07, 84148.86, -187500.02, -187500.02, -187500.02, -187500.02, -187500.02, 187500.00, 0.000, 0.000, 0.000, 13:43:31.112
231, 49374.33, 85767.02, -187500.02, -187500.02, -187500.02, -187500.02, -187500.02, 187500.00, 0.000, 0.000, 0.000, 13:43:31.112
232, 47495.80, 84187.26, -187500.02, -187500.02, -187500.02, -187500.02, -187500.02, 187500.00, 0.000, 0.000, 0.000, 13:43:31.112
233, 45827.36, 82774.90, -187500.02, -187500.02, -187500.02, -187500.02, -187500.02, 187500.00, 0.000, 0.000, 0.000, 13:43:31.112
234, 47066.69, 83809.61, -187500.02, -187500.02, -187500.02, -187500.02, -187500.02, 187500.00, 0.296, 0.980, -0.102, 13:43:31.112
235, 49259.89, 85649.94, -187500.02, -187500.02, -187500.02, -187500.02, -187500.02, 187500.00, 0.000, 0.000, 0.000, 13:43:31.112
236, 48031.35, 84626.72, -187500.02, -187500.02, -187500.02, -187500.02, -187500.02, 187500.00, 0.000, 0.000, 0.000, 13:43:31.112
237, 45868.41, 82781.00, -187500.02, -187500.02, -187500.02, -187500.02, -187500.02, 187500.00, 0.000, 0.000, 0.000, 13:43:31.112
238, 46752.16, 83497.46, -187500.02, -187500.02, -187500.02, -187500.02, -187500.02, 187500.00, 0.000, 0.000, 0.000, 13:43:31.112
239, 48998.69, 85428.81, -187500.02, -187500.02, -187500.02, -187500.02, -187500.02, 187500.00, 0.000, 0.000, 0.000, 13:43:31.112
240, 48503.30, 85049.79, -187500.02, -187500.02, -187500.02, -187500.02, -187500.02, 187500.00, 0.000, 0.000, 0.000, 13:43:31.113
241, 45968.57, 82889.85, -187500.02, -187500.02, -187500.02, -187500.02, -187500.02, 187500.00, 0.000, 0.000, 0.000, 13:43:31.113
242, 46425.60, 83241.88, -187500.02, -187500.02, -187500.02, -187500.02, -187500.02, 187500.00, 0.000, 0.000, 0.000, 13:43:31.113
243, 48640.28, 85132.12, -187500.02, -187500.02, -187500.02, -187500.02, -187500.02, 187500.00, 0.000, 0.000, 0.000, 13:43:31.579
244, 48923.12, 85409.12, -187500.02, -187500.02, -187500.02, -187500.02, -187500.02, 187500.00, 0.288, 0.978, -0.108, 13:43:31.579
245, 46228.32, 83120.97, -187500.02, -187500.02, -187500.02, -187500.02, -187500.02, 187500.00, 0.000, 0.000, 0.000, 13:43:31.579
246, 46175.89, 83030.88, -187500.02, -187500.02, -187500.02, -187500.02, -187500.02, 187500.00, 0.000, 0.000, 0.000, 13:43:31.579
247, 48260.05, 84805.60, -187500.02, -187500.02, -187500.02, -187500.02, -187500.02, 187500.00, 0.000, 0.000, 0.000, 13:43:31.579
248, 49248.18, 85703.83, -187500.02, -187500.02, -187500.02, -187500.02, -187500.02, 187500.00, 0.000, 0.000, 0.000, 13:43:31.579
249, 46577.64, 83454.39, -187500.02, -187500.02, -187500.02, -187500.02, -187500.02, 187500.00, 0.000, 0.000, 0.000, 13:43:31.579
250, 45937.66, 82879.95, -187500.02, -187500.02, -187500.02, -187500.02, -187500.02, 187500.00, 0.000, 0.000, 0.000, 13:43:31.580
251, 47790.40, 84444.62, -187500.02, -187500.02, -187500.02, -187500.02, -187500.02, 187500.00, 0.000, 0.000, 0.000, 13:43:31.580
252, 49380.70, 85822.05, -187500.02, -187500.02, -187500.02, -187500.02, -187500.02, 187500.00, 0.000, 0.000, 0.000, 13:43:31.580
253, 47067.59, 83844.54, -187500.02, -187500.02, -187500.02, -187500.02, -187500.02, 187500.00, 0.000, 0.000, 0.000, 13:43:31.580
254, 45856.88, 82767.68, -187500.02, -187500.02, -187500.02, -187500.02, -187500.02, 187500.00, 0.284, 0.984, -0.104, 13:43:31.580
255, 47398.10, 84074.20, -187500.02, -187500.02, -187500.02, -187500.02, -187500.02, 187500.00, 0.000, 0.000, 0.000, 13:43:31.580
0, 49407.10, 85821.89, -187500.02, -187500.02, -187500.02, -187500.02, -187500.02, 187500.00, 0.000, 0.000, 0.000, 13:43:31.580
1, 47601.97, 84298.95, -187500.02, -187500.02, -187500.02, -187500.02, -187500.02, 187500.00, 0.000, 0.000, 0.000, 13:43:31.580
2, 45790.83, 82744.16, -187500.02, -187500.02, -187500.02, -187500.02, -187500.02, 187500.00, 0.000, 0.000, 0.000, 13:43:31.580
3, 46994.03, 83754.76, -187500.02, -187500.02, -187500.02, -187500.02, -187500.02, 187500.00, 0.000, 0.000, 0.000, 13:43:31.580
4, 49222.70, 85691.24, -187500.02, -187500.02, -187500.02, -187500.02, -187500.02, 187500.00, 0.000, 0.000, 0.000, 13:43:31.581
5, 48131.38, 84769.88, -187500.02, -187500.02, -187500.02, -187500.02, -187500.02, 187500.00, 0.000, 0.000, 0.000, 13:43:31.581
6, 45873.89, 82794.16, -187500.02, -187500.02, -187500.02, -187500.02, -187500.02, 187500.00, 0.000, 0.000, 0.000, 13:43:31.581
7, 46686.18, 83463.84, -187500.02, -187500.02, -187500.02, -187500.02, -187500.02, 187500.00, 0.000, 0.000, 0.000, 13:43:31.581
8, 48966.03, 85436.21, -187500.02, -187500.02, -187500.02, -187500.02, -187500.02, 187500.00, 0.286, 0.984, -0.108, 13:43:31.581
9, 48611.94, 85172.37, -187500.02, -187500.02, -187500.02, -187500.02, -187500.02, 187500.00, 0.000, 0.000, 0.000, 13:43:31.581
10, 45980.13, 82926.22, -187500.02, -187500.02, -187500.02, -187500.02, -187500.02, 187500.00, 0.000, 0.000, 0.000, 13:43:31.581
11, 46343.88, 83220.68, -187500.02, -187500.02, -187500.02, -187500.02, -187500.02, 187500.00, 0.000, 0.000, 0.000, 13:43:31.581
12, 48587.71, 85120.24, -187500.02, -187500.02, -187500.02, -187500.02, -187500.02, 187500.00, 0.000, 0.000, 0.000, 13:43:31.581
13, 49062.39, 85524.79, -187500.02, -187500.02, -187500.02, -187500.02, -187500.02, 187500.00, 0.000, 0.000, 0.000, 13:43:31.581
14, 46315.03, 83195.38, -187500.02, -187500.02, -187500.02, -187500.02, -187500.02, 187500.00, 0.000, 0.000, 0.000, 13:43:31.582
15, 46107.63, 83009.30, -187500.02, -187500.02, -187500.02, -187500.02, -187500.02, 187500.00, 0.000, 0.000, 0.000, 13:43:31.582
16, 48159.09, 84738.73, -187500.02, -187500.02, -187500.02, -187500.02, -187500.02, 187500.00, 0.000, 0.000, 0.000, 13:43:31.582
17, 49325.11, 85726.94, -187500.02, -187500.02, -187500.02, -187500.02, -187500.02, 187500.00, 0.294, 0.978, -0.106, 13:43:31.582
18, 46677.84, 83517.60, -187500.02, -187500.02, -187500.02, -187500.02, -187500.02, 187500.00, 0.000, 0.000, 0.000, 13:43:31.582
19, 45927.54, 82860.35, -187500.02, -187500.02, -187500.02, -187500.02, -187500.02, 187500.00, 0.000, 0.000, 0.000, 13:43:31.582
20, 47724.86, 84371.59, -187500.02, -187500.02, -187500.02, -187500.02, -187500.02, 187500.00, 0.000, 0.000, 0.000, 13:43:31.582
21, 49429.20, 85836.06, -187500.02, -187500.02, -187500.02, -187500.02, -187500.02, 187500.00, 0.000, 0.000, 0.000, 13:43:31.582
22, 47179.95, 83945.64, -187500.02, -187500.02, -187500.02, -187500.02, -187500.02, 187500.00, 0.000, 0.000, 0.000, 13:43:31.582
23, 45819.80, 82772.53, -187500.02, -187500.02, -187500.02, -187500.02, -187500.02, 187500.00, 0.000, 0.000, 0.000, 13:43:31.582
24, 47289.74, 84009.38, -187500.02, -187500.02, -187500.02, -187500.02, -187500.02, 187500.00, 0.000, 0.000, 0.000, 13:43:31.582
25, 49384.59, 85780.60, -187500.02, -187500.02, -187500.02, -187500.02, -187500.02, 187500.00, 0.000, 0.000, 0.000, 13:43:31.583
26, 47730.36, 84373.79, -187500.02, -187500.02, -187500.02, -187500.02, -187500.02, 187500.00, 0.000, 0.000, 0.000, 13:43:31.583
27, 45818.08, 82717.86, -187500.02, -187500.02, -187500.02, -187500.02, -187500.02, 187500.00, 0.296, 0.976, -0.104, 13:43:31.583
28, 46943.96, 83661.26, -187500.02, -187500.02, -187500.02, -187500.02, -187500.02, 187500.00, 0.000, 0.000, 0.000, 13:43:31.583
29, 49168.54, 85598.87, -187500.02, -187500.02, -187500.02, -187500.02, -187500.02, 187500.00, 0.000, 0.000, 0.000, 13:43:31.583
30, 48201.27, 84800.75, -187500.02, -187500.02, -187500.02, -187500.02, -187500.02, 187500.00, 0.000, 0.000, 0.000, 13:43:31.583
31, 45885.05, 82793.23, -187500.02, -187500.02, -187500.02, -187500.02, -187500.02, 187500.00, 0.000, 0.000, 0.000, 13:43:31.583
32, 46612.08, 83392.08, -187500.02, -187500.02, -187500.02, -187500.02, -187500.02, 187500.00, 0.000, 0.000, 0.000, 13:43:31.583
33, 48892.67, 85365.65, -187500.02, -187500.02, -187500.02, -187500.02, -187500.02, 187500.00, 0.000, 0.000, 0.000, 13:43:31.583
34, 48751.86, 85246.33, -187500.02, -187500.02, -187500.02, -187500.02, -187500.02, 187500.00, 0.000, 0.000, 0.000, 13:43:31.583
35, 46117.97, 82957.22, -187500.02, -187500.02, -187500.02, -187500.02, -187500.02, 187500.00, 0.000, 0.000, 0.000, 13:43:31.584
36, 46357.32, 83137.51, -187500.02, -187500.02, -187500.02, -187500.02, -187500.02, 187500.00, 0.000, 0.000, 0.000, 13:43:31.584
37, 48509.23, 85020.76, -187500.02, -187500.02, -187500.02, -187500.02, -187500.02, 187500.00, 0.288, 0.976, -0.100, 13:43:31.584
38, 49098.13, 85558.01, -187500.02, -187500.02, -187500.02, -187500.02, -187500.02, 187500.00, 0.000, 0.000, 0.000, 13:43:31.584
39, 46401.50, 83218.96, -187500.02, -187500.02, -187500.02, -187500.02, -187500.02, 187500.00, 0.000, 0.000, 0.000, 13:43:31.584
40, 46119.65, 82943.72, -187500.02, -187500.02, -187500.02, -187500.02, -187500.02, 187500.00, 0.000, 0.000, 0.000, 13:43:31.584
41, 48070.29, 84660.98, -187500.02, -187500.02, -187500.02, -187500.02, -187500.02, 187500.00, 0.000, 0.000, 0.000, 13:43:31.584
42, 49317.20, 85767.02, -187500.02, -187500.02, -187500.02, -187500.02, -187500.02, 187500.00, 0.000, 0.000, 0.000, 13:43:31.584
43, 46804.46, 83579.63, -187500.02, -187500.02, -187500.02, -187500.02, -187500.02, 187500.00, 0.000, 0.000, 0.000, 13:43:31.584
44, 45943.63, 82811.96, -187500.02, -187500.02, -187500.02, -187500.02, -187500.02, 187500.00, 0.000, 0.000, 0.000, 13:43:31.584
45, 47650.50, 84282.41, -187500.02, -187500.02, -187500.02, -187500.02, -187500.02, 187500.00, 0.000, 0.000, 0.000, 13:43:31.585
46, 49410.23, 85840.06, -187500.02, -187500.02, -187500.02, -187500.02, -187500.02, 187500.00, 0.000, 0.000, 0.000, 13:43:31.585
47, 47285.63, 84024.70, -187500.02, -187500.02, -187500.02, -187500.02, -187500.02, 187500.00, 0.282, 0.974, -0.102, 13:43:31.585
48, 45842.51, 82752.39, -187500.02, -187500.02, -187500.02, -187500.02, -187500.02, 187500.00, 0.000, 0.000, 0.000, 13:43:31.585
49, 47251.16, 83944.23, -187500.02, -187500.02, -187500.02, -187500.02, -187500.02, 187500.00, 0.000, 0.000, 0.000, 13:43:31.585
50, 49341.88, 85774.01, -187500.02, -187500.02, -187500.02, -187500.02, -187500.02, 187500.00, 0.000, 0.000, 0.000, 13:43:31.585
51, 47806.07, 84477.48, -187500.02, -187500.02, -187500.02, -187500.02, -187500.02, 187500.00, 0.000, 0.000, 0.000, 13:43:31.585
52, 45843.36, 82746.91, -187500.02, -187500.02, -187500.02, -187500.02, -187500.02, 187500.00, 0.000, 0.000, 0.000, 13:43:31.585
53, 46911.73, 83624.00, -187500.02, -187500.02, -187500.02, -187500.02, -187500.02, 187500.00, 0.000, 0.000, 0.000, 13:43:31.586
54, 49162.01, 85575.64, -187500.02, -187500.02, -187500.02, -187500.02, -187500.02, 187500.00, 0.000, 0.000, 0.000, 13:43:31.586
55, 48366.45, 84914.14, -187500.02, -187500.02, -187500.02, -187500.02, -187500.02, 187500.00, 0.000, 0.000, 0.000, 13:43:31.586
56, 45952.19, 82830.00, -187500.02, -187500.02, -187500.02, -187500.02, -187500.02, 187500.00, 0.000, 0.000, 0.000, 13:43:31.586
57, 46577.37, 83343.15, -187500.02, -187500.02, -187500.02, -187500.02, -187500.02, 187500.00, 0.288, 0.984, -0.098, 13:43:31.586
58, 48841.22, 85298.26, -187500.02, -187500.02, -187500.02, -187500.02, -187500.02, 187500.00, 0.000, 0.000, 0.000, 13:43:31.586
59, 48820.16, 85313.37, -187500.02, -187500.02, -187500.02, -187500.02, -187500.02, 187500.00, 0.000, 0.000, 0.000, 13:43:31.586
60, 46144.88, 83014.02, -187500.02, -187500.02, -187500.02, -187500.02, -187500.02, 187500.00, 0.000, 0.000, 0.000, 13:43:31.586
61, 46304.27, 83106.04, -187500.02, -187500.02, -187500.02, -187500.02, -187500.02, 187500.00, 0.000, 0.000, 0.000, 13:43:31.587
62, 48458.60, 84960.05, -187500.02, -187500.02, -187500.02, -187500.02, -187500.02, 187500.00, 0.000, 0.000, 0.000, 13:43:31.587
63, 49182.69, 85618.94, -187500.02, -187500.02, -187500.02, -187500.02, -187500.02, 187500.00, 0.000, 0.000, 0.000, 13:43:31.587
64, 46460.96, 83303.63, -187500.02, -187500.02, -187500.02, -187500.02, -187500.02, 187500.00, 0.000, 0.000, 0.000, 13:43:31.587
65, 46072.80, 82926.58, -187500.02, -187500.02, -187500.02, -187500.02, -187500.02, 187500.00, 0.000, 0.000, 0.000, 13:43:31.587
66, 48008.04, 84577.30, -187500.02, -187500.02, -187500.02, -187500.02, -187500.02, 187500.00, 0.000, 0.000, 0.000, 13:43:31.587
67, 49348.36, 85773.95, -187500.02, -187500.02, -187500.02, -187500.02, -187500.02, 187500.00, 0.286, 0.980, -0.096, 13:43:31.587
68, 46864.03, 83666.00, -187500.02, -187500.02, -187500.02, -187500.02, -187500.02, 187500.00, 0.000, 0.000, 0.000, 13:43:31.587
69, 45914.91, 82790.97, -187500.02, -187500.02, -187500.02, -187500.02, -187500.02, 187500.00, 0.000, 0.000, 0.000, 13:43:31.587
70, 47593.07, 84210.53, -187500.02, -187500.02, -187500.02, -187500.02, -187500.02, 187500.00, 0.000, 0.000, 0.000, 13:43:31.587
71, 49452.81, 85831.45, -187500.02, -187500.02, -187500.02, -187500.02, -187500.02, 187500.00, 0.000, 0.000, 0.000, 13:43:31.588
72, 47401.95, 84102.03, -187500.02, -187500.02, -187500.02, -187500.02, -187500.02, 187500.00, 0.000, 0.000, 0.000, 13:43:31.588
73, 45827.58, 82732.66, -187500.02, -187500.02, -187500.02, -187500.02, -187500.02, 187500.00, 0.000, 0.000, 0.000, 13:43:31.588
74, 47161.87, 83863.59, -187500.02, -187500.02, -187500.02, -187500.02, -187500.02, 187500.00, 0.000, 0.000, 0.000, 13:43:31.588
75, 49321.56, 85718.47, -187500.02, -187500.02, -187500.02, -187500.02, -187500.02, 187500.00, 0.000, 0.000, 0.000, 13:43:31.588
76, 47924.69, 84537.73, -187500.02, -187500.02, -187500.02, -187500.02, -187500.02, 187500.00, 0.000, 0.000, 0.000, 13:43:31.588
77, 45823.87, 82745.48, -187500.02, -187500.02, -187500.02, -187500.02, -187500.02, 187500.00, 0.288, 0.980, -0.092, 13:43:31.588
78, 46812.17, 83563.71, -187500.02, -187500.02, -187500.02, -187500.02, -187500.02, 187500.00, 0.000, 0.000, 0.000, 13:43:31.588
79, 49131.14, 85535.90, -187500.02, -187500.02, -187500.02, -187500.02, -187500.02, 187500.00, 0.000, 0.000, 0.000, 13:43:31.588
80, 48487.17, 85004.28, -187500.02, -187500.02, -187500.02, -187500.02, -187500.02, 187500.00, 0.000, 0.000, 0.000, 13:43:31.588
81, 45952.23, 82860.88, -187500.02, -187500.02, -187500.02, -187500.02, -187500.02, 187500.00, 0.000, 0.000, 0.000, 13:43:31.589
82, 46467.58, 83292.97, -187500.02, -187500.02, -187500.02, -187500.02, -187500.02, 187500.00, 0.000, 0.000, 0.000, 13:43:31.589
83, 48757.45, 85240.77, -187500.02, -187500.02, -187500.02, -187500.02, -187500.02, 187500.00, 0.000, 0.000, 0.000, 13:43:31.589
84, 48909.59, 85384.58, -187500.02, -187500.02, -187500.02, -187500.02, -187500.02, 187500.00, 0.000, 0.000, 0.000, 13:43:31.589
85, 46183.75, 83062.27, -187500.02, -187500.02, -187500.02, -187500.02, -187500.02, 187500.00, 0.000, 0.000, 0.000, 13:43:31.589
86, 46220.68, 83070.32, -187500.02, -187500.02, -187500.02, -187500.02, -187500.02, 187500.00, 0.286, 0.978, -0.096, 13:43:31.589
87, 48339.09, 84890.96, -187500.02, -187500.02, -187500.02, -187500.02, -187500.02, 187500.00, 0.000, 0.000, 0.000, 13:43:31.589
88, 49198.71, 85654.05, -187500.02, -187500.02, -187500.02, -187500.02, -187500.02, 187500.00, 0.000, 0.000, 0.000, 13:43:31.589
89, 46532.73, 83363.87, -187500.02, -187500.02, -187500.02, -187500.02, -187500.02, 187500.00, 0.000, 0.000, 0.000, 13:43:31.589
90, 46039.99, 82900.56, -187500.02, -187500.02, -187500.02, -187500.02, -187500.02, 187500.00, 0.000, 0.000, 0.000, 13:43:31.589
91, 47932.51, 84519.95, -187500.02, -187500.02, -187500.02, -187500.02, -187500.02, 187500.00, 0.000, 0.000, 0.000, 13:43:31.590
92, 49412.60, 85811.20, -187500.02, -187500.02, -187500.02, -187500.02, -187500.02, 187500.00, 0.000, 0.000, 0.000, 13:43:31.590
93, 46988.19, 83748.20, -187500.02, -187500.02, -187500.02, -187500.02, -187500.02, 187500.00, 0.000, 0.000, 0.000, 13:43:31.590
94, 45875.37, 82778.14, -187500.02, -187500.02, -187500.02, -187500.02, -187500.02, 187500.00, 0.000, 0.000, 0.000, 13:43:31.590
95, 47467.82, 84145.40, -187500.02, -187500.02, -187500.02, -187500.02, -187500.02, 187500.00, 0.000, 0.000, 0.000, 13:43:31.590
96, 49391.90, 85825.47, -187500.02, -187500.02, -187500.02, -187500.02, -187500.02, 187500.00, 0.284, 0.978, -0.102, 13:43:31.590
97, 47499.38, 84195.46, -187500.02, -187500.02, -187500.02, -187500.02, -187500.02, 187500.00, 0.000, 0.000, 0.000, 13:43:31.590
98, 45827.31, 82717.57, -187500.02, -187500.02, -187500.02, -187500.02, -187500.02, 187500.00, 0.000, 0.000, 0.000, 13:43:31.590
99, 47112.45, 83798.27, -187500.02, -187500.02, -187500.02, -187500.02, -187500.02, 187500.00, 0.000, 0.000, 0.000, 13:43:31.590
100, 49311.14, 85712.90, -187500.02, -187500.02, -187500.02, -187500.02, -187500.02, 187500.00, 0.000, 0.000, 0.000, 13:43:31.590
101, 48037.79, 84658.59, -187500.02, -187500.02, -187500.02, -187500.02, -187500.02, 187500.00, 0.000, 0.000, 0.000, 13:43:31.591
102, 45850.76, 82768.15, -187500.02, -187500.02, -187500.02, -187500.02, -187500.02, 187500.00, 0.000, 0.000, 0.000, 13:43:31.591
103, 46737.74, 83510.92, -187500.02, -187500.02, -187500.02, -187500.02, -187500.02, 187500.00, 0.000, 0.000, 0.000, 13:43:31.591
104, 49020.53, 85483.22, -187500.02, -187500.02, -187500.02, -187500.02, -187500.02, 187500.00, 0.000, 0.000, 0.000, 13:43:31.591
105, 48561.76, 85086.07, -187500.02, -187500.02, -187500.02, -187500.02, -187500.02, 187500.00, 0.000, 0.000, 0.000, 13:43:31.591
106, 46010.50, 82884.60, -187500.02, -187500.02, -187500.02, -187500.02, -187500.02, 187500.00, 0.282, 0.976, -0.100, 13:43:31.591
107, 46457.63, 83238.63, -187500.02, -187500.02, -187500.02, -187500.02, -187500.02, 187500.00, 0.000, 0.000, 0.000, 13:43:32.059
108, 48687.08, 85168.44, -187500.02, -187500.02, -187500.02, -187500.02, -187500.02, 187500.00, 0.000, 0.000, 0.000, 13:43:32.060
109, 48958.93, 85453.02, -187500.02, -187500.02, -187500.02, -187500.02, -187500.02, 187500.00, 0.000, 0.000, 0.000, 13:43:32.060
110, 46244.93, 83117.28, -187500.02, -187500.02, -187500.02, -187500.02, -187500.02, 187500.00, 0.000, 0.000, 0.000, 13:43:32.060
111, 46194.64, 83026.96, -187500.02, -187500.02, -187500.02, -187500.02, -187500.02, 187500.00, 0.000, 0.000, 0.000, 13:43:32.060
112, 48254.91, 84807.12, -187500.02, -187500.02, -187500.02, -187500.02, -187500.02, 187500.00, 0.000, 0.000, 0.000, 13:43:32.060
113, 49264.72, 85698.20, -187500.02, -187500.02, -187500.02, -187500.02, -187500.02, 187500.00, 0.000, 0.000, 0.000, 13:43:32.061
114, 46629.34, 83427.34, -187500.02, -187500.02, -187500.02, -187500.02, -187500.02, 187500.00, 0.000, 0.000, 0.000, 13:43:32.061
115, 45984.00, 82855.48, -187500.02, -187500.02, -187500.02, -187500.02, -187500.02, 187500.00, 0.000, 0.000, 0.000, 13:43:32.061
116, 47822.63, 84431.68, -187500.02, -187500.02, -187500.02, -187500.02, -187500.02, 187500.00, 0.288, 0.978, -0.108, 13:43:32.061
117, 49421.58, 85816.01, -187500.02, -187500.02, -187500.02, -187500.02, -187500.02, 187500.00, 0.000, 0.000, 0.000, 13:43:32.061
118, 47101.07, 83837.10, -187500.02, -187500.02, -187500.02, -187500.02, -187500.02, 187500.00, 0.000, 0.000, 0.000, 13:43:32.062
119, 45897.88, 82773.71, -187500.02, -187500.02, -187500.02, -187500.02, -187500.02, 187500.00, 0.000, 0.000, 0.000, 13:43:32.062
120, 47418.53, 84074.54, -187500.02, -187500.02, -187500.02, -187500.02, -187500.02, 187500.00, 0.000, 0.000, 0.000, 13:43:32.062
121, 49390.20, 85792.56, -187500.02, -187500.02, -187500.02, -187500.02, -187500.02, 187500.00, 0.000, 0.000, 0.000, 13:43:32.062
122, 47618.58, 84276.71, -187500.02, -187500.02, -187500.02, -187500.02, -187500.02, 187500.00, 0.000, 0.000, 0.000, 13:43:32.062
123, 45853.66, 82734.11, -187500.02, -187500.02, -187500.02, -187500.02, -187500.02, 187500.00, 0.000, 0.000, 0.000, 13:43:32.062
124, 47047.36, 83741.91, -187500.02, -187500.02, -187500.02, -187500.02, -187500.02, 187500.00, 0.000, 0.000, 0.000, 13:43:32.063
125, 49240.67, 85649.94, -187500.02, -187500.02, -187500.02, -187500.02, -187500.02, 187500.00, 0.000, 0.000, 0.000, 13:43:32.063
126, 48165.39, 84735.08, -187500.02, -187500.02, -187500.02, -187500.02, -187500.02, 187500.00, 0.288, 0.972, -0.108, 13:43:32.063
127, 45928.12, 82789.38, -187500.02, -187500.02, -187500.02, -187500.02, -187500.02, 187500.00, 0.000, 0.000, 0.000, 13:43:32.063
128, 46709.09, 83456.34, -187500.02, -187500.02, -187500.02, -187500.02, -187500.02, 187500.00, 0.000, 0.000, 0.000, 13:43:32.063
129, 48958.34, 85405.01, -187500.02, -187500.02, -187500.02, -187500.02, -187500.02, 187500.00, 0.000, 0.000, 0.000, 13:43:32.064
130, 48657.04, 85153.30, -187500.02, -187500.02, -187500.02, -187500.02, -187500.02, 187500.00, 0.000, 0.000, 0.000, 13:43:32.064
131, 46075.75, 82934.71, -187500.02, -187500.02, -187500.02, -187500.02, -187500.02, 187500.00, 0.000, 0.000, 0.000, 13:43:32.064
132, 46420.97, 83201.48, -187500.02, -187500.02, -187500.02, -187500.02, -187500.02, 187500.00, 0.000, 0.000, 0.000, 13:43:32.064
133, 48605.92, 85089.83, -187500.02, -187500.02, -187500.02, -187500.02, -187500.02, 187500.00, 0.000, 0.000, 0.000, 13:43:32.064
134, 49045.89, 85502.98, -187500.02, -187500.02, -187500.02, -187500.02, -187500.02, 187500.00, 0.000, 0.000, 0.000, 13:43:32.065
135, 46354.72, 83183.73, -187500.02, -187500.02, -187500.02, -187500.02, -187500.02, 187500.00, 0.000, 0.000, 0.000, 13:43:32.065
136, 46161.31, 82989.84, -187500.02, -187500.02, -187500.02, -187500.02, -187500.02, 187500.00, 0.290, 0.976, -0.108, 13:43:32.065
137, 48138.08, 84717.69, -187500.02, -187500.02, -187500.02, -187500.02, -187500.02, 187500.00, 0.000, 0.000, 0.000, 13:43:32.065
138, 49276.79, 85707.13, -187500.02, -187500.02, -187500.02, -187500.02, -187500.02, 187500.00, 0.000, 0.000, 0.000, 13:43:32.065
139, 46730.21, 83510.34, -187500.02, -187500.02, -187500.02, -187500.02, -187500.02, 187500.00, 0.000, 0.000, 0.000, 13:43:32.066
140, 46001.36, 82860.95, -187500.02, -187500.02, -187500.02, -187500.02, -187500.02, 187500.00, 0.000, 0.000, 0.000, 13:43:32.066
141, 47755.71, 84355.80, -187500.02, -187500.02, -187500.02, -187500.02, -187500.02, 187500.00, 0.000, 0.000, 0.000, 13:43:32.066
142, 49383.47, 85790.64, -187500.02, -187500.02, -187500.02, -187500.02, -187500.02, 187500.00, 0.000, 0.000, 0.000, 13:43:32.066
143, 47213.50, 83922.05, -187500.02, -187500.02, -187500.02, -187500.02, -187500.02, 187500.00, 0.000, 0.000, 0.000, 13:43:32.067
144, 45942.22, 82785.23, -187500.02, -187500.02, -187500.02, -187500.02, -187500.02, 187500.00, 0.000, 0.000, 0.000, 13:43:32.067
145, 47383.77, 84029.32, -187500.02, -187500.02, -187500.02, -187500.02, -187500.02, 187500.00, 0.286, 0.978, -0.098, 13:43:32.067
146, 49399.05, 85798.06, -187500.02, -187500.02, -187500.02, -187500.02, -187500.02, 187500.00, 0.000, 0.000, 0.000, 13:43:32.067
147, 47757.76, 84404.86, -187500.02, -187500.02, -187500.02, -187500.02, -187500.02, 187500.00, 0.000, 0.000, 0.000, 13:43:32.068
148, 45905.48, 82777.13, -187500.02, -187500.02, -187500.02, -187500.02, -187500.02, 187500.00, 0.000, 0.000, 0.000, 13:43:32.068
149, 47015.46, 83705.13, -187500.02, -187500.02, -187500.02, -187500.02, -187500.02, 187500.00, 0.000, 0.000, 0.000, 13:43:32.068
150, 49209.29, 85606.95, -187500.02, -187500.02, -187500.02, -187500.02, -187500.02, 187500.00, 0.000, 0.000, 0.000, 13:43:32.068
151, 48267.18, 84830.43, -187500.02, -187500.02, -187500.02, -187500.02, -187500.02, 187500.00, 0.000, 0.000, 0.000, 13:43:32.068
152, 45965.45, 82843.59, -187500.02, -187500.02, -187500.02, -187500.02, -187500.02, 187500.00, 0.000, 0.000, 0.000, 13:43:32.069
153, 46682.91, 83416.51, -187500.02, -187500.02, -187500.02, -187500.02, -187500.02, 187500.00, 0.000, 0.000, 0.000, 13:43:32.069
154, 48895.80, 85333.75, -187500.02, -187500.02, -187500.02, -187500.02, -187500.02, 187500.00, 0.000, 0.000, 0.000, 13:43:32.069
155, 48720.07, 85211.98, -187500.02, -187500.02, -187500.02, -187500.02, -187500.02, 187500.00, 0.290, 0.976, -0.090, 13:43:32.069
156, 46166.88, 83012.55, -187500.02, -187500.02, -187500.02, -187500.02, -187500.02, 187500.00, 0.000, 0.000, 0.000, 13:43:32.070
157, 46415.50, 83188.74, -187500.02, -187500.02, -187500.02, -187500.02, -187500.02, 187500.00, 0.000, 0.000, 0.000, 13:43:32.070
158, 48508.78, 84985.38, -187500.02, -187500.02, -187500.02, -187500.02, -187500.02, 187500.00, 0.000, 0.000, 0.000, 13:43:32.070
159, 49090.57, 85515.13, -187500.02, -187500.02, -187500.02, -187500.02, -187500.02, 187500.00, 0.000, 0.000, 0.000, 13:43:32.070
160, 46494.44, 83290.22, -187500.02, -187500.02, -187500.02, -187500.02, -187500.02, 187500.00, 0.000, 0.000, 0.000, 13:43:32.070
161, 46212.07, 83022.89, -187500.02, -187500.02, -187500.02, -187500.02, -187500.02, 187500.00, 0.000, 0.000, 0.000, 13:43:32.071
162, 48097.46, 84643.62, -187500.02, -187500.02, -187500.02, -187500.02, -187500.02, 187500.00, 0.000, 0.000, 0.000, 13:43:32.071
163, 49304.35, 85700.01, -187500.02, -187500.02, -187500.02, -187500.02, -187500.02, 187500.00, 0.000, 0.000, 0.000, 13:43:32.071
164, 46824.24, 83612.87, -187500.02, -187500.02, -187500.02, -187500.02, -187500.02, 187500.00, 0.000, 0.000, 0.000, 13:43:32.071
165, 46014.20, 82881.05, -187500.02, -187500.02, -187500.02, -187500.02, -187500.02, 187500.00, 0.288, 0.980, -0.096, 13:43:32.072
166, 47722.54, 84296.05, -187500.02, -187500.02, -187500.02, -187500.02, -187500.02, 187500.00, 0.000, 0.000, 0.000, 13:43:32.072
167, 49427.82, 85758.92, -187500.02, -187500.02, -187500.02, -187500.02, -187500.02, 187500.00, 0.000, 0.000, 0.000, 13:43:32.072
168, 47344.79, 84037.55, -187500.02, -187500.02, -187500.02, -187500.02, -187500.02, 187500.00, 0.000, 0.000, 0.000, 13:43:32.072
169, 45925.23, 82835.38, -187500.02, -187500.02, -187500.02, -187500.02, -187500.02, 187500.00, 0.000, 0.000, 0.000, 13:43:32.072
170, 47261.60, 83951.27, -187500.02, -187500.02, -187500.02, -187500.02, -187500.02, 187500.00, 0.000, 0.000, 0.000, 13:43:32.072
171, 49302.76, 85664.91, -187500.02, -187500.02, -187500.02, -187500.02, -187500.02, 187500.00, 0.000, 0.000, 0.000, 13:43:32.073
172, 47838.72, 84455.52, -187500.02, -187500.02, -187500.02, -187500.02, -187500.02, 187500.00, 0.000, 0.000, 0.000, 13:43:32.073
173, 45926.35, 82836.16, -187500.02, -187500.02, -187500.02, -187500.02, -187500.02, 187500.00, 0.000, 0.000, 0.000, 13:43:32.073
174, 46941.59, 83641.43, -187500.02, -187500.02, -187500.02, -187500.02, -187500.02, 187500.00, 0.000, 0.000, 0.000, 13:43:32.073
175, 49121.58, 85474.54, -187500.02, -187500.02, -187500.02, -187500.02, -187500.02, 187500.00, 0.288, 0.974, -0.096, 13:43:32.073
176, 48364.21, 84870.15, -187500.02, -187500.02, -187500.02, -187500.02, -187500.02, 187500.00, 0.000, 0.000, 0.000, 13:43:32.073
177, 46017.84, 82915.52, -187500.02, -187500.02, -187500.02, -187500.02, -187500.02, 187500.00, 0.000, 0.000, 0.000, 13:43:32.074
178, 46614.29, 83391.14, -187500.02, -187500.02, -187500.02, -187500.02, -187500.02, 187500.00, 0.000, 0.000, 0.000, 13:43:32.074
179, 48792.02, 85206.55, -187500.02, -187500.02, -187500.02, -187500.02, -187500.02, 187500.00, 0.000, 0.000, 0.000, 13:43:32.074
180, 48781.92, 85224.92, -187500.02, -187500.02, -187500.02, -187500.02, -187500.02, 187500.00, 0.000, 0.000, 0.000, 13:43:32.074
181, 46220.30, 83107.05, -187500.02, -187500.02, -187500.02, -187500.02, -187500.02, 187500.00, 0.000, 0.000, 0.000, 13:43:32.075
182, 46356.69, 83191.24, -187500.02, -187500.02, -187500.02, -187500.02, -187500.02, 187500.00, 0.000, 0.000, 0.000, 13:43:32.075
183, 48436.96, 84904.59, -187500.02, -187500.02, -187500.02, -187500.02, -187500.02, 187500.00, 0.000, 0.000, 0.000, 13:43:32.075
184, 49146.30, 85501.05, -187500.02, -187500.02, -187500.02, -187500.02, -187500.02, 187500.00, 0.000, 0.000, 0.000, 13:43:32.075
185, 46547.44, 83383.38, -187500.02, -187500.02, -187500.02, -187500.02, -187500.02, 187500.00, 0.286, 0.982, -0.098, 13:43:32.076
186, 46150.92, 83042.85, -187500.02, -187500.02, -187500.02, -187500.02, -187500.02, 187500.00, 0.000, 0.000, 0.000, 13:43:32.076
187, 47992.28, 84541.41, -187500.02, -187500.02, -187500.02, -187500.02, -187500.02, 187500.00, 0.000, 0.000, 0.000, 13:43:32.076
188, 49312.44, 85631.63, -187500.02, -187500.02, -187500.02, -187500.02, -187500.02, 187500.00, 0.000, 0.000, 0.000, 13:43:32.076
189, 46977.98, 83730.33, -187500.02, -187500.02, -187500.02, -187500.02, -187500.02, 187500.00, 0.000, 0.000, 0.000, 13:43:32.076
190, 46043.54, 82948.84, -187500.02, -187500.02, -187500.02, -187500.02, -187500.02, 187500.00, 0.000, 0.000, 0.000, 13:43:32.077
191, 47619.00, 84212.81, -187500.02, -187500.02, -187500.02, -187500.02, -187500.02, 187500.00, 0.000, 0.000, 0.000, 13:43:32.077
192, 49404.71, 85653.73, -187500.02, -187500.02, -187500.02, -187500.02, -187500.02, 187500.00, 0.000, 0.000, 0.000, 13:43:32.077
193, 47464.69, 84119.45, -187500.02, -187500.02, -187500.02, -187500.02, -187500.02, 187500.00, 0.000, 0.000, 0.000, 13:43:32.077
194, 45957.29, 82914.55, -187500.02, -187500.02, -187500.02, -187500.02, -187500.02, 187500.00, 0.000, 0.000, 0.000, 13:43:32.077
195, 47240.41, 83916.02, -187500.02, -187500.02, -187500.02, -187500.02, -187500.02, 187500.00, 0.282, 0.976, -0.096, 13:43:32.077
196, 49298.16, 85549.80, -187500.02, -187500.02, -187500.02, -187500.02, -187500.02, 187500.00, 0.000, 0.000, 0.000, 13:43:32.078
197, 47963.89, 84519.59, -187500.02, -187500.02, -187500.02, -187500.02, -187500.02, 187500.00, 0.000, 0.000, 0.000, 13:43:32.078
198, 45967.39, 82948.30, -187500.02, -187500.02, -187500.02, -187500.02, -187500.02, 187500.00, 0.000, 0.000, 0.000, 13:43:32.078
199, 46884.84, 83647.34, -187500.02, -187500.02, -187500.02, -187500.02, -187500.02, 187500.00, 0.000, 0.000, 0.000, 13:43:32.078
200, 49070.95, 85351.54, -187500.02, -187500.02, -187500.02, -187500.02, -187500.02, 187500.00, 0.000, 0.000, 0.000, 13:43:32.078
201, 48474.18, 84892.17, -187500.02, -187500.02, -187500.02, -187500.02, -187500.02, 187500.00, 0.000, 0.000, 0.000, 13:43:32.078
202, 46103.69, 83049.13, -187500.02, -187500.02, -187500.02, -187500.02, -187500.02, 187500.00, 0.000, 0.000, 0.000, 13:43:32.078
203, 46615.77, 83425.45, -187500.02, -187500.02, -187500.02, -187500.02, -187500.02, 187500.00, 0.000, 0.000, 0.000, 13:43:32.079
204, 48738.85, 85082.13, -187500.02, -187500.02, -187500.02, -187500.02, -187500.02, 187500.00, 0.000, 0.000, 0.000, 13:43:32.079
205, 48849.82, 85199.64, -187500.02, -187500.02, -187500.02, -187500.02, -187500.02, 187500.00, 0.286, 0.980, -0.094, 13:43:32.079
206, 46304.63, 83213.46, -187500.02, -187500.02, -187500.02, -187500.02, -187500.02, 187500.00, 0.000, 0.000, 0.000, 13:43:32.079
207, 46371.80, 83224.15, -187500.02, -187500.02, -187500.02, -187500.02, -187500.02, 187500.00, 0.000, 0.000, 0.000, 13:43:32.079
208, 48362.71, 84772.74, -187500.02, -187500.02, -187500.02, -187500.02, -187500.02, 187500.00, 0.000, 0.000, 0.000, 13:43:32.079
209, 49183.74, 85421.41, -187500.02, -187500.02, -187500.02, -187500.02, -187500.02, 187500.00, 0.000, 0.000, 0.000, 13:43:32.080
210, 46659.58, 83487.52, -187500.02, -187500.02, -187500.02, -187500.02, -187500.02, 187500.00, 0.000, 0.000, 0.000, 13:43:32.080
211, 46199.98, 83105.10, -187500.02, -187500.02, -187500.02, -187500.02, -187500.02, 187500.00, 0.000, 0.000, 0.000, 13:43:32.080
212, 47949.25, 84438.83, -187500.02, -187500.02, -187500.02, -187500.02, -187500.02, 187500.00, 0.000, 0.000, 0.000, 13:43:32.080
213, 49334.93, 85510.13, -187500.02, -187500.02, -187500.02, -187500.02, -187500.02, 187500.00, 0.000, 0.000, 0.000, 13:43:32.080
214, 47087.55, 83803.46, -187500.02, -187500.02, -187500.02, -187500.02, -187500.02, 187500.00, 0.282, 0.978, -0.096, 13:43:32.080
215, 46062.34, 83028.50, -187500.02, -187500.02, -187500.02, -187500.02, -187500.02, 187500.00, 0.000, 0.000, 0.000, 13:43:32.080
216, 47547.70, 84160.91, -187500.02, -187500.02, -187500.02, -187500.02, -187500.02, 187500.00, 0.000, 0.000, 0.000, 13:43:32.081
217, 49351.15, 85535.23, -187500.02, -187500.02, -187500.02, -187500.02, -187500.02, 187500.00, 0.000, 0.000, 0.000, 13:43:32.081
218, 47572.69, 84197.56, -187500.02, -187500.02, -187500.02, -187500.02, -187500.02, 187500.00, 0.000, 0.000, 0.000, 13:43:32.081
219, 45991.13, 82996.85, -187500.02, -187500.02, -187500.02, -187500.02, -187500.02, 187500.00, 0.000, 0.000, 0.000, 13:43:32.081
220, 47157.84, 83869.95, -187500.02, -187500.02, -187500.02, -187500.02, -187500.02, 187500.00, 0.000, 0.000, 0.000, 13:43:32.081
221, 49202.80, 85427.38, -187500.02, -187500.02, -187500.02, -187500.02, -187500.02, 187500.00, 0.000, 0.000, 0.000, 13:43:32.081
222, 48062.29, 84580.49, -187500.02, -187500.02, -187500.02, -187500.02, -187500.02, 187500.00, 0.000, 0.000, 0.000, 13:43:32.082
223, 46049.78, 83060.91, -187500.02, -187500.02, -187500.02, -187500.02, -187500.02, 187500.00, 0.000, 0.000, 0.000, 13:43:32.082
224, 46864.88, 83651.31, -187500.02, -187500.02, -187500.02, -187500.02, -187500.02, 187500.00, 0.288, 0.982, -0.102, 13:43:32.082
225, 48977.03, 85228.18, -187500.02, -187500.02, -187500.02, -187500.02, -187500.02, 187500.00, 0.000, 0.000, 0.000, 13:43:32.082
226, 48533.64, 84914.92, -187500.02, -187500.02, -187500.02, -187500.02, -187500.02, 187500.00, 0.000, 0.000, 0.000, 13:43:32.082
227, 46171.66, 83171.46, -187500.02, -187500.02, -187500.02, -187500.02, -187500.02, 187500.00, 0.000, 0.000, 0.000, 13:43:32.539
228, 46583.34, 83455.55, -187500.02, -187500.02, -187500.02, -187500.02, -187500.02, 187500.00, 0.000, 0.000, 0.000, 13:43:32.539
229, 48636.79, 84976.44, -187500.02, -187500.02, -187500.02, -187500.02, -187500.02, 187500.00, 0.000, 0.000, 0.000, 13:43:32.539
230, 48925.04, 85198.79, -187500.02, -187500.02, -187500.02, -187500.02, -187500.02, 187500.00, 0.000, 0.000, 0.000, 13:43:32.540
231, 46438.74, 83362.82, -187500.02, -187500.02, -187500.02, -187500.02, -187500.02, 187500.00, 0.000, 0.000, 0.000, 13:43:32.540
232, 46343.41, 83285.16, -187500.02, -187500.02, -187500.02, -187500.02, -187500.02, 187500.00, 0.000, 0.000, 0.000, 13:43:32.540
233, 48219.04, 84696.01, -187500.02, -187500.02, -187500.02, -187500.02, -187500.02, 187500.00, 0.000, 0.000, 0.000, 13:43:32.540
234, 49191.27, 85404.05, -187500.02, -187500.02, -187500.02, -187500.02, -187500.02, 187500.00, 0.280, 0.980, -0.104, 13:43:32.540
235, 46783.16, 83628.83, -187500.02, -187500.02, -187500.02, -187500.02, -187500.02, 187500.00, 0.000, 0.000, 0.000, 13:43:32.540
236, 46168.80, 83186.71, -187500.02, -187500.02, -187500.02, -187500.02, -187500.02, 187500.00, 0.000, 0.000, 0.000, 13:43:32.540
237, 47848.67, 84409.75, -187500.02, -187500.02, -187500.02, -187500.02, -187500.02, 187500.00, 0.000, 0.000, 0.000, 13:43:32.540
238, 49353.57, 85480.51, -187500.02, -187500.02, -187500.02, -187500.02, -187500.02, 187500.00, 0.000, 0.000, 0.000, 13:43:32.540
239, 47208.47, 83938.60, -187500.02, -187500.02, -187500.02, -187500.02, -187500.02, 187500.00, 0.000, 0.000, 0.000, 13:43:32.541
240, 46069.29, 83126.20, -187500.02, -187500.02, -187500.02, -187500.02, -187500.02, 187500.00, 0.000, 0.000, 0.000, 13:43:32.541
241, 47456.89, 84112.98, -187500.02, -187500.02, -187500.02, -187500.02, -187500.02, 187500.00, 0.000, 0.000, 0.000, 13:43:32.541
242, 49309.46, 85426.53, -187500.02, -187500.02, -187500.02, -187500.02, -187500.02, 187500.00, 0.000, 0.000, 0.000, 13:43:32.541
243, 47716.79, 84283.75, -187500.02, -187500.02, -187500.02, -187500.02, -187500.02, 187500.00, 0.000, 0.000, 0.000, 13:43:32.541
244, 46074.27, 83124.30, -187500.02, -187500.02, -187500.02, -187500.02, -187500.02, 187500.00, 0.290, 0.974, -0.106, 13:43:32.541
245, 47130.62, 83866.05, -187500.02, -187500.02, -187500.02, -187500.02, -187500.02, 187500.00, 0.000, 0.000, 0.000, 13:43:32.541
246, 49141.85, 85284.44, -187500.02, -187500.02, -187500.02, -187500.02, -187500.02, 187500.00, 0.000, 0.000, 0.000, 13:43:32.541
247, 48158.64, 84607.83, -187500.02, -187500.02, -187500.02, -187500.02, -187500.02, 187500.00, 0.000, 0.000, 0.000, 13:43:32.541
248, 46104.11, 83181.12, -187500.02, -187500.02, -187500.02, -187500.02, -187500.02, 187500.00, 0.000, 0.000, 0.000, 13:43:32.541
249, 46827.73, 83665.08, -187500.02, -187500.02, -187500.02, -187500.02, -187500.02, 187500.00, 0.000, 0.000, 0.000, 13:43:32.541
250, 48870.55, 85071.81, -187500.02, -187500.02, -187500.02, -187500.02, -187500.02, 187500.00, 0.000, 0.000, 0.000, 13:43:32.541
251, 48592.63, 84886.55, -187500.02, -187500.02, -187500.02, -187500.02, -187500.02, 187500.00, 0.000, 0.000, 0.000, 13:43:32.542
252, 46294.64, 83299.12, -187500.02, -187500.02, -187500.02, -187500.02, -187500.02, 187500.00, 0.000, 0.000, 0.000, 13:43:32.542
253, 46597.20, 83482.82, -187500.02, -187500.02, -187500.02, -187500.02, -187500.02, 187500.00, 0.000, 0.000, 0.000, 13:43:32.542
254, 48532.50, 84805.16, -187500.02, -187500.02, -187500.02, -187500.02, -187500.02, 187500.00, 0.294, 0.968, -0.108, 13:43:32.542
255, 48935.70, 85083.23, -187500.02, -187500.02, -187500.02, -187500.02, -187500.02, 187500.00, 0.000, 0.000, 0.000, 13:43:32.542
0, 46569.50, 83494.80, -187500.02, -187500.02, -187500.02, -187500.02, -187500.02, 187500.00, 0.000, 0.000, 0.000, 13:43:32.542
1, 46412.37, 83385.73, -187500.02, -187500.02, -187500.02, -187500.02, -187500.02, 187500.00, 0.000, 0.000, 0.000, 13:43:32.542
2, 48143.96, 84545.98, -187500.02, -187500.02, -187500.02, -187500.02, -187500.02, 187500.00, 0.000, 0.000, 0.000, 13:43:32.542
3, 49108.70, 85195.99, -187500.02, -187500.02, -187500.02, -187500.02, -187500.02, 187500.00, 0.000, 0.000, 0.000, 13:43:32.542
4, 46927.60, 83751.65, -187500.02, -187500.02, -187500.02, -187500.02, -187500.02, 187500.00, 0.000, 0.000, 0.000, 13:43:32.542
5, 46292.88, 83323.21, -187500.02, -187500.02, -187500.02, -187500.02, -187500.02, 187500.00, 0.000, 0.000, 0.000, 13:43:32.542
6, 47728.24, 84268.33, -187500.02, -187500.02, -187500.02, -187500.02, -187500.02, 187500.00, 0.000, 0.000, 0.000, 13:43:32.542
7, 49148.04, 85198.48, -187500.02, -187500.02, -187500.02, -187500.02, -187500.02, 187500.00, 0.000, 0.000, 0.000, 13:43:32.543
8, 47340.01, 84024.74, -187500.02, -187500.02, -187500.02, -187500.02, -187500.02, 187500.00, 0.294, 0.974, -0.108, 13:43:32.543
9, 46263.15, 83329.22, -187500.02, -187500.02, -187500.02, -187500.02, -187500.02, 187500.00, 0.000, 0.000, 0.000, 13:43:32.543
10, 47451.99, 84077.60, -187500.02, -187500.02, -187500.02, -187500.02, -187500.02, 187500.00, 0.000, 0.000, 0.000, 13:43:32.543
11, 49093.57, 85130.04, -187500.02, -187500.02, -187500.02, -187500.02, -187500.02, 187500.00, 0.000, 0.000, 0.000, 13:43:32.543
12, 47777.39, 84282.93, -187500.02, -187500.02, -187500.02, -187500.02, -187500.02, 187500.00, 0.000, 0.000, 0.000, 13:43:32.543
13, 46297.12, 83343.41, -187500.02, -187500.02, -187500.02, -187500.02, -187500.02, 187500.00, 0.000, 0.000, 0.000, 13:43:32.543
14, 47164.91, 83904.29, -187500.02, -187500.02, -187500.02, -187500.02, -187500.02, 187500.00, 0.000, 0.000, 0.000, 13:43:32.543
15, 48898.48, 85004.33, -187500.02, -187500.02, -187500.02, -187500.02, -187500.02, 187500.00, 0.000, 0.000, 0.000, 13:43:32.543
16, 48173.24, 84555.80, -187500.02, -187500.02, -187500.02, -187500.02, -187500.02, 187500.00, 0.000, 0.000, 0.000, 13:43:32.543
17, 46398.49, 83437.30, -187500.02, -187500.02, -187500.02, -187500.02, -187500.02, 187500.00, 0.000, 0.000, 0.000, 13:43:32.543
18, 46928.07, 83756.12, -187500.02, -187500.02, -187500.02, -187500.02, -187500.02, 187500.00, 0.288, 0.972, -0.104, 13:43:32.543
19, 48589.32, 84813.34, -187500.02, -187500.02, -187500.02, -187500.02, -187500.02, 187500.00, 0.000, 0.000, 0.000, 13:43:32.544
20, 48466.63, 84747.15, -187500.02, -187500.02, -187500.02, -187500.02, -187500.02, 187500.00, 0.000, 0.000, 0.000, 13:43:32.544
21, 46558.82, 83559.18, -187500.02, -187500.02, -187500.02, -187500.02, -187500.02, 187500.00, 0.000, 0.000, 0.000, 13:43:32.544
22, 46722.36, 83658.80, -187500.02, -187500.02, -187500.02, -187500.02, -187500.02, 187500.00, 0.000, 0.000, 0.000, 13:43:32.544
23, 48267.52, 84605.69, -187500.02, -187500.02, -187500.02, -187500.02, -187500.02, 187500.00, 0.000, 0.000, 0.000, 13:43:32.544
24, 48714.11, 84873.44, -187500.02, -187500.02, -187500.02, -187500.02, -187500.02, 187500.00, 0.000, 0.000, 0.000, 13:43:32.544
25, 46828.16, 83717.96, -187500.02, -187500.02, -187500.02, -187500.02, -187500.02, 187500.00, 0.000, 0.000, 0.000, 13:43:32.544
26, 46624.46, 83585.06, -187500.02, -187500.02, -187500.02, -187500.02, -187500.02, 187500.00, 0.000, 0.000, 0.000, 13:43:32.544
27, 47935.06, 84408.59, -187500.02, -187500.02, -187500.02, -187500.02, -187500.02, 187500.00, 0.290, 0.984, -0.106, 13:43:32.544
28, 48789.70, 84961.84, -187500.02, -187500.02, -187500.02, -187500.02, -187500.02, 187500.00, 0.000, 0.000, 0.000, 13:43:32.544
29, 47155.77, 83933.66, -187500.02, -187500.02, -187500.02, -187500.02, -187500.02, 187500.00, 0.000, 0.000, 0.000, 13:43:32.544
30, 46595.79, 83572.37, -187500.02, -187500.02, -187500.02, -187500.02, -187500.02, 187500.00, 0.000, 0.000, 0.000, 13:43:32.545
31, 47665.90, 84234.45, -187500.02, -187500.02, -187500.02, -187500.02, -187500.02, 187500.00, 0.000, 0.000, 0.000, 13:43:32.545
32, 48836.35, 84950.88, -187500.02, -187500.02, -187500.02, -187500.02, -187500.02, 187500.00, 0.000, 0.000, 0.000, 13:43:32.545
33, 47495.96, 84129.20, -187500.02, -187500.02, -187500.02, -187500.02, -187500.02, 187500.00, 0.000, 0.000, 0.000, 13:43:32.545
34, 46568.32, 83559.27, -187500.02, -187500.02, -187500.02, -187500.02, -187500.02, 187500.00, 0.000, 0.000, 0.000, 13:43:32.545
35, 47428.77, 84069.94, -187500.02, -187500.02, -187500.02, -187500.02, -187500.02, 187500.00, 0.000, 0.000, 0.000, 13:43:32.545
36, 48740.17, 84880.32, -187500.02, -187500.02, -187500.02, -187500.02, -187500.02, 187500.00, 0.000, 0.000, 0.000, 13:43:32.545
37, 47825.45, 84330.76, -187500.02, -187500.02, -187500.02, -187500.02, -187500.02, 187500.00, 0.292, 0.976, -0.100, 13:43:32.545
38, 46620.30, 83587.45, -187500.02, -187500.02, -187500.02, -187500.02, -187500.02, 187500.00, 0.000, 0.000, 0.000, 13:43:32.545
39, 47229.03, 83953.95, -187500.02, -187500.02, -187500.02, -187500.02, -187500.02, 187500.00, 0.000, 0.000, 0.000, 13:43:32.545
40, 48539.80, 84774.45, -187500.02, -187500.02, -187500.02, -187500.02, -187500.02, 187500.00, 0.000, 0.000, 0.000, 13:43:32.545
41, 48083.25, 84501.55, -187500.02, -187500.02, -187500.02, -187500.02, -187500.02, 187500.00, 0.000, 0.000, 0.000, 13:43:32.545
42, 46690.16, 83642.91, -187500.02, -187500.02, -187500.02, -187500.02, -187500.02, 187500.00, 0.000, 0.000, 0.000, 13:43:32.546
43, 47021.54, 83840.59, -187500.02, -187500.02, -187500.02, -187500.02, -187500.02, 187500.00, 0.000, 0.000, 0.000, 13:43:32.546
44, 48296.84, 84619.23, -187500.02, -187500.02, -187500.02, -187500.02, -187500.02, 187500.00, 0.000, 0.000, 0.000, 13:43:32.546
45, 48319.66, 84633.85, -187500.02, -187500.02, -187500.02, -187500.02, -187500.02, 187500.00, 0.000, 0.000, 0.000, 13:43:32.546
46, 46867.72, 83727.66, -187500.02, -187500.02, -187500.02, -187500.02, -187500.02, 187500.00, 0.000, 0.000, 0.000, 13:43:32.546
47, 46943.40, 83761.17, -187500.02, -187500.02, -187500.02, -187500.02, -187500.02, 187500.00, 0.298, 0.970, -0.106, 13:43:32.546
48, 48042.61, 84460.00, -187500.02, -187500.02, -187500.02, -187500.02, -187500.02, 187500.00, 0.000, 0.000, 0.000, 13:43:32.546
49, 48468.53, 84736.96, -187500.02, -187500.02, -187500.02, -187500.02, -187500.02, 187500.00, 0.000, 0.000, 0.000, 13:43:32.546
50, 47093.31, 83855.98, -187500.02, -187500.02, -187500.02, -187500.02, -187500.02, 187500.00, 0.000, 0.000, 0.000, 13:43:32.546
51, 46873.24, 83707.26, -187500.02, -187500.02, -187500.02, -187500.02, -187500.02, 187500.00, 0.000, 0.000, 0.000, 13:43:32.546
52, 47808.79, 84310.69, -187500.02, -187500.02, -187500.02, -187500.02, -187500.02, 187500.00, 0.000, 0.000, 0.000, 13:43:32.546
53, 48528.00, 84792.66, -187500.02, -187500.02, -187500.02, -187500.02, -187500.02, 187500.00, 0.000, 0.000, 0.000, 13:43:32.547
54, 47340.17, 84030.13, -187500.02, -187500.02, -187500.02, -187500.02, -187500.02, 187500.00, 0.000, 0.000, 0.000, 13:43:32.547
55, 46858.17, 83699.62, -187500.02, -187500.02, -187500.02, -187500.02, -187500.02, 187500.00, 0.000, 0.000, 0.000, 13:43:32.547
56, 47639.61, 84186.79, -187500.02, -187500.02, -187500.02, -187500.02, -187500.02, 187500.00, 0.000, 0.000, 0.000, 13:43:32.547
57, 48566.94, 84789.38, -187500.02, -187500.02, -187500.02, -187500.02, -187500.02, 187500.00, 0.298, 0.974, -0.112, 13:43:32.547
58, 47598.33, 84188.89, -187500.02, -187500.02, -187500.02, -187500.02, -187500.02, 187500.00, 0.000, 0.000, 0.000, 13:43:32.547
59, 46823.62, 83697.20, -187500.02, -187500.02, -187500.02, -187500.02, -187500.02, 187500.00, 0.000, 0.000, 0.000, 13:43:32.547
60, 47419.71, 84066.83, -187500.02, -187500.02, -187500.02, -187500.02, -187500.02, 187500.00, 0.000, 0.000, 0.000, 13:43:32.547
61, 48472.53, 84733.05, -187500.02, -187500.02, -187500.02, -187500.02, -187500.02, 187500.00, 0.000, 0.000, 0.000, 13:43:32.547
62, 47833.27, 84339.74, -187500.02, -187500.02, -187500.02, -187500.02, -187500.02, 187500.00, 0.000, 0.000, 0.000, 13:43:32.547
63, 46847.45, 83728.24, -187500.02, -187500.02, -187500.02, -187500.02, -187500.02, 187500.00, 0.000, 0.000, 0.000, 13:43:32.547
64, 47269.89, 83979.91, -187500.02, -187500.02, -187500.02, -187500.02, -187500.02, 187500.00, 0.000, 0.000, 0.000, 13:43:32.547
65, 48314.48, 84645.78, -187500.02, -187500.02, -187500.02, -187500.02, -187500.02, 187500.00, 0.000, 0.000, 0.000, 13:43:32.548
66, 48043.57, 84495.49, -187500.02, -187500.02, -187500.02, -187500.02, -187500.02, 187500.00, 0.000, 0.000, 0.000, 13:43:32.548
67, 46893.80, 83777.64, -187500.02, -187500.02, -187500.02, -187500.02, -187500.02, 187500.00, 0.300, 0.976, -0.118, 13:43:32.548
68, 47139.85, 83905.70, -187500.02, -187500.02, -187500.02, -187500.02, -187500.02, 187500.00, 0.000, 0.000, 0.000, 13:43:32.548
69, 48175.79, 84542.12, -187500.02, -187500.02, -187500.02, -187500.02, -187500.02, 187500.00, 0.000, 0.000, 0.000, 13:43:32.548
70, 48279.16, 84630.38, -187500.02, -187500.02, -187500.02, -187500.02, -187500.02, 187500.00, 0.000, 0.000, 0.000, 13:43:32.548
71, 47050.20, 83864.32, -187500.02, -187500.02, -187500.02, -187500.02, -187500.02, 187500.00, 0.000, 0.000, 0.000, 13:43:32.548
72, 47033.86, 83839.63, -187500.02, -187500.02, -187500.02, -187500.02, -187500.02, 187500.00, 0.000, 0.000, 0.000, 13:43:32.548
73, 47956.63, 84418.38, -187500.02, -187500.02, -187500.02, -187500.02, -187500.02, 187500.00, 0.000, 0.000, 0.000, 13:43:32.548
74, 48393.27, 84700.59, -187500.02, -187500.02, -187500.02, -187500.02, -187500.02, 187500.00, 0.000, 0.000, 0.000, 13:43:32.548
75, 47209.81, 83976.28, -187500.02, -187500.02, -187500.02, -187500.02, -187500.02, 187500.00, 0.000, 0.000, 0.000, 13:43:32.548
76, 46979.52, 83814.97, -187500.02, -187500.02, -187500.02, -187500.02, -187500.02, 187500.00, 0.000, 0.000, 0.000, 13:43:32.549
77, 47774.59, 84292.41, -187500.02, -187500.02, -187500.02, -187500.02, -187500.02, 187500.00, 0.296, 0.972, -0.104, 13:43:32.549
78, 48478.20, 84735.98, -187500.02, -187500.02, -187500.02, -187500.02, -187500.02, 187500.00, 0.000, 0.000, 0.000, 13:43:32.549
79, 47420.10, 84090.05, -187500.02, -187500.02, -187500.02, -187500.02, -187500.02, 187500.00, 0.000, 0.000, 0.000, 13:43:32.549
80, 46911.04, 83769.73, -187500.02, -187500.02, -187500.02, -187500.02, -187500.02, 187500.00, 0.000, 0.000, 0.000, 13:43:32.549
81, 47565.92, 84162.16, -187500.02, -187500.02, -187500.02, -187500.02, -187500.02, 187500.00, 0.000, 0.000, 0.000, 13:43:32.549
82, 48433.30, 84706.41, -187500.02, -187500.02, -187500.02, -187500.02, -187500.02, 187500.00, 0.000, 0.000, 0.000, 13:43:32.549
83, 47617.60, 84221.86, -187500.02, -187500.02, -187500.02, -187500.02, -187500.02, 187500.00, 0.000, 0.000, 0.000, 13:43:32.549
84, 46880.84, 83752.38, -187500.02, -187500.02, -187500.02, -187500.02, -187500.02, 187500.00, 0.000, 0.000, 0.000, 13:43:32.549
85, 47410.20, 84061.87, -187500.02, -187500.02, -187500.02, -187500.02, -187500.02, 187500.00, 0.000, 0.000, 0.000, 13:43:32.549
86, 48394.61, 84687.20, -187500.02, -187500.02, -187500.02, -187500.02, -187500.02, 187500.00, 0.292, 0.968, -0.104, 13:43:32.549
87, 47873.03, 84378.91, -187500.02, -187500.02, -187500.02, -187500.02, -187500.02, 187500.00, 0.000, 0.000, 0.000, 13:43:32.549
88, 46888.39, 83768.61, -187500.02, -187500.02, -187500.02, -187500.02, -187500.02, 187500.00, 0.000, 0.000, 0.000, 13:43:32.550
89, 47225.23, 83956.52, -187500.02, -187500.02, -187500.02, -187500.02, -187500.02, 187500.00, 0.000, 0.000, 0.000, 13:43:32.550
90, 48215.17, 84584.66, -187500.02, -187500.02, -187500.02, -187500.02, -187500.02, 187500.00, 0.000, 0.000, 0.000, 13:43:32.550
91, 48012.02, 84499.31, -187500.02, -187500.02, -187500.02, -187500.02, -187500.02, 187500.00, 0.000, 0.000, 0.000, 13:43:32.550
0, 0.00, 0.00, 0.00, 0.00, 0.00, 0.00, 0.00, 0.00, 0.296, 0.964, -0.102, 13:43:40.542
1, 48511.69, 84746.55, -187500.02, -187500.02, -187500.02, -187500.02, -187500.02, 187500.00, 0.000, 0.000, 0.000, 13:43:41.018
2, 47324.18, 83987.93, -187500.02, -187500.02, -187500.02, -187500.02, -187500.02, 187500.00, 0.000, 0.000, 0.000, 13:43:41.018
3, 47303.73, 83979.03, -187500.02, -187500.02, -187500.02, -187500.02, -187500.02, 187500.00, 0.000, 0.000, 0.000, 13:43:41.019
4, 48193.58, 84555.10, -187500.02, -187500.02, -187500.02, -187500.02, -187500.02, 187500.00, 0.000, 0.000, 0.000, 13:43:41.019
5, 48640.61, 84859.42, -187500.02, -187500.02, -187500.02, -187500.02, -187500.02, 187500.00, 0.000, 0.000, 0.000, 13:43:41.019
6, 47468.87, 84078.66, -187500.02, -187500.02, -187500.02, -187500.02, -187500.02, 187500.00, 0.000, 0.000, 0.000, 13:43:41.019
7, 47205.54, 83878.41, -187500.02, -187500.02, -187500.02, -187500.02, -187500.02, 187500.00, 0.000, 0.000, 0.000, 13:43:41.020
8, 48010.41, 84406.53, -187500.02, -187500.02, -187500.02, -187500.02, -187500.02, 187500.00, 0.298, 0.958, -0.102, 13:43:41.020
9, 48768.69, 84919.41, -187500.02, -187500.02, -187500.02, -187500.02, -187500.02, 187500.00, 0.000, 0.000, 0.000, 13:43:41.021
10, 47695.89, 84212.63, -187500.02, -187500.02, -187500.02, -187500.02, -187500.02, 187500.00, 0.000, 0.000, 0.000, 13:43:41.021
11, 47114.55, 83816.65, -187500.02, -187500.02, -187500.02, -187500.02, -187500.02, 187500.00, 0.000, 0.000, 0.000, 13:43:41.021
12, 47771.96, 84266.14, -187500.02, -187500.02, -187500.02, -187500.02, -187500.02, 187500.00, 0.000, 0.000, 0.000, 13:43:41.022
13, 48769.38, 84934.19, -187500.02, -187500.02, -187500.02, -187500.02, -187500.02, 187500.00, 0.000, 0.000, 0.000, 13:43:41.022
14, 47960.65, 84378.93, -187500.02, -187500.02, -187500.02, -187500.02, -187500.02, 187500.00, 0.000, 0.000, 0.000, 13:43:41.022
15, 47092.49, 83787.66, -187500.02, -187500.02, -187500.02, -187500.02, -187500.02, 187500.00, 0.000, 0.000, 0.000, 13:43:41.022
16, 47592.43, 84145.64, -187500.02, -187500.02, -187500.02, -187500.02, -187500.02, 187500.00, 0.000, 0.000, 0.000, 13:43:41.022
17, 48648.21, 84881.71, -187500.02, -187500.02, -187500.02, -187500.02, -187500.02, 187500.00, 0.304, 0.970, -0.114, 13:43:41.023
18, 48185.09, 84528.33, -187500.02, -187500.02, -187500.02, -187500.02, -187500.02, 187500.00, 0.000, 0.000, 0.000, 13:43:41.023
19, 47116.05, 83791.84, -187500.02, -187500.02, -187500.02, -187500.02, -187500.02, 187500.00, 0.000, 0.000, 0.000, 13:43:41.023
20, 47462.45, 84048.05, -187500.02, -187500.02, -187500.02, -187500.02, -187500.02, 187500.00, 0.000, 0.000, 0.000, 13:43:41.023
21, 48595.20, 84839.20, -187500.02, -187500.02, -187500.02, -187500.02, -187500.02, 187500.00, 0.000, 0.000, 0.000, 13:43:41.023
22, 48447.47, 84728.73, -187500.02, -187500.02, -187500.02, -187500.02, -187500.02, 187500.00, 0.000, 0.000, 0.000, 13:43:41.024
23, 47127.13, 83796.87, -187500.02, -187500.02, -187500.02, -187500.02, -187500.02, 187500.00, 0.000, 0.000, 0.000, 13:43:41.024
24, 47319.56, 83906.44, -187500.02, -187500.02, -187500.02, -187500.02, -187500.02, 187500.00, 0.000, 0.000, 0.000, 13:43:41.024
25, 48480.66, 84712.04, -187500.02, -187500.02, -187500.02, -187500.02, -187500.02, 187500.00, 0.000, 0.000, 0.000, 13:43:41.024
26, 48727.18, 84889.33, -187500.02, -187500.02, -187500.02, -187500.02, -187500.02, 187500.00, 0.000, 0.000, 0.000, 13:43:41.025
27, 47265.18, 83873.38, -187500.02, -187500.02, -187500.02, -187500.02, -187500.02, 187500.00, 0.288, 0.980, -0.114, 13:43:41.025
28, 47164.32, 83789.34, -187500.02, -187500.02, -187500.02, -187500.02, -187500.02, 187500.00, 0.000, 0.000, 0.000, 13:43:41.025
29, 48261.95, 84557.79, -187500.02, -187500.02, -187500.02, -187500.02, -187500.02, 187500.00, 0.000, 0.000, 0.000, 13:43:41.025
30, 48897.19, 85008.04, -187500.02, -187500.02, -187500.02, -187500.02, -187500.02, 187500.00, 0.000, 0.000, 0.000, 13:43:41.025
31, 47454.20, 84010.05, -187500.02, -187500.02, -187500.02, -187500.02, -187500.02, 187500.00, 0.000, 0.000, 0.000, 13:43:41.026
32, 47039.71, 83723.64, -187500.02, -187500.02, -187500.02, -187500.02, -187500.02, 187500.00, 0.000, 0.000, 0.000, 13:43:41.026
33, 48024.42, 84412.55, -187500.02, -187500.02, -187500.02, -187500.02, -187500.02, 187500.00, 0.000, 0.000, 0.000, 13:43:41.026
34, 49001.57, 85091.77, -187500.02, -187500.02, -187500.02, -187500.02, -187500.02, 187500.00, 0.000, 0.000, 0.000, 13:43:41.026
35, 47708.48, 84194.05, -187500.02, -187500.02, -187500.02, -187500.02, -187500.02, 187500.00, 0.000, 0.000, 0.000, 13:43:41.026
36, 46946.21, 83675.67, -187500.02, -187500.02, -187500.02, -187500.02, -187500.02, 187500.00, 0.000, 0.000, 0.000, 13:43:41.026
37, 47781.05, 84262.20, -187500.02, -187500.02, -187500.02, -187500.02, -187500.02, 187500.00, 0.298, 0.978, -0.104, 13:43:41.026
38, 48975.87, 85100.76, -187500.02, -187500.02, -187500.02, -187500.02, -187500.02, 187500.00, 0.000, 0.000, 0.000, 13:43:41.027
39, 47984.10, 84420.50, -187500.02, -187500.02, -187500.02, -187500.02, -187500.02, 187500.00, 0.000, 0.000, 0.000, 13:43:41.027
40, 46871.00, 83644.23, -187500.02, -187500.02, -187500.02, -187500.02, -187500.02, 187500.00, 0.000, 0.000, 0.000, 13:43:41.027
41, 47546.16, 84087.05, -187500.02, -187500.02, -187500.02, -187500.02, -187500.02, 187500.00, 0.000, 0.000, 0.000, 13:43:41.027
42, 48935.50, 85050.59, -187500.02, -187500.02, -187500.02, -187500.02, -187500.02, 187500.00, 0.000, 0.000, 0.000, 13:43:41.027
43, 48355.81, 84664.85, -187500.02, -187500.02, -187500.02, -187500.02, -187500.02, 187500.00, 0.000, 0.000, 0.000, 13:43:41.027
44, 46854.02, 83672.77, -187500.02, -187500.02, -187500.02, -187500.02, -187500.02, 187500.00, 0.000, 0.000, 0.000, 13:43:41.028
45, 47262.63, 83964.17, -187500.02, -187500.02, -187500.02, -187500.02, -187500.02, 187500.00, 0.000, 0.000, 0.000, 13:43:41.028
46, 48792.49, 84986.38, -187500.02, -187500.02, -187500.02, -187500.02, -187500.02, 187500.00, 0.000, 0.000, 0.000, 13:43:41.028
47, 48721.01, 84927.71, -187500.02, -187500.02, -187500.02, -187500.02, -187500.02, 187500.00, 0.296, 0.980, -0.102, 13:43:41.028
48, 46906.00, 83732.80, -187500.02, -187500.02, -187500.02, -187500.02, -187500.02, 187500.00, 0.000, 0.000, 0.000, 13:43:41.028
49, 47058.42, 83825.48, -187500.02, -187500.02, -187500.02, -187500.02, -187500.02, 187500.00, 0.000, 0.000, 0.000, 13:43:41.029
50, 48591.26, 84834.03, -187500.02, -187500.02, -187500.02, -187500.02, -187500.02, 187500.00, 0.000, 0.000, 0.000, 13:43:41.029
51, 49027.36, 85122.32, -187500.02, -187500.02, -187500.02, -187500.02, -187500.02, 187500.00, 0.000, 0.000, 0.000, 13:43:41.029
52, 47064.97, 83813.32, -187500.02, -187500.02, -187500.02, -187500.02, -187500.02, 187500.00, 0.000, 0.000, 0.000, 13:43:41.029
53, 46827.84, 83661.39, -187500.02, -187500.02, -187500.02, -187500.02, -187500.02, 187500.00, 0.000, 0.000, 0.000, 13:43:41.029
54, 48325.77, 84637.41, -187500.02, -187500.02, -187500.02, -187500.02, -187500.02, 187500.00, 0.000, 0.000, 0.000, 13:43:41.029
55, 49302.67, 85286.19, -187500.02, -187500.02, -187500.02, -187500.02, -187500.02, 187500.00, 0.000, 0.000, 0.000, 13:43:41.030
56, 47293.54, 83986.81, -187500.02, -187500.02, -187500.02, -187500.02, -187500.02, 187500.00, 0.000, 0.000, 0.000, 13:43:41.030
57, 46633.45, 83533.98, -187500.02, -187500.02, -187500.02, -187500.02, -187500.02, 187500.00, 0.292, 0.980, -0.094, 13:43:41.030
58, 48036.60, 84439.16, -187500.02, -187500.02, -187500.02, -187500.02, -187500.02, 187500.00, 0.000, 0.000, 0.000, 13:43:41.030
59, 49481.48, 85405.38, -187500.02, -187500.02, -187500.02, -187500.02, -187500.02, 187500.00, 0.000, 0.000, 0.000, 13:43:41.030
60, 47704.99, 84237.87, -187500.02, -187500.02, -187500.02, -187500.02, -187500.02, 187500.00, 0.000, 0.000, 0.000, 13:43:41.030
61, 46477.99, 83412.75, -187500.02, -187500.02, -187500.02, -187500.02, -187500.02, 187500.00, 0.000, 0.000, 0.000, 13:43:41.030
62, 47654.16, 84176.84, -187500.02, -187500.02, -187500.02, -187500.02, -187500.02, 187500.00, 0.000, 0.000, 0.000, 13:43:41.031
63, 49512.42, 85433.21, -187500.02, -187500.02, -187500.02, -187500.02, -187500.02, 187500.00, 0.000, 0.000, 0.000, 13:43:41.031
64, 48207.88, 84549.80, -187500.02, -187500.02, -187500.02, -187500.02, -187500.02, 187500.00, 0.000, 0.000, 0.000, 13:43:41.031
65, 46449.45, 83331.70, -187500.02, -187500.02, -187500.02, -187500.02, -187500.02, 187500.00, 0.000, 0.000, 0.000, 13:43:41.031
66, 47326.49, 83929.44, -187500.02, -187500.02, -187500.02, -187500.02, -187500.02, 187500.00, 0.000, 0.000, 0.000, 13:43:41.031
67, 49336.76, 85352.77, -187500.02, -187500.02, -187500.02, -187500.02, -187500.02, 187500.00, 0.292, 0.986, -0.080, 13:43:41.031
68, 48648.44, 84872.45, -187500.02, -187500.02, -187500.02, -187500.02, -187500.02, 187500.00, 0.000, 0.000, 0.000, 13:43:41.032
69, 46467.02, 83306.42, -187500.02, -187500.02, -187500.02, -187500.02, -187500.02, 187500.00, 0.000, 0.000, 0.000, 13:43:41.032
70, 47016.40, 83664.09, -187500.02, -187500.02, -187500.02, -187500.02, -187500.02, 187500.00, 0.000, 0.000, 0.000, 13:43:41.032
71, 49091.27, 85168.81, -187500.02, -187500.02, -187500.02, -187500.02, -187500.02, 187500.00, 0.000, 0.000, 0.000, 13:43:41.032
72, 49096.32, 85189.52, -187500.02, -187500.02, -187500.02, -187500.02, -187500.02, 187500.00, 0.000, 0.000, 0.000, 13:43:41.032
73, 46639.68, 83368.07, -187500.02, -187500.02, -187500.02, -187500.02, -187500.02, 187500.00, 0.000, 0.000, 0.000, 13:43:41.032
74, 46724.78, 83434.27, -187500.02, -187500.02, -187500.02, -187500.02, -187500.02, 187500.00, 0.000, 0.000, 0.000, 13:43:41.033
75, 48676.49, 84939.76, -187500.02, -187500.02, -187500.02, -187500.02, -187500.02, 187500.00, 0.000, 0.000, 0.000, 13:43:41.033
76, 49392.84, 85503.38, -187500.02, -187500.02, -187500.02, -187500.02, -187500.02, 187500.00, 0.294, 0.980, -0.082, 13:43:41.033
77, 46924.11, 83565.48, -187500.02, -187500.02, -187500.02, -187500.02, -187500.02, 187500.00, 0.000, 0.000, 0.000, 13:43:41.033
78, 46548.38, 83231.99, -187500.02, -187500.02, -187500.02, -187500.02, -187500.02, 187500.00, 0.000, 0.000, 0.000, 13:43:41.033
79, 48339.58, 84653.38, -187500.02, -187500.02, -187500.02, -187500.02, -187500.02, 187500.00, 0.000, 0.000, 0.000, 13:43:41.033
80, 49612.02, 85712.16, -187500.02, -187500.02, -187500.02, -187500.02, -187500.02, 187500.00, 0.000, 0.000, 0.000, 13:43:41.034
81, 47293.18, 83859.14, -187500.02, -187500.02, -187500.02, -187500.02, -187500.02, 187500.00, 0.000, 0.000, 0.000, 13:43:41.034
82, 46384.63, 83080.25, -187500.02, -187500.02, -187500.02, -187500.02, -187500.02, 187500.00, 0.000, 0.000, 0.000, 13:43:41.034
83, 47926.86, 84336.68, -187500.02, -187500.02, -187500.02, -187500.02, -187500.02, 187500.00, 0.000, 0.000, 0.000, 13:43:41.034
84, 49657.37, 85801.26, -187500.02, -187500.02, -187500.02, -187500.02, -187500.02, 187500.00, 0.000, 0.000, 0.000, 13:43:41.035
85, 47790.24, 84243.38, -187500.02, -187500.02, -187500.02, -187500.02, -187500.02, 187500.00, 0.000, 0.000, 0.000, 13:43:41.035
86, 46312.37, 82962.95, -187500.02, -187500.02, -187500.02, -187500.02, -187500.02, 187500.00, 0.294, 0.980, -0.076, 13:43:41.035
87, 47514.18, 83987.21, -187500.02, -187500.02, -187500.02, -187500.02, -187500.02, 187500.00, 0.000, 0.000, 0.000, 13:43:41.035
88, 49560.16, 85757.07, -187500.02, -187500.02, -187500.02, -187500.02, -187500.02, 187500.00, 0.000, 0.000, 0.000, 13:43:41.035
89, 48302.25, 84676.36, -187500.02, -187500.02, -187500.02, -187500.02, -187500.02, 187500.00, 0.000, 0.000, 0.000, 13:43:41.036
90, 46310.42, 82943.88, -187500.02, -187500.02, -187500.02, -187500.02, -187500.02, 187500.00, 0.000, 0.000, 0.000, 13:43:41.036
91, 47208.98, 83710.45, -187500.02, -187500.02, -187500.02, -187500.02, -187500.02, 187500.00, 0.000, 0.000, 0.000, 13:43:41.036
92, 49368.61, 85616.68, -187500.02, -187500.02, -187500.02, -187500.02, -187500.02, 187500.00, 0.000, 0.000, 0.000, 13:43:41.037
93, 48776.46, 85127.87, -187500.02, -187500.02, -187500.02, -187500.02, -187500.02, 187500.00, 0.000, 0.000, 0.000, 13:43:41.037
94, 46401.24, 83039.81, -187500.02, -187500.02, -187500.02, -187500.02, -187500.02, 187500.00, 0.000, 0.000, 0.000, 13:43:41.037
95, 46888.75, 83444.00, -187500.02, -187500.02, -187500.02, -187500.02, -187500.02, 187500.00, 0.000, 0.000, 0.000, 13:43:41.037
96, 49033.69, 85361.98, -187500.02, -187500.02, -187500.02, -187500.02, -187500.02, 187500.00, 0.296, 0.986, -0.064, 13:43:41.037
97, 49218.23, 85545.84, -187500.02, -187500.02, -187500.02, -187500.02, -187500.02, 187500.00, 0.000, 0.000, 0.000, 13:43:41.038
98, 46634.99, 83231.39, -187500.02, -187500.02, -187500.02, -187500.02, -187500.02, 187500.00, 0.000, 0.000, 0.000, 13:43:41.038
99, 46652.96, 83206.53, -187500.02, -187500.02, -187500.02, -187500.02, -187500.02, 187500.00, 0.000, 0.000, 0.000, 13:43:41.038
100, 48680.04, 85026.91, -187500.02, -187500.02, -187500.02, -187500.02, -187500.02, 187500.00, 0.000, 0.000, 0.000, 13:43:41.038
101, 49551.43, 85827.81, -187500.02, -187500.02, -187500.02, -187500.02, -187500.02, 187500.00, 0.000, 0.000, 0.000, 13:43:41.038
102, 46939.76, 83493.11, -187500.02, -187500.02, -187500.02, -187500.02, -187500.02, 187500.00, 0.000, 0.000, 0.000, 13:43:41.039
103, 46412.10, 82983.40, -187500.02, -187500.02, -187500.02, -187500.02, -187500.02, 187500.00, 0.000, 0.000, 0.000, 13:43:41.039
104, 48253.14, 84643.02, -187500.02, -187500.02, -187500.02, -187500.02, -187500.02, 187500.00, 0.000, 0.000, 0.000, 13:43:41.039
105, 49735.67, 86011.99, -187500.02, -187500.02, -187500.02, -187500.02, -187500.02, 187500.00, 0.000, 0.000, 0.000, 13:43:41.039
106, 47394.13, 83893.80, -187500.02, -187500.02, -187500.02, -187500.02, -187500.02, 187500.00, 0.286, 0.980, -0.058, 13:43:41.039
107, 46274.55, 82847.50, -187500.02, -187500.02, -187500.02, -187500.02, -187500.02, 187500.00, 0.000, 0.000, 0.000, 13:43:41.040
108, 47830.47, 84264.33, -187500.02, -187500.02, -187500.02, -187500.02, -187500.02, 187500.00, 0.000, 0.000, 0.000, 13:43:41.040
109, 49759.25, 86041.56, -187500.02, -187500.02, -187500.02, -187500.02, -187500.02, 187500.00, 0.000, 0.000, 0.000, 13:43:41.040
110, 47910.80, 84355.99, -187500.02, -187500.02, -187500.02, -187500.02, -187500.02, 187500.00, 0.000, 0.000, 0.000, 13:43:41.040
111, 46231.70, 82785.70, -187500.02, -187500.02, -187500.02, -187500.02, -187500.02, 187500.00, 0.000, 0.000, 0.000, 13:43:41.040
112, 47460.11, 83911.62, -187500.02, -187500.02, -187500.02, -187500.02, -187500.02, 187500.00, 0.000, 0.000, 0.000, 13:43:41.041
113, 49634.04, 85944.73, -187500.02, -187500.02, -187500.02, -187500.02, -187500.02, 187500.00, 0.000, 0.000, 0.000, 13:43:41.041
114, 48445.59, 84858.38, -187500.02, -187500.02, -187500.02, -187500.02, -187500.02, 187500.00, 0.000, 0.000, 0.000, 13:43:41.041
115, 46250.70, 82817.32, -187500.02, -187500.02, -187500.02, -187500.02, -187500.02, 187500.00, 0.000, 0.000, 0.000, 13:43:41.041
116, 47107.24, 83584.10, -187500.02, -187500.02, -187500.02, -187500.02, -187500.02, 187500.00, 0.284, 0.982, -0.066, 13:43:41.041
117, 49380.95, 85686.68, -187500.02, -187500.02, -187500.02, -187500.02, -187500.02, 187500.00, 0.000, 0.000, 0.000, 13:43:41.041
118, 48955.91, 85313.68, -187500.02, -187500.02, -187500.02, -187500.02, -187500.02, 187500.00, 0.000, 0.000, 0.000, 13:43:41.042
119, 46406.94, 82951.43, -187500.02, -187500.02, -187500.02, -187500.02, -187500.02, 187500.00, 0.000, 0.000, 0.000, 13:43:41.042
120, 46814.97, 83293.15, -187500.02, -187500.02, -187500.02, -187500.02, -187500.02, 187500.00, 0.000, 0.000, 0.000, 13:43:41.042
121, 49033.94, 85344.66, -187500.02, -187500.02, -187500.02, -187500.02, -187500.02, 187500.00, 0.000, 0.000, 0.000, 13:43:41.042
122, 49380.23, 85702.71, -187500.02, -187500.02, -187500.02, -187500.02, -187500.02, 187500.00, 0.000, 0.000, 0.000, 13:43:41.499
123, 46669.50, 83204.16, -187500.02, -187500.02, -187500.02, -187500.02, -187500.02, 187500.00, 0.000, 0.000, 0.000, 13:43:41.499
124, 46548.98, 83061.45, -187500.02, -187500.02, -187500.02, -187500.02, -187500.02, 187500.00, 0.000, 0.000, 0.000, 13:43:41.499
125, 48601.34, 84951.87, -187500.02, -187500.02, -187500.02, -187500.02, -187500.02, 187500.00, 0.000, 0.000, 0.000, 13:43:41.500
126, 49666.98, 85948.94, -187500.02, -187500.02, -187500.02, -187500.02, -187500.02, 187500.00, 0.280, 0.980, -0.072, 13:43:41.500
127, 47042.42, 83546.30, -187500.02, -187500.02, -187500.02, -187500.02, -187500.02, 187500.00, 0.000, 0.000, 0.000, 13:43:41.500
128, 46380.23, 82905.48, -187500.02, -187500.02, -187500.02, -187500.02, -187500.02, 187500.00, 0.000, 0.000, 0.000, 13:43:41.500
129, 48178.47, 84560.52, -187500.02, -187500.02, -187500.02, -187500.02, -187500.02, 187500.00, 0.000, 0.000, 0.000, 13:43:41.501
130, 49780.89, 86059.02, -187500.02, -187500.02, -187500.02, -187500.02, -187500.02, 187500.00, 0.000, 0.000, 0.000, 13:43:41.501
131, 47493.23, 83971.16, -187500.02, -187500.02, -187500.02, -187500.02, -187500.02, 187500.00, 0.000, 0.000, 0.000, 13:43:41.501
132, 46249.29, 82791.62, -187500.02, -187500.02, -187500.02, -187500.02, -187500.02, 187500.00, 0.000, 0.000, 0.000, 13:43:41.501
133, 47768.20, 84169.42, -187500.02, -187500.02, -187500.02, -187500.02, -187500.02, 187500.00, 0.000, 0.000, 0.000, 13:43:41.502
134, 49761.48, 86033.09, -187500.02, -187500.02, -187500.02, -187500.02, -187500.02, 187500.00, 0.000, 0.000, 0.000, 13:43:41.502
135, 48015.77, 84468.76, -187500.02, -187500.02, -187500.02, -187500.02, -187500.02, 187500.00, 0.000, 0.000, 0.000, 13:43:41.502
136, 46249.87, 82786.52, -187500.02, -187500.02, -187500.02, -187500.02, -187500.02, 187500.00, 0.284, 0.974, -0.076, 13:43:41.503
137, 47430.15, 83826.70, -187500.02, -187500.02, -187500.02, -187500.02, -187500.02, 187500.00, 0.000, 0.000, 0.000, 13:43:41.503
138, 49609.14, 85871.11, -187500.02, -187500.02, -187500.02, -187500.02, -187500.02, 187500.00, 0.000, 0.000, 0.000, 13:43:41.503
139, 48592.42, 84950.91, -187500.02, -187500.02, -187500.02, -187500.02, -187500.02, 187500.00, 0.000, 0.000, 0.000, 13:43:41.503
140, 46321.17, 82843.12, -187500.02, -187500.02, -187500.02, -187500.02, -187500.02, 187500.00, 0.000, 0.000, 0.000, 13:43:41.503
141, 47064.39, 83509.55, -187500.02, -187500.02, -187500.02, -187500.02, -187500.02, 187500.00, 0.000, 0.000, 0.000, 13:43:41.504
142, 49302.94, 85587.48, -187500.02, -187500.02, -187500.02, -187500.02, -187500.02, 187500.00, 0.000, 0.000, 0.000, 13:43:41.504
143, 49035.81, 85374.19, -187500.02, -187500.02, -187500.02, -187500.02, -187500.02, 187500.00, 0.000, 0.000, 0.000, 13:43:41.504
144, 46460.87, 82985.45, -187500.02, -187500.02, -187500.02, -187500.02, -187500.02, 187500.00, 0.000, 0.000, 0.000, 13:43:41.505
145, 46762.30, 83218.78, -187500.02, -187500.02, -187500.02, -187500.02, -187500.02, 187500.00, 0.286, 0.974, -0.070, 13:43:41.505
146, 48925.42, 85208.16, -187500.02, -187500.02, -187500.02, -187500.02, -187500.02, 187500.00, 0.000, 0.000, 0.000, 13:43:41.505
147, 49427.17, 85697.77, -187500.02, -187500.02, -187500.02, -187500.02, -187500.02, 187500.00, 0.000, 0.000, 0.000, 13:43:41.505
148, 46721.94, 83255.64, -187500.02, -187500.02, -187500.02, -187500.02, -187500.02, 187500.00, 0.000, 0.000, 0.000, 13:43:41.506
149, 46472.05, 83013.55, -187500.02, -187500.02, -187500.02, -187500.02, -187500.02, 187500.00, 0.000, 0.000, 0.000, 13:43:41.506
150, 48478.23, 84828.91, -187500.02, -187500.02, -187500.02, -187500.02, -187500.02, 187500.00, 0.000, 0.000, 0.000, 13:43:41.506
151, 49701.29, 85932.82, -187500.02, -187500.02, -187500.02, -187500.02, -187500.02, 187500.00, 0.000, 0.000, 0.000, 13:43:41.506
152, 47183.95, 83655.54, -187500.02, -187500.02, -187500.02, -187500.02, -187500.02, 187500.00, 0.000, 0.000, 0.000, 13:43:41.507
153, 46411.99, 82915.94, -187500.02, -187500.02, -187500.02, -187500.02, -187500.02, 187500.00, 0.000, 0.000, 0.000, 13:43:41.507
154, 48134.99, 84480.65, -187500.02, -187500.02, -187500.02, -187500.02, -187500.02, 187500.00, 0.000, 0.000, 0.000, 13:43:41.507
155, 49837.44, 86046.14, -187500.02, -187500.02, -187500.02, -187500.02, -187500.02, 187500.00, 0.284, 0.990, -0.070, 13:43:41.508
156, 47633.93, 84075.21, -187500.02, -187500.02, -187500.02, -187500.02, -187500.02, 187500.00, 0.000, 0.000, 0.000, 13:43:41.508
157, 46264.13, 82803.38, -187500.02, -187500.02, -187500.02, -187500.02, -187500.02, 187500.00, 0.000, 0.000, 0.000, 13:43:41.508
158, 47708.05, 84090.30, -187500.02, -187500.02, -187500.02, -187500.02, -187500.02, 187500.00, 0.000, 0.000, 0.000, 13:43:41.508
159, 49811.44, 85987.63, -187500.02, -187500.02, -187500.02, -187500.02, -187500.02, 187500.00, 0.000, 0.000, 0.000, 13:43:41.509
160, 48208.98, 84571.53, -187500.02, -187500.02, -187500.02, -187500.02, -187500.02, 187500.00, 0.000, 0.000, 0.000, 13:43:41.509
161, 46237.29, 82796.20, -187500.02, -187500.02, -187500.02, -187500.02, -187500.02, 187500.00, 0.000, 0.000, 0.000, 13:43:41.509
162, 47311.45, 83743.78, -187500.02, -187500.02, -187500.02, -187500.02, -187500.02, 187500.00, 0.000, 0.000, 0.000, 13:43:41.509
163, 49600.17, 85808.43, -187500.02, -187500.02, -187500.02, -187500.02, -187500.02, 187500.00, 0.000, 0.000, 0.000, 13:43:41.510
164, 48719.74, 85047.02, -187500.02, -187500.02, -187500.02, -187500.02, -187500.02, 187500.00, 0.000, 0.000, 0.000, 13:43:41.510
165, 46283.71, 82864.82, -187500.02, -187500.02, -187500.02, -187500.02, -187500.02, 187500.00, 0.282, 0.990, -0.070, 13:43:41.510
166, 46956.18, 83437.90, -187500.02, -187500.02, -187500.02, -187500.02, -187500.02, 187500.00, 0.000, 0.000, 0.000, 13:43:41.511
167, 49276.23, 85511.83, -187500.02, -187500.02, -187500.02, -187500.02, -187500.02, 187500.00, 0.000, 0.000, 0.000, 13:43:41.511
168, 49217.42, 85467.57, -187500.02, -187500.02, -187500.02, -187500.02, -187500.02, 187500.00, 0.000, 0.000, 0.000, 13:43:41.511
169, 46522.58, 83038.12, -187500.02, -187500.02, -187500.02, -187500.02, -187500.02, 187500.00, 0.000, 0.000, 0.000, 13:43:41.511
170, 46715.68, 83169.36, -187500.02, -187500.02, -187500.02, -187500.02, -187500.02, 187500.00, 0.000, 0.000, 0.000, 13:43:41.512
171, 48901.14, 85148.01, -187500.02, -187500.02, -187500.02, -187500.02, -187500.02, 187500.00, 0.000, 0.000, 0.000, 13:43:41.512
172, 49585.58, 85790.40, -187500.02, -187500.02, -187500.02, -187500.02, -187500.02, 187500.00, 0.000, 0.000, 0.000, 13:43:41.512
173, 46831.46, 83301.88, -187500.02, -187500.02, -187500.02, -187500.02, -187500.02, 187500.00, 0.000, 0.000, 0.000, 13:43:41.513
174, 46453.79, 82948.95, -187500.02, -187500.02, -187500.02, -187500.02, -187500.02, 187500.00, 0.000, 0.000, 0.000, 13:43:41.513
175, 48421.99, 84752.58, -187500.02, -187500.02, -187500.02, -187500.02, -187500.02, 187500.00, 0.278, 0.972, -0.080, 13:43:41.513
176, 49787.46, 86013.16, -187500.02, -187500.02, -187500.02, -187500.02, -187500.02, 187500.00, 0.000, 0.000, 0.000, 13:43:41.513
177, 47305.68, 83719.38, -187500.02, -187500.02, -187500.02, -187500.02, -187500.02, 187500.00, 0.000, 0.000, 0.000, 13:43:41.514
178, 46341.82, 82816.23, -187500.02, -187500.02, -187500.02, -187500.02, -187500.02, 187500.00, 0.000, 0.000, 0.000, 13:43:41.514
179, 47993.64, 84363.55, -187500.02, -187500.02, -187500.02, -187500.02, -187500.02, 187500.00, 0.000, 0.000, 0.000, 13:43:41.514
180, 49831.49, 86066.26, -187500.02, -187500.02, -187500.02, -187500.02, -187500.02, 187500.00, 0.000, 0.000, 0.000, 13:43:41.515
181, 47777.25, 84178.27, -187500.02, -187500.02, -187500.02, -187500.02, -187500.02, 187500.00, 0.000, 0.000, 0.000, 13:43:41.515
182, 46245.69, 82766.70, -187500.02, -187500.02, -187500.02, -187500.02, -187500.02, 187500.00, 0.000, 0.000, 0.000, 13:43:41.516
183, 47604.27, 84005.32, -187500.02, -187500.02, -187500.02, -187500.02, -187500.02, 187500.00, 0.000, 0.000, 0.000, 13:43:41.516
184, 49759.86, 85984.16, -187500.02, -187500.02, -187500.02, -187500.02, -187500.02, 187500.00, 0.000, 0.000, 0.000, 13:43:41.516
185, 48292.37, 84670.28, -187500.02, -187500.02, -187500.02, -187500.02, -187500.02, 187500.00, 0.280, 0.984, -0.078, 13:43:41.517
186, 46221.19, 82775.97, -187500.02, -187500.02, -187500.02, -187500.02, -187500.02, 187500.00, 0.000, 0.000, 0.000, 13:43:41.517
187, 47231.43, 83673.59, -187500.02, -187500.02, -187500.02, -187500.02, -187500.02, 187500.00, 0.000, 0.000, 0.000, 13:43:41.517
188, 49542.06, 85772.13, -187500.02, -187500.02, -187500.02, -187500.02, -187500.02, 187500.00, 0.000, 0.000, 0.000, 13:43:41.517
189, 48857.98, 85166.07, -187500.02, -187500.02, -187500.02, -187500.02, -187500.02, 187500.00, 0.000, 0.000, 0.000, 13:43:41.518
190, 46355.73, 82900.56, -187500.02, -187500.02, -187500.02, -187500.02, -187500.02, 187500.00, 0.000, 0.000, 0.000, 13:43:41.518
191, 46917.50, 83383.74, -187500.02, -187500.02, -187500.02, -187500.02, -187500.02, 187500.00, 0.000, 0.000, 0.000, 13:43:41.518
192, 49218.43, 85467.19, -187500.02, -187500.02, -187500.02, -187500.02, -187500.02, 187500.00, 0.000, 0.000, 0.000, 13:43:41.518
193, 49314.59, 85576.73, -187500.02, -187500.02, -187500.02, -187500.02, -187500.02, 187500.00, 0.000, 0.000, 0.000, 13:43:41.519
194, 46572.59, 83108.79, -187500.02, -187500.02, -187500.02, -187500.02, -187500.02, 187500.00, 0.000, 0.000, 0.000, 13:43:41.519
195, 46647.60, 83139.57, -187500.02, -187500.02, -187500.02, -187500.02, -187500.02, 187500.00, 0.284, 0.976, -0.078, 13:43:41.519
196, 48809.12, 85098.19, -187500.02, -187500.02, -187500.02, -187500.02, -187500.02, 187500.00, 0.000, 0.000, 0.000, 13:43:41.520
197, 49647.63, 85881.97, -187500.02, -187500.02, -187500.02, -187500.02, -187500.02, 187500.00, 0.000, 0.000, 0.000, 13:43:41.520
198, 46924.22, 83421.31, -187500.02, -187500.02, -187500.02, -187500.02, -187500.02, 187500.00, 0.000, 0.000, 0.000, 13:43:41.520
199, 46443.95, 82955.77, -187500.02, -187500.02, -187500.02, -187500.02, -187500.02, 187500.00, 0.000, 0.000, 0.000, 13:43:41.521
200, 48354.60, 84698.71, -187500.02, -187500.02, -187500.02, -187500.02, -187500.02, 187500.00, 0.000, 0.000, 0.000, 13:43:41.521
201, 49808.98, 86054.37, -187500.02, -187500.02, -187500.02, -187500.02, -187500.02, 187500.00, 0.000, 0.000, 0.000, 13:43:41.521
202, 47368.15, 83836.59, -187500.02, -187500.02, -187500.02, -187500.02, -187500.02, 187500.00, 0.000, 0.000, 0.000, 13:43:41.522
203, 46307.47, 82825.82, -187500.02, -187500.02, -187500.02, -187500.02, -187500.02, 187500.00, 0.000, 0.000, 0.000, 13:43:41.522
204, 47936.22, 84305.63, -187500.02, -187500.02, -187500.02, -187500.02, -187500.02, 187500.00, 0.290, 0.974, -0.082, 13:43:41.522
205, 49831.63, 86076.30, -187500.02, -187500.02, -187500.02, -187500.02, -187500.02, 187500.00, 0.000, 0.000, 0.000, 13:43:41.523
206, 47894.27, 84307.00, -187500.02, -187500.02, -187500.02, -187500.02, -187500.02, 187500.00, 0.000, 0.000, 0.000, 13:43:41.523
207, 46259.48, 82771.37, -187500.02, -187500.02, -187500.02, -187500.02, -187500.02, 187500.00, 0.000, 0.000, 0.000, 13:43:41.523
208, 47526.29, 83936.45, -187500.02, -187500.02, -187500.02, -187500.02, -187500.02, 187500.00, 0.000, 0.000, 0.000, 13:43:41.523
209, 49677.58, 85942.61, -187500.02, -187500.02, -187500.02, -187500.02, -187500.02, 187500.00, 0.000, 0.000, 0.000, 13:43:41.524
210, 48425.99, 84812.04, -187500.02, -187500.02, -187500.02, -187500.02, -187500.02, 187500.00, 0.000, 0.000, 0.000, 13:43:41.524
211, 46281.99, 82832.88, -187500.02, -187500.02, -187500.02, -187500.02, -187500.02, 187500.00, 0.000, 0.000, 0.000, 13:43:41.524
212, 47170.83, 83627.02, -187500.02, -187500.02, -187500.02, -187500.02, -187500.02, 187500.00, 0.000, 0.000, 0.000, 13:43:41.524
213, 49450.15, 85712.08, -187500.02, -187500.02, -187500.02, -187500.02, -187500.02, 187500.00, 0.000, 0.000, 0.000, 13:43:41.525
214, 48945.27, 85271.73, -187500.02, -187500.02, -187500.02, -187500.02, -187500.02, 187500.00, 0.298, 0.982, -0.086, 13:43:41.525
215, 46411.50, 82965.70, -187500.02, -187500.02, -187500.02, -187500.02, -187500.02, 187500.00, 0.000, 0.000, 0.000, 13:43:41.525
216, 46862.64, 83348.34, -187500.02, -187500.02, -187500.02, -187500.02, -187500.02, 187500.00, 0.000, 0.000, 0.000, 13:43:41.525
217, 49101.33, 85378.05, -187500.02, -187500.02, -187500.02, -187500.02, -187500.02, 187500.00, 0.000, 0.000, 0.000, 13:43:41.526
218, 49388.10, 85644.23, -187500.02, -187500.02, -187500.02, -187500.02, -187500.02, 187500.00, 0.000, 0.000, 0.000, 13:43:41.526
219, 46667.67, 83187.58, -187500.02, -187500.02, -187500.02, -187500.02, -187500.02, 187500.00, 0.000, 0.000, 0.000, 13:43:41.526
220, 46597.62, 83105.77, -187500.02, -187500.02, -187500.02, -187500.02, -187500.02, 187500.00, 0.000, 0.000, 0.000, 13:43:41.526
221, 48666.43, 84987.68, -187500.02, -187500.02, -187500.02, -187500.02, -187500.02, 187500.00, 0.000, 0.000, 0.000, 13:43:41.526
222, 49678.72, 85913.20, -187500.02, -187500.02, -187500.02, -187500.02, -187500.02, 187500.00, 0.000, 0.000, 0.000, 13:43:41.527
223, 47037.21, 83523.28, -187500.02, -187500.02, -187500.02, -187500.02, -187500.02, 187500.00, 0.000, 0.000, 0.000, 13:43:41.527
224, 46428.21, 82932.75, -187500.02, -187500.02, -187500.02, -187500.02, -187500.02, 187500.00, 0.292, 0.996, -0.084, 13:43:41.527
225, 48285.96, 84596.05, -187500.02, -187500.02, -187500.02, -187500.02, -187500.02, 187500.00, 0.000, 0.000, 0.000, 13:43:41.527
226, 49859.45, 86035.30, -187500.02, -187500.02, -187500.02, -187500.02, -187500.02, 187500.00, 0.000, 0.000, 0.000, 13:43:41.527
227, 47499.60, 83917.77, -187500.02, -187500.02, -187500.02, -187500.02, -187500.02, 187500.00, 0.000, 0.000, 0.000, 13:43:41.528
228, 46298.35, 82807.89, -187500.02, -187500.02, -187500.02, -187500.02, -187500.02, 187500.00, 0.000, 0.000, 0.000, 13:43:41.528
229, 47851.86, 84213.01, -187500.02, -187500.02, -187500.02, -187500.02, -187500.02, 187500.00, 0.000, 0.000, 0.000, 13:43:41.528
230, 49845.93, 86050.26, -187500.02, -187500.02, -187500.02, -187500.02, -187500.02, 187500.00, 0.000, 0.000, 0.000, 13:43:41.528
231, 47998.18, 84417.71, -187500.02, -187500.02, -187500.02, -187500.02, -187500.02, 187500.00, 0.000, 0.000, 0.000, 13:43:41.528
232, 46244.37, 82788.34, -187500.02, -187500.02, -187500.02, -187500.02, -187500.02, 187500.00, 0.000, 0.000, 0.000, 13:43:41.528
233, 47484.47, 83867.01, -187500.02, -187500.02, -187500.02, -187500.02, -187500.02, 187500.00, 0.000, 0.000, 0.000, 13:43:41.529
234, 49697.71, 85901.04, -187500.02, -187500.02, -187500.02, -187500.02, -187500.02, 187500.00, 0.286, 0.984, -0.086, 13:43:41.529
235, 48569.31, 84921.61, -187500.02, -187500.02, -187500.02, -187500.02, -187500.02, 187500.00, 0.000, 0.000, 0.000, 13:43:41.529
236, 46298.48, 82859.73, -187500.02, -187500.02, -187500.02, -187500.02, -187500.02, 187500.00, 0.000, 0.000, 0.000, 13:43:41.529
237, 47113.99, 83568.56, -187500.02, -187500.02, -187500.02, -187500.02, -187500.02, 187500.00, 0.000, 0.000, 0.000, 13:43:41.529
238, 49414.86, 85634.91, -187500.02, -187500.02, -187500.02, -187500.02, -187500.02, 187500.00, 0.000, 0.000, 0.000, 13:43:41.530
239, 49087.56, 85352.55, -187500.02, -187500.02, -187500.02, -187500.02, -187500.02, 187500.00, 0.000, 0.000, 0.000, 13:43:41.530
240, 46507.96, 83018.20, -187500.02, -187500.02, -187500.02, -187500.02, -187500.02, 187500.00, 0.000, 0.000, 0.000, 13:43:41.530
241, 46833.45, 83306.91, -187500.02, -187500.02, -187500.02, -187500.02, -187500.02, 187500.00, 0.000, 0.000, 0.000, 13:43:41.530
242, 49007.96, 85287.10, -187500.02, -187500.02, -187500.02, -187500.02, -187500.02, 187500.00, 0.000, 0.000, 0.000, 13:43:41.978
243, 49437.45, 85698.55, -187500.02, -187500.02, -187500.02, -187500.02, -187500.02, 187500.00, 0.000, 0.000, 0.000, 13:43:41.979
244, 46775.32, 83286.27, -187500.02, -187500.02, -187500.02, -187500.02, -187500.02, 187500.00, 0.284, 0.988, -0.090, 13:43:41.979
245, 46610.16, 83110.51, -187500.02, -187500.02, -187500.02, -187500.02, -187500.02, 187500.00, 0.000, 0.000, 0.000, 13:43:41.979
246, 48597.96, 84921.29, -187500.02, -187500.02, -187500.02, -187500.02, -187500.02, 187500.00, 0.000, 0.000, 0.000, 13:43:41.979
247, 49712.63, 85945.96, -187500.02, -187500.02, -187500.02, -187500.02, -187500.02, 187500.00, 0.000, 0.000, 0.000, 13:43:41.979
248, 47170.07, 83670.34, -187500.02, -187500.02, -187500.02, -187500.02, -187500.02, 187500.00, 0.000, 0.000, 0.000, 13:43:41.980
249, 46431.41, 82983.89, -187500.02, -187500.02, -187500.02, -187500.02, -187500.02, 187500.00, 0.000, 0.000, 0.000, 13:43:41.980
250, 48141.86, 84517.46, -187500.02, -187500.02, -187500.02, -187500.02, -187500.02, 187500.00, 0.000, 0.000, 0.000, 13:43:41.980
251, 49781.49, 85998.94, -187500.02, -187500.02, -187500.02, -187500.02, -187500.02, 187500.00, 0.000, 0.000, 0.000, 13:43:41.980
252, 47626.34, 84079.91, -187500.02, -187500.02, -187500.02, -187500.02, -187500.02, 187500.00, 0.000, 0.000, 0.000, 13:43:41.981
253, 46335.10, 82907.83, -187500.02, -187500.02, -187500.02, -187500.02, -187500.02, 187500.00, 0.000, 0.000, 0.000, 13:43:41.981
254, 47754.84, 84161.45, -187500.02, -187500.02, -187500.02, -187500.02, -187500.02, 187500.00, 0.290, 0.968, -0.100, 13:43:41.981
255, 49756.73, 85945.07, -187500.02, -187500.02, -187500.02, -187500.02, -187500.02, 187500.00, 0.000, 0.000, 0.000, 13:43:41.982
0, 48141.81, 84537.65, -187500.02, -187500.02, -187500.02, -187500.02, -187500.02, 187500.00, 0.000, 0.000, 0.000, 13:43:41.982
1, 46270.81, 82884.00, -187500.02, -187500.02, -187500.02, -187500.02, -187500.02, 187500.00, 0.000, 0.000, 0.000, 13:43:41.982
2, 47339.27, 83804.09, -187500.02, -187500.02, -187500.02, -187500.02, -187500.02, 187500.00, 0.000, 0.000, 0.000, 13:43:41.982
3, 49528.76, 85732.86, -187500.02, -187500.02, -187500.02, -187500.02, -187500.02, 187500.00, 0.000, 0.000, 0.000, 13:43:41.983
4, 48616.12, 84972.16, -187500.02, -187500.02, -187500.02, -187500.02, -187500.02, 187500.00, 0.000, 0.000, 0.000, 13:43:41.983
5, 46303.29, 82974.97, -187500.02, -187500.02, -187500.02, -187500.02, -187500.02, 187500.00, 0.000, 0.000, 0.000, 13:43:41.983
6, 47005.32, 83544.23, -187500.02, -187500.02, -187500.02, -187500.02, -187500.02, 187500.00, 0.000, 0.000, 0.000, 13:43:41.984
7, 49269.84, 85488.70, -187500.02, -187500.02, -187500.02, -187500.02, -187500.02, 187500.00, 0.000, 0.000, 0.000, 13:43:41.984
8, 49126.83, 85375.23, -187500.02, -187500.02, -187500.02, -187500.02, -187500.02, 187500.00, 0.288, 0.972, -0.104, 13:43:41.984
9, 46540.11, 83139.21, -187500.02, -187500.02, -187500.02, -187500.02, -187500.02, 187500.00, 0.000, 0.000, 0.000, 13:43:41.985
10, 46799.28, 83329.85, -187500.02, -187500.02, -187500.02, -187500.02, -187500.02, 187500.00, 0.000, 0.000, 0.000, 13:43:41.985
11, 48920.75, 85172.75, -187500.02, -187500.02, -187500.02, -187500.02, -187500.02, 187500.00, 0.000, 0.000, 0.000, 13:43:41.985
12, 49486.05, 85687.22, -187500.02, -187500.02, -187500.02, -187500.02, -187500.02, 187500.00, 0.000, 0.000, 0.000, 13:43:41.985
13, 46846.42, 83407.84, -187500.02, -187500.02, -187500.02, -187500.02, -187500.02, 187500.00, 0.000, 0.000, 0.000, 13:43:41.986
14, 46574.24, 83136.20, -187500.02, -187500.02, -187500.02, -187500.02, -187500.02, 187500.00, 0.000, 0.000, 0.000, 13:43:41.986
15, 48505.07, 84802.43, -187500.02, -187500.02, -187500.02, -187500.02, -187500.02, 187500.00, 0.000, 0.000, 0.000, 13:43:41.986
16, 49737.19, 85886.51, -187500.02, -187500.02, -187500.02, -187500.02, -187500.02, 187500.00, 0.000, 0.000, 0.000, 13:43:41.987
17, 47252.91, 83746.30, -187500.02, -187500.02, -187500.02, -187500.02, -187500.02, 187500.00, 0.290, 0.968, -0.104, 13:43:41.987
18, 46393.04, 82977.92, -187500.02, -187500.02, -187500.02, -187500.02, -187500.02, 187500.00, 0.000, 0.000, 0.000, 13:43:41.987
19, 48038.23, 84421.20, -187500.02, -187500.02, -187500.02, -187500.02, -187500.02, 187500.00, 0.000, 0.000, 0.000, 13:43:41.988
20, 49769.15, 85943.93, -187500.02, -187500.02, -187500.02, -187500.02, -187500.02, 187500.00, 0.000, 0.000, 0.000, 13:43:41.988
21, 47720.13, 84154.63, -187500.02, -187500.02, -187500.02, -187500.02, -187500.02, 187500.00, 0.000, 0.000, 0.000, 13:43:41.989
22, 46302.60, 82890.41, -187500.02, -187500.02, -187500.02, -187500.02, -187500.02, 187500.00, 0.000, 0.000, 0.000, 13:43:41.989
23, 47633.98, 84057.22, -187500.02, -187500.02, -187500.02, -187500.02, -187500.02, 187500.00, 0.000, 0.000, 0.000, 13:43:41.990
24, 49694.52, 85880.72, -187500.02, -187500.02, -187500.02, -187500.02, -187500.02, 187500.00, 0.000, 0.000, 0.000, 13:43:41.990
25, 48261.30, 84627.97, -187500.02, -187500.02, -187500.02, -187500.02, -187500.02, 187500.00, 0.000, 0.000, 0.000, 13:43:41.990
26, 46328.93, 82896.49, -187500.02, -187500.02, -187500.02, -187500.02, -187500.02, 187500.00, 0.000, 0.000, 0.000, 13:43:41.991
27, 47326.04, 83742.22, -187500.02, -187500.02, -187500.02, -187500.02, -187500.02, 187500.00, 0.294, 0.970, -0.100, 13:43:41.991
28, 49516.36, 85699.91, -187500.02, -187500.02, -187500.02, -187500.02, -187500.02, 187500.00, 0.000, 0.000, 0.000, 13:43:41.991
29, 48790.08, 85081.91, -187500.02, -187500.02, -187500.02, -187500.02, -187500.02, 187500.00, 0.000, 0.000, 0.000, 13:43:41.992
30, 46438.25, 82981.09, -187500.02, -187500.02, -187500.02, -187500.02, -187500.02, 187500.00, 0.000, 0.000, 0.000, 13:43:41.992
31, 47005.89, 83465.14, -187500.02, -187500.02, -187500.02, -187500.02, -187500.02, 187500.00, 0.000, 0.000, 0.000, 13:43:41.992
32, 49189.28, 85434.02, -187500.02, -187500.02, -187500.02, -187500.02, -187500.02, 187500.00, 0.000, 0.000, 0.000, 13:43:41.992
33, 49219.84, 85490.08, -187500.02, -187500.02, -187500.02, -187500.02, -187500.02, 187500.00, 0.000, 0.000, 0.000, 13:43:41.993
34, 46622.25, 83181.84, -187500.02, -187500.02, -187500.02, -187500.02, -187500.02, 187500.00, 0.000, 0.000, 0.000, 13:43:41.993
35, 46727.50, 83242.25, -187500.02, -187500.02, -187500.02, -187500.02, -187500.02, 187500.00, 0.000, 0.000, 0.000, 13:43:41.993
36, 48794.08, 85082.94, -187500.02, -187500.02, -187500.02, -187500.02, -187500.02, 187500.00, 0.000, 0.000, 0.000, 13:43:41.994
37, 49548.99, 85765.77, -187500.02, -187500.02, -187500.02, -187500.02, -187500.02, 187500.00, 0.294, 0.970, -0.102, 13:43:41.994
38, 46942.53, 83454.26, -187500.02, -187500.02, -187500.02, -187500.02, -187500.02, 187500.00, 0.000, 0.000, 0.000, 13:43:41.994
39, 46527.08, 83060.55, -187500.02, -187500.02, -187500.02, -187500.02, -187500.02, 187500.00, 0.000, 0.000, 0.000, 13:43:41.995
40, 48384.73, 84703.84, -187500.02, -187500.02, -187500.02, -187500.02, -187500.02, 187500.00, 0.000, 0.000, 0.000, 13:43:41.995
41, 49745.10, 85931.23, -187500.02, -187500.02, -187500.02, -187500.02, -187500.02, 187500.00, 0.000, 0.000, 0.000, 13:43:41.995
42, 47343.65, 83827.84, -187500.02, -187500.02, -187500.02, -187500.02, -187500.02, 187500.00, 0.000, 0.000, 0.000, 13:43:41.996
43, 46367.15, 82935.07, -187500.02, -187500.02, -187500.02, -187500.02, -187500.02, 187500.00, 0.000, 0.000, 0.000, 13:43:41.996
44, 47974.20, 84338.00, -187500.02, -187500.02, -187500.02, -187500.02, -187500.02, 187500.00, 0.000, 0.000, 0.000, 13:43:41.996
45, 49808.83, 85968.34, -187500.02, -187500.02, -187500.02, -187500.02, -187500.02, 187500.00, 0.000, 0.000, 0.000, 13:43:41.997
46, 47869.99, 84287.93, -187500.02, -187500.02, -187500.02, -187500.02, -187500.02, 187500.00, 0.000, 0.000, 0.000, 13:43:41.997
47, 46300.79, 82922.66, -187500.02, -187500.02, -187500.02, -187500.02, -187500.02, 187500.00, 0.302, 0.970, -0.104, 13:43:41.997
48, 47576.51, 84086.88, -187500.02, -187500.02, -187500.02, -187500.02, -187500.02, 187500.00, 0.000, 0.000, 0.000, 13:43:41.998
49, 49679.97, 85922.63, -187500.02, -187500.02, -187500.02, -187500.02, -187500.02, 187500.00, 0.000, 0.000, 0.000, 13:43:41.998
50, 48377.73, 84776.79, -187500.02, -187500.02, -187500.02, -187500.02, -187500.02, 187500.00, 0.000, 0.000, 0.000, 13:43:41.998
51, 46330.65, 82955.45, -187500.02, -187500.02, -187500.02, -187500.02, -187500.02, 187500.00, 0.000, 0.000, 0.000, 13:43:41.998
52, 47243.76, 83718.19, -187500.02, -187500.02, -187500.02, -187500.02, -187500.02, 187500.00, 0.000, 0.000, 0.000, 13:43:41.999
53, 49459.00, 85645.71, -187500.02, -187500.02, -187500.02, -187500.02, -187500.02, 187500.00, 0.000, 0.000, 0.000, 13:43:41.999
54, 48889.32, 85172.75, -187500.02, -187500.02, -187500.02, -187500.02, -187500.02, 187500.00, 0.000, 0.000, 0.000, 13:43:41.999
55, 46432.15, 83035.56, -187500.02, -187500.02, -187500.02, -187500.02, -187500.02, 187500.00, 0.000, 0.000, 0.000, 13:43:41.999
56, 46918.52, 83429.47, -187500.02, -187500.02, -187500.02, -187500.02, -187500.02, 187500.00, 0.000, 0.000, 0.000, 13:43:42.000
57, 49104.41, 85349.17, -187500.02, -187500.02, -187500.02, -187500.02, -187500.02, 187500.00, 0.302, 0.978, -0.108, 13:43:42.000
58, 49291.63, 85540.64, -187500.02, -187500.02, -187500.02, -187500.02, -187500.02, 187500.00, 0.000, 0.000, 0.000, 13:43:42.000
59, 46655.09, 83240.95, -187500.02, -187500.02, -187500.02, -187500.02, -187500.02, 187500.00, 0.000, 0.000, 0.000, 13:43:42.001
60, 46664.38, 83218.41, -187500.02, -187500.02, -187500.02, -187500.02, -187500.02, 187500.00, 0.000, 0.000, 0.000, 13:43:42.001
61, 48694.82, 84996.95, -187500.02, -187500.02, -187500.02, -187500.02, -187500.02, 187500.00, 0.000, 0.000, 0.000, 13:43:42.001
62, 49591.72, 85799.52, -187500.02, -187500.02, -187500.02, -187500.02, -187500.02, 187500.00, 0.000, 0.000, 0.000, 13:43:42.001
63, 46997.80, 83534.68, -187500.02, -187500.02, -187500.02, -187500.02, -187500.02, 187500.00, 0.000, 0.000, 0.000, 13:43:42.002
64, 46454.75, 83027.59, -187500.02, -187500.02, -187500.02, -187500.02, -187500.02, 187500.00, 0.000, 0.000, 0.000, 13:43:42.002
