%OpenBCI Raw EEG Data
%
%Sample Rate = 250.0 Hz
%First Column = SampleIndex
%Last Column = Timestamp 
%Other Columns = EEG data in microvolts followed by Accel Data (in G) interleaved with Aux Data
0, 0.00, 0.00, 0.00, 0.00, 0.00, 0.00, 0.00, 0.00, 0.378, 0.936, -0.140, 13:41:44.265
1, 44677.52, 82261.13, -187500.02, -187500.02, -187500.02, -187500.02, -187500.02, 187500.00, 0.000, 0.000, 0.000, 13:41:44.750
2, 44677.63, 82276.05, -187500.02, -187500.02, -187500.02, -187500.02, -187500.02, 187500.00, 0.000, 0.000, 0.000, 13:41:44.750
3, 44852.33, 82658.36, -187500.02, -187500.02, -187500.02, -187500.02, -187500.02, 187500.00, 0.000, 0.000, 0.000, 13:41:44.750
4, 44938.70, 82785.70, -187500.02, -187500.02, -187500.02, -187500.02, -187500.02, 187500.00, 0.000, 0.000, 0.000, 13:41:44.751
5, 44666.54, 82276.30, -187500.02, -187500.02, -187500.02, -187500.02, -187500.02, 187500.00, 0.000, 0.000, 0.000, 13:41:44.751
6, 44636.34, 82204.10, -187500.02, -187500.02, -187500.02, -187500.02, -187500.02, 187500.00, 0.000, 0.000, 0.000, 13:41:44.751
7, 44831.38, 82571.88, -187500.02, -187500.02, -187500.02, -187500.02, -187500.02, 187500.00, 0.000, 0.000, 0.000, 13:41:44.751
8, 45004.07, 82838.31, -187500.02, -187500.02, -187500.02, -187500.02, -187500.02, 187500.00, 0.356, 0.950, -0.130, 13:41:44.752
9, 44628.96, 82292.39, -187500.02, -187500.02, -187500.02, -187500.02, -187500.02, 187500.00, 0.000, 0.000, 0.000, 13:41:44.752
10, 44527.49, 82146.52, -187500.02, -187500.02, -187500.02, -187500.02, -187500.02, 187500.00, 0.000, 0.000, 0.000, 13:41:44.752
11, 44776.45, 82514.13, -187500.02, -187500.02, -187500.02, -187500.02, -187500.02, 187500.00, 0.000, 0.000, 0.000, 13:41:44.753
12, 45091.91, 82943.50, -187500.02, -187500.02, -187500.02, -187500.02, -187500.02, 187500.00, 0.000, 0.000, 0.000, 13:41:44.753
13, 44761.54, 82439.80, -187500.02, -187500.02, -187500.02, -187500.02, -187500.02, 187500.00, 0.000, 0.000, 0.000, 13:41:44.753
14, 44583.75, 82106.16, -187500.02, -187500.02, -187500.02, -187500.02, -187500.02, 187500.00, 0.000, 0.000, 0.000, 13:41:44.754
15, 44761.02, 82414.66, -187500.02, -187500.02, -187500.02, -187500.02, -187500.02, 187500.00, 0.000, 0.000, 0.000, 13:41:44.754
16, 45117.22, 82951.79, -187500.02, -187500.02, -187500.02, -187500.02, -187500.02, 187500.00, 0.000, 0.000, 0.000, 13:41:44.754
17, 44815.89, 82548.63, -187500.02, -187500.02, -187500.02, -187500.02, -187500.02, 187500.00, 0.330, 0.954, -0.130, 13:41:44.755
18, 44476.24, 82045.56, -187500.02, -187500.02, -187500.02, -187500.02, -187500.02, 187500.00, 0.000, 0.000, 0.000, 13:41:44.755
19, 44654.47, 82292.84, -187500.02, -187500.02, -187500.02, -187500.02, -187500.02, 187500.00, 0.000, 0.000, 0.000, 13:41:44.755
20, 45103.07, 82918.64, -187500.02, -187500.02, -187500.02, -187500.02, -187500.02, 187500.00, 0.000, 0.000, 0.000, 13:41:44.756
21, 44928.64, 82690.34, -187500.02, -187500.02, -187500.02, -187500.02, -187500.02, 187500.00, 0.000, 0.000, 0.000, 13:41:44.756
22, 44462.67, 82047.59, -187500.02, -187500.02, -187500.02, -187500.02, -187500.02, 187500.00, 0.000, 0.000, 0.000, 13:41:44.756
23, 44595.53, 82210.98, -187500.02, -187500.02, -187500.02, -187500.02, -187500.02, 187500.00, 0.000, 0.000, 0.000, 13:41:44.757
24, 45058.52, 82846.25, -187500.02, -187500.02, -187500.02, -187500.02, -187500.02, 187500.00, 0.000, 0.000, 0.000, 13:41:44.757
25, 45027.48, 82823.98, -187500.02, -187500.02, -187500.02, -187500.02, -187500.02, 187500.00, 0.000, 0.000, 0.000, 13:41:44.757
26, 44441.70, 82087.36, -187500.02, -187500.02, -187500.02, -187500.02, -187500.02, 187500.00, 0.000, 0.000, 0.000, 13:41:44.758
27, 44499.04, 82129.38, -187500.02, -187500.02, -187500.02, -187500.02, -187500.02, 187500.00, 0.314, 0.970, -0.102, 13:41:44.758
28, 45008.12, 82757.13, -187500.02, -187500.02, -187500.02, -187500.02, -187500.02, 187500.00, 0.000, 0.000, 0.000, 13:41:44.758
29, 45203.99, 82985.56, -187500.02, -187500.02, -187500.02, -187500.02, -187500.02, 187500.00, 0.000, 0.000, 0.000, 13:41:44.759
30, 44531.11, 82190.36, -187500.02, -187500.02, -187500.02, -187500.02, -187500.02, 187500.00, 0.000, 0.000, 0.000, 13:41:44.759
31, 44439.69, 82068.54, -187500.02, -187500.02, -187500.02, -187500.02, -187500.02, 187500.00, 0.000, 0.000, 0.000, 13:41:44.762
32, 44901.25, 82652.03, -187500.02, -187500.02, -187500.02, -187500.02, -187500.02, 187500.00, 0.000, 0.000, 0.000, 13:41:44.763
33, 45269.16, 83082.41, -187500.02, -187500.02, -187500.02, -187500.02, -187500.02, 187500.00, 0.000, 0.000, 0.000, 13:41:44.764
34, 44619.85, 82298.78, -187500.02, -187500.02, -187500.02, -187500.02, -187500.02, 187500.00, 0.000, 0.000, 0.000, 13:41:44.764
35, 44400.31, 82013.53, -187500.02, -187500.02, -187500.02, -187500.02, -187500.02, 187500.00, 0.000, 0.000, 0.000, 13:41:44.764
36, 44800.43, 82510.86, -187500.02, -187500.02, -187500.02, -187500.02, -187500.02, 187500.00, 0.000, 0.000, 0.000, 13:41:44.764
37, 45310.76, 83101.13, -187500.02, -187500.02, -187500.02, -187500.02, -187500.02, 187500.00, 0.316, 0.964, -0.116, 13:41:44.765
38, 44716.32, 82407.66, -187500.02, -187500.02, -187500.02, -187500.02, -187500.02, 187500.00, 0.000, 0.000, 0.000, 13:41:44.765
39, 44321.41, 81929.69, -187500.02, -187500.02, -187500.02, -187500.02, -187500.02, 187500.00, 0.000, 0.000, 0.000, 13:41:44.765
40, 44695.64, 82370.20, -187500.02, -187500.02, -187500.02, -187500.02, -187500.02, 187500.00, 0.000, 0.000, 0.000, 13:41:44.765
41, 45357.68, 83113.53, -187500.02, -187500.02, -187500.02, -187500.02, -187500.02, 187500.00, 0.000, 0.000, 0.000, 13:41:44.766
42, 44879.82, 82601.96, -187500.02, -187500.02, -187500.02, -187500.02, -187500.02, 187500.00, 0.000, 0.000, 0.000, 13:41:44.766
43, 44259.49, 81917.29, -187500.02, -187500.02, -187500.02, -187500.02, -187500.02, 187500.00, 0.000, 0.000, 0.000, 13:41:44.766
44, 44574.03, 82252.47, -187500.02, -187500.02, -187500.02, -187500.02, -187500.02, 187500.00, 0.000, 0.000, 0.000, 13:41:44.767
45, 45331.21, 83081.52, -187500.02, -187500.02, -187500.02, -187500.02, -187500.02, 187500.00, 0.000, 0.000, 0.000, 13:41:44.767
46, 45080.29, 82806.57, -187500.02, -187500.02, -187500.02, -187500.02, -187500.02, 187500.00, 0.000, 0.000, 0.000, 13:41:44.767
47, 44242.62, 81884.09, -187500.02, -187500.02, -187500.02, -187500.02, -187500.02, 187500.00, 0.298, 0.968, -0.114, 13:41:44.767
48, 44425.86, 82070.64, -187500.02, -187500.02, -187500.02, -187500.02, -187500.02, 187500.00, 0.000, 0.000, 0.000, 13:41:44.768
49, 45235.86, 82954.72, -187500.02, -187500.02, -187500.02, -187500.02, -187500.02, 187500.00, 0.000, 0.000, 0.000, 13:41:44.768
50, 45280.59, 83005.57, -187500.02, -187500.02, -187500.02, -187500.02, -187500.02, 187500.00, 0.000, 0.000, 0.000, 13:41:44.768
51, 44253.19, 81958.23, -187500.02, -187500.02, -187500.02, -187500.02, -187500.02, 187500.00, 0.000, 0.000, 0.000, 13:41:44.768
52, 44306.32, 81989.86, -187500.02, -187500.02, -187500.02, -187500.02, -187500.02, 187500.00, 0.000, 0.000, 0.000, 13:41:44.769
53, 45181.75, 82859.57, -187500.02, -187500.02, -187500.02, -187500.02, -187500.02, 187500.00, 0.000, 0.000, 0.000, 13:41:44.769
54, 45495.54, 83174.88, -187500.02, -187500.02, -187500.02, -187500.02, -187500.02, 187500.00, 0.000, 0.000, 0.000, 13:41:44.769
55, 44337.30, 82026.67, -187500.02, -187500.02, -187500.02, -187500.02, -187500.02, 187500.00, 0.000, 0.000, 0.000, 13:41:44.769
56, 44170.31, 81844.48, -187500.02, -187500.02, -187500.02, -187500.02, -187500.02, 187500.00, 0.000, 0.000, 0.000, 13:41:44.770
57, 45013.73, 82685.09, -187500.02, -187500.02, -187500.02, -187500.02, -187500.02, 187500.00, 0.314, 0.972, -0.112, 13:41:44.770
58, 45639.49, 83314.49, -187500.02, -187500.02, -187500.02, -187500.02, -187500.02, 187500.00, 0.000, 0.000, 0.000, 13:41:44.770
59, 44444.50, 82170.22, -187500.02, -187500.02, -187500.02, -187500.02, -187500.02, 187500.00, 0.000, 0.000, 0.000, 13:41:44.770
60, 43998.69, 81714.96, -187500.02, -187500.02, -187500.02, -187500.02, -187500.02, 187500.00, 0.000, 0.000, 0.000, 13:41:44.771
61, 44802.93, 82489.20, -187500.02, -187500.02, -187500.02, -187500.02, -187500.02, 187500.00, 0.000, 0.000, 0.000, 13:41:44.778
62, 45785.40, 83410.25, -187500.02, -187500.02, -187500.02, -187500.02, -187500.02, 187500.00, 0.000, 0.000, 0.000, 13:41:44.779
63, 44736.39, 82403.28, -187500.02, -187500.02, -187500.02, -187500.02, -187500.02, 187500.00, 0.000, 0.000, 0.000, 13:41:44.779
64, 43911.99, 81620.34, -187500.02, -187500.02, -187500.02, -187500.02, -187500.02, 187500.00, 0.000, 0.000, 0.000, 13:41:44.788
65, 44592.80, 82284.91, -187500.02, -187500.02, -187500.02, -187500.02, -187500.02, 187500.00, 0.000, 0.000, 0.000, 13:41:44.788
66, 45769.57, 83416.44, -187500.02, -187500.02, -187500.02, -187500.02, -187500.02, 187500.00, 0.000, 0.000, 0.000, 13:41:44.788
67, 44971.35, 82655.02, -187500.02, -187500.02, -187500.02, -187500.02, -187500.02, 187500.00, 0.318, 0.958, -0.108, 13:41:44.789
68, 43794.20, 81530.53, -187500.02, -187500.02, -187500.02, -187500.02, -187500.02, 187500.00, 0.000, 0.000, 0.000, 13:41:44.789
69, 44329.63, 82060.88, -187500.02, -187500.02, -187500.02, -187500.02, -187500.02, 187500.00, 0.000, 0.000, 0.000, 13:41:44.789
70, 45699.35, 83358.05, -187500.02, -187500.02, -187500.02, -187500.02, -187500.02, 187500.00, 0.000, 0.000, 0.000, 13:41:44.790
71, 45330.52, 82977.63, -187500.02, -187500.02, -187500.02, -187500.02, -187500.02, 187500.00, 0.000, 0.000, 0.000, 13:41:44.790
72, 43801.15, 81530.78, -187500.02, -187500.02, -187500.02, -187500.02, -187500.02, 187500.00, 0.000, 0.000, 0.000, 13:41:44.790
73, 44108.02, 81832.28, -187500.02, -187500.02, -187500.02, -187500.02, -187500.02, 187500.00, 0.000, 0.000, 0.000, 13:41:44.791
74, 45566.46, 83243.52, -187500.02, -187500.02, -187500.02, -187500.02, -187500.02, 187500.00, 0.000, 0.000, 0.000, 13:41:44.791
75, 45664.63, 83330.07, -187500.02, -187500.02, -187500.02, -187500.02, -187500.02, 187500.00, 0.000, 0.000, 0.000, 13:41:44.791
76, 43859.51, 81595.98, -187500.02, -187500.02, -187500.02, -187500.02, -187500.02, 187500.00, 0.000, 0.000, 0.000, 13:41:44.791
77, 43870.17, 81609.14, -187500.02, -187500.02, -187500.02, -187500.02, -187500.02, 187500.00, 0.322, 0.962, -0.112, 13:41:44.792
78, 45312.95, 83017.64, -187500.02, -187500.02, -187500.02, -187500.02, -187500.02, 187500.00, 0.000, 0.000, 0.000, 13:41:44.792
79, 45938.51, 83609.91, -187500.02, -187500.02, -187500.02, -187500.02, -187500.02, 187500.00, 0.000, 0.000, 0.000, 13:41:44.793
80, 44035.50, 81763.39, -187500.02, -187500.02, -187500.02, -187500.02, -187500.02, 187500.00, 0.000, 0.000, 0.000, 13:41:44.793
81, 43686.33, 81397.30, -187500.02, -187500.02, -187500.02, -187500.02, -187500.02, 187500.00, 0.000, 0.000, 0.000, 13:41:44.793
82, 45061.65, 82736.30, -187500.02, -187500.02, -187500.02, -187500.02, -187500.02, 187500.00, 0.000, 0.000, 0.000, 13:41:44.793
83, 46169.72, 83811.33, -187500.02, -187500.02, -187500.02, -187500.02, -187500.02, 187500.00, 0.000, 0.000, 0.000, 13:41:44.794
84, 44329.68, 82033.45, -187500.02, -187500.02, -187500.02, -187500.02, -187500.02, 187500.00, 0.000, 0.000, 0.000, 13:41:44.794
85, 43513.52, 81229.50, -187500.02, -187500.02, -187500.02, -187500.02, -187500.02, 187500.00, 0.000, 0.000, 0.000, 13:41:44.794
86, 44737.48, 82433.25, -187500.02, -187500.02, -187500.02, -187500.02, -187500.02, 187500.00, 0.326, 0.960, -0.144, 13:41:44.795
87, 46237.44, 83902.01, -187500.02, -187500.02, -187500.02, -187500.02, -187500.02, 187500.00, 0.000, 0.000, 0.000, 13:41:44.795
88, 44688.64, 82388.13, -187500.02, -187500.02, -187500.02, -187500.02, -187500.02, 187500.00, 0.000, 0.000, 0.000, 13:41:44.796
89, 43361.13, 81092.77, -187500.02, -187500.02, -187500.02, -187500.02, -187500.02, 187500.00, 0.000, 0.000, 0.000, 13:41:44.796
90, 44382.32, 82107.07, -187500.02, -187500.02, -187500.02, -187500.02, -187500.02, 187500.00, 0.000, 0.000, 0.000, 13:41:44.797
91, 46184.13, 83900.65, -187500.02, -187500.02, -187500.02, -187500.02, -187500.02, 187500.00, 0.000, 0.000, 0.000, 13:41:44.797
92, 45132.04, 82856.66, -187500.02, -187500.02, -187500.02, -187500.02, -187500.02, 187500.00, 0.000, 0.000, 0.000, 13:41:44.797
93, 43345.21, 81067.18, -187500.02, -187500.02, -187500.02, -187500.02, -187500.02, 187500.00, 0.000, 0.000, 0.000, 13:41:44.798
94, 44077.37, 81803.31, -187500.02, -187500.02, -187500.02, -187500.02, -187500.02, 187500.00, 0.000, 0.000, 0.000, 13:41:44.798
95, 45983.01, 83737.66, -187500.02, -187500.02, -187500.02, -187500.02, -187500.02, 187500.00, 0.000, 0.000, 0.000, 13:41:44.798
96, 45571.36, 83284.12, -187500.02, -187500.02, -187500.02, -187500.02, -187500.02, 187500.00, 0.328, 0.972, -0.128, 13:41:44.799
97, 43448.93, 81124.60, -187500.02, -187500.02, -187500.02, -187500.02, -187500.02, 187500.00, 0.000, 0.000, 0.000, 13:41:44.799
98, 43848.33, 81528.50, -187500.02, -187500.02, -187500.02, -187500.02, -187500.02, 187500.00, 0.000, 0.000, 0.000, 13:41:44.799
99, 45782.68, 83486.78, -187500.02, -187500.02, -187500.02, -187500.02, -187500.02, 187500.00, 0.000, 0.000, 0.000, 13:41:44.800
100, 46004.11, 83708.27, -187500.02, -187500.02, -187500.02, -187500.02, -187500.02, 187500.00, 0.000, 0.000, 0.000, 13:41:44.800
101, 43610.58, 81325.99, -187500.02, -187500.02, -187500.02, -187500.02, -187500.02, 187500.00, 0.000, 0.000, 0.000, 13:41:44.800
102, 43571.15, 81282.56, -187500.02, -187500.02, -187500.02, -187500.02, -187500.02, 187500.00, 0.000, 0.000, 0.000, 13:41:44.801
103, 45443.87, 83152.38, -187500.02, -187500.02, -187500.02, -187500.02, -187500.02, 187500.00, 0.000, 0.000, 0.000, 13:41:44.801
104, 46306.42, 84006.46, -187500.02, -187500.02, -187500.02, -187500.02, -187500.02, 187500.00, 0.000, 0.000, 0.000, 13:41:44.801
105, 43913.87, 81604.30, -187500.02, -187500.02, -187500.02, -187500.02, -187500.02, 187500.00, 0.000, 0.000, 0.000, 13:41:44.802
106, 43384.51, 81066.02, -187500.02, -187500.02, -187500.02, -187500.02, -187500.02, 187500.00, 0.326, 0.970, -0.118, 13:41:44.802
107, 45061.41, 82759.48, -187500.02, -187500.02, -187500.02, -187500.02, -187500.02, 187500.00, 0.000, 0.000, 0.000, 13:41:44.802
108, 46481.88, 84171.77, -187500.02, -187500.02, -187500.02, -187500.02, -187500.02, 187500.00, 0.000, 0.000, 0.000, 13:41:44.803
109, 44345.95, 82004.62, -187500.02, -187500.02, -187500.02, -187500.02, -187500.02, 187500.00, 0.000, 0.000, 0.000, 13:41:44.803
110, 43279.21, 80928.00, -187500.02, -187500.02, -187500.02, -187500.02, -187500.02, 187500.00, 0.000, 0.000, 0.000, 13:41:44.803
111, 44675.30, 82361.05, -187500.02, -187500.02, -187500.02, -187500.02, -187500.02, 187500.00, 0.000, 0.000, 0.000, 13:41:44.803
112, 46481.03, 84190.70, -187500.02, -187500.02, -187500.02, -187500.02, -187500.02, 187500.00, 0.000, 0.000, 0.000, 13:41:44.804
113, 44802.24, 82476.73, -187500.02, -187500.02, -187500.02, -187500.02, -187500.02, 187500.00, 0.000, 0.000, 0.000, 13:41:44.804
114, 43226.33, 80864.79, -187500.02, -187500.02, -187500.02, -187500.02, -187500.02, 187500.00, 0.000, 0.000, 0.000, 13:41:44.805
115, 44341.61, 82018.16, -187500.02, -187500.02, -187500.02, -187500.02, -187500.02, 187500.00, 0.000, 0.000, 0.000, 13:41:44.805
116, 46377.25, 84105.70, -187500.02, -187500.02, -187500.02, -187500.02, -187500.02, 187500.00, 0.326, 0.960, -0.114, 13:41:44.805
117, 45316.55, 83009.33, -187500.02, -187500.02, -187500.02, -187500.02, -187500.02, 187500.00, 0.000, 0.000, 0.000, 13:41:44.806
118, 43260.48, 80905.09, -187500.02, -187500.02, -187500.02, -187500.02, -187500.02, 187500.00, 0.000, 0.000, 0.000, 13:41:44.806
119, 44006.70, 81675.51, -187500.02, -187500.02, -187500.02, -187500.02, -187500.02, 187500.00, 0.000, 0.000, 0.000, 13:41:44.806
120, 46113.37, 83849.84, -187500.02, -187500.02, -187500.02, -187500.02, -187500.02, 187500.00, 0.000, 0.000, 0.000, 13:41:44.806
121, 45774.83, 83476.97, -187500.02, -187500.02, -187500.02, -187500.02, -187500.02, 187500.00, 0.000, 0.000, 0.000, 13:41:45.228
122, 43417.46, 81048.25, -187500.02, -187500.02, -187500.02, -187500.02, -187500.02, 187500.00, 0.000, 0.000, 0.000, 13:41:45.228
123, 43754.10, 81408.09, -187500.02, -187500.02, -187500.02, -187500.02, -187500.02, 187500.00, 0.000, 0.000, 0.000, 13:41:45.229
124, 45798.86, 83522.09, -187500.02, -187500.02, -187500.02, -187500.02, -187500.02, 187500.00, 0.000, 0.000, 0.000, 13:41:45.229
125, 46148.62, 83855.45, -187500.02, -187500.02, -187500.02, -187500.02, -187500.02, 187500.00, 0.000, 0.000, 0.000, 13:41:45.229
126, 43640.13, 81296.33, -187500.02, -187500.02, -187500.02, -187500.02, -187500.02, 187500.00, 0.330, 0.974, -0.112, 13:41:45.229
127, 43505.30, 81170.55, -187500.02, -187500.02, -187500.02, -187500.02, -187500.02, 187500.00, 0.000, 0.000, 0.000, 13:41:45.230
128, 45385.39, 83107.00, -187500.02, -187500.02, -187500.02, -187500.02, -187500.02, 187500.00, 0.000, 0.000, 0.000, 13:41:45.230
129, 46404.61, 84108.00, -187500.02, -187500.02, -187500.02, -187500.02, -187500.02, 187500.00, 0.000, 0.000, 0.000, 13:41:45.231
130, 43986.22, 81657.27, -187500.02, -187500.02, -187500.02, -187500.02, -187500.02, 187500.00, 0.000, 0.000, 0.000, 13:41:45.231
131, 43310.15, 81021.41, -187500.02, -187500.02, -187500.02, -187500.02, -187500.02, 187500.00, 0.000, 0.000, 0.000, 13:41:45.231
132, 45007.54, 82709.74, -187500.02, -187500.02, -187500.02, -187500.02, -187500.02, 187500.00, 0.000, 0.000, 0.000, 13:41:45.232
133, 46593.73, 84223.45, -187500.02, -187500.02, -187500.02, -187500.02, -187500.02, 187500.00, 0.000, 0.000, 0.000, 13:41:45.232
134, 44437.68, 82103.45, -187500.02, -187500.02, -187500.02, -187500.02, -187500.02, 187500.00, 0.000, 0.000, 0.000, 13:41:45.232
135, 43222.98, 80922.70, -187500.02, -187500.02, -187500.02, -187500.02, -187500.02, 187500.00, 0.000, 0.000, 0.000, 13:41:45.232
136, 44622.17, 82315.48, -187500.02, -187500.02, -187500.02, -187500.02, -187500.02, 187500.00, 0.330, 0.964, -0.116, 13:41:45.233
137, 46547.64, 84181.63, -187500.02, -187500.02, -187500.02, -187500.02, -187500.02, 187500.00, 0.000, 0.000, 0.000, 13:41:45.233
138, 44918.87, 82581.09, -187500.02, -187500.02, -187500.02, -187500.02, -187500.02, 187500.00, 0.000, 0.000, 0.000, 13:41:45.233
139, 43179.25, 80909.02, -187500.02, -187500.02, -187500.02, -187500.02, -187500.02, 187500.00, 0.000, 0.000, 0.000, 13:41:45.234
140, 44261.06, 81973.79, -187500.02, -187500.02, -187500.02, -187500.02, -187500.02, 187500.00, 0.000, 0.000, 0.000, 13:41:45.234
141, 46384.29, 84029.16, -187500.02, -187500.02, -187500.02, -187500.02, -187500.02, 187500.00, 0.000, 0.000, 0.000, 13:41:45.234
142, 45398.36, 83067.59, -187500.02, -187500.02, -187500.02, -187500.02, -187500.02, 187500.00, 0.000, 0.000, 0.000, 13:41:45.235
143, 43192.49, 80959.45, -187500.02, -187500.02, -187500.02, -187500.02, -187500.02, 187500.00, 0.000, 0.000, 0.000, 13:41:45.235
144, 43908.68, 81661.56, -187500.02, -187500.02, -187500.02, -187500.02, -187500.02, 187500.00, 0.000, 0.000, 0.000, 13:41:45.235
145, 46113.84, 83773.30, -187500.02, -187500.02, -187500.02, -187500.02, -187500.02, 187500.00, 0.326, 0.972, -0.132, 13:41:45.236
146, 45865.31, 83515.16, -187500.02, -187500.02, -187500.02, -187500.02, -187500.02, 187500.00, 0.000, 0.000, 0.000, 13:41:45.236
147, 43349.55, 81104.84, -187500.02, -187500.02, -187500.02, -187500.02, -187500.02, 187500.00, 0.000, 0.000, 0.000, 13:41:45.237
148, 43638.49, 81386.14, -187500.02, -187500.02, -187500.02, -187500.02, -187500.02, 187500.00, 0.000, 0.000, 0.000, 13:41:45.237
149, 45768.32, 83445.95, -187500.02, -187500.02, -187500.02, -187500.02, -187500.02, 187500.00, 0.000, 0.000, 0.000, 13:41:45.237
150, 46261.43, 83891.03, -187500.02, -187500.02, -187500.02, -187500.02, -187500.02, 187500.00, 0.000, 0.000, 0.000, 13:41:45.238
151, 43618.11, 81381.78, -187500.02, -187500.02, -187500.02, -187500.02, -187500.02, 187500.00, 0.000, 0.000, 0.000, 13:41:45.238
152, 43376.22, 81159.27, -187500.02, -187500.02, -187500.02, -187500.02, -187500.02, 187500.00, 0.000, 0.000, 0.000, 13:41:45.239
153, 45333.88, 83017.35, -187500.02, -187500.02, -187500.02, -187500.02, -187500.02, 187500.00, 0.000, 0.000, 0.000, 13:41:45.239
154, 46526.23, 84108.34, -187500.02, -187500.02, -187500.02, -187500.02, -187500.02, 187500.00, 0.000, 0.000, 0.000, 13:41:45.240
155, 44021.20, 81733.30, -187500.02, -187500.02, -187500.02, -187500.02, -187500.02, 187500.00, 0.302, 0.980, -0.114, 13:41:45.240
156, 43231.04, 81008.27, -187500.02, -187500.02, -187500.02, -187500.02, -187500.02, 187500.00, 0.000, 0.000, 0.000, 13:41:45.241
157, 44922.33, 82642.89, -187500.02, -187500.02, -187500.02, -187500.02, -187500.02, 187500.00, 0.000, 0.000, 0.000, 13:41:45.241
158, 46598.63, 84221.57, -187500.02, -187500.02, -187500.02, -187500.02, -187500.02, 187500.00, 0.000, 0.000, 0.000, 13:41:45.241
159, 44508.74, 82188.95, -187500.02, -187500.02, -187500.02, -187500.02, -187500.02, 187500.00, 0.000, 0.000, 0.000, 13:41:45.242
160, 43200.80, 80916.91, -187500.02, -187500.02, -187500.02, -187500.02, -187500.02, 187500.00, 0.000, 0.000, 0.000, 13:41:45.242
161, 44574.92, 82261.14, -187500.02, -187500.02, -187500.02, -187500.02, -187500.02, 187500.00, 0.000, 0.000, 0.000, 13:41:45.242
162, 46556.47, 84194.08, -187500.02, -187500.02, -187500.02, -187500.02, -187500.02, 187500.00, 0.000, 0.000, 0.000, 13:41:45.244
163, 44980.16, 82677.22, -187500.02, -187500.02, -187500.02, -187500.02, -187500.02, 187500.00, 0.000, 0.000, 0.000, 13:41:45.244
164, 43116.20, 80908.06, -187500.02, -187500.02, -187500.02, -187500.02, -187500.02, 187500.00, 0.000, 0.000, 0.000, 13:41:45.244
165, 44179.20, 81912.23, -187500.02, -187500.02, -187500.02, -187500.02, -187500.02, 187500.00, 0.300, 0.984, -0.096, 13:41:45.245
166, 46374.91, 83994.03, -187500.02, -187500.02, -187500.02, -187500.02, -187500.02, 187500.00, 0.000, 0.000, 0.000, 13:41:45.245
167, 45532.91, 83145.83, -187500.02, -187500.02, -187500.02, -187500.02, -187500.02, 187500.00, 0.000, 0.000, 0.000, 13:41:45.245
168, 43294.52, 80984.97, -187500.02, -187500.02, -187500.02, -187500.02, -187500.02, 187500.00, 0.000, 0.000, 0.000, 13:41:45.245
169, 43914.05, 81616.97, -187500.02, -187500.02, -187500.02, -187500.02, -187500.02, 187500.00, 0.000, 0.000, 0.000, 13:41:45.246
170, 46063.23, 83716.40, -187500.02, -187500.02, -187500.02, -187500.02, -187500.02, 187500.00, 0.000, 0.000, 0.000, 13:41:45.246
171, 45948.86, 83587.81, -187500.02, -187500.02, -187500.02, -187500.02, -187500.02, 187500.00, 0.000, 0.000, 0.000, 13:41:45.246
172, 43435.56, 81157.48, -187500.02, -187500.02, -187500.02, -187500.02, -187500.02, 187500.00, 0.000, 0.000, 0.000, 13:41:45.246
173, 43627.90, 81349.17, -187500.02, -187500.02, -187500.02, -187500.02, -187500.02, 187500.00, 0.000, 0.000, 0.000, 13:41:45.247
174, 45685.54, 83341.25, -187500.02, -187500.02, -187500.02, -187500.02, -187500.02, 187500.00, 0.000, 0.000, 0.000, 13:41:45.247
175, 46282.62, 83907.89, -187500.02, -187500.02, -187500.02, -187500.02, -187500.02, 187500.00, 0.304, 0.988, -0.108, 13:41:45.247
176, 43708.23, 81432.61, -187500.02, -187500.02, -187500.02, -187500.02, -187500.02, 187500.00, 0.000, 0.000, 0.000, 13:41:45.247
177, 43391.29, 81143.58, -187500.02, -187500.02, -187500.02, -187500.02, -187500.02, 187500.00, 0.000, 0.000, 0.000, 13:41:45.248
178, 45263.13, 82965.52, -187500.02, -187500.02, -187500.02, -187500.02, -187500.02, 187500.00, 0.000, 0.000, 0.000, 13:41:45.248
179, 46513.02, 84137.23, -187500.02, -187500.02, -187500.02, -187500.02, -187500.02, 187500.00, 0.000, 0.000, 0.000, 13:41:45.248
180, 44120.02, 81787.98, -187500.02, -187500.02, -187500.02, -187500.02, -187500.02, 187500.00, 0.000, 0.000, 0.000, 13:41:45.249
181, 43275.61, 80973.73, -187500.02, -187500.02, -187500.02, -187500.02, -187500.02, 187500.00, 0.000, 0.000, 0.000, 13:41:45.249
182, 44882.50, 82563.83, -187500.02, -187500.02, -187500.02, -187500.02, -187500.02, 187500.00, 0.000, 0.000, 0.000, 13:41:45.249
183, 46576.45, 84231.79, -187500.02, -187500.02, -187500.02, -187500.02, -187500.02, 187500.00, 0.000, 0.000, 0.000, 13:41:45.250
184, 44575.43, 82248.29, -187500.02, -187500.02, -187500.02, -187500.02, -187500.02, 187500.00, 0.000, 0.000, 0.000, 13:41:45.250
185, 43188.22, 80869.41, -187500.02, -187500.02, -187500.02, -187500.02, -187500.02, 187500.00, 0.320, 0.976, -0.122, 13:41:45.250
186, 44500.27, 82174.51, -187500.02, -187500.02, -187500.02, -187500.02, -187500.02, 187500.00, 0.000, 0.000, 0.000, 13:41:45.250
187, 46509.93, 84178.21, -187500.02, -187500.02, -187500.02, -187500.02, -187500.02, 187500.00, 0.000, 0.000, 0.000, 13:41:45.251
188, 45082.53, 82745.73, -187500.02, -187500.02, -187500.02, -187500.02, -187500.02, 187500.00, 0.000, 0.000, 0.000, 13:41:45.251
189, 43193.92, 80857.45, -187500.02, -187500.02, -187500.02, -187500.02, -187500.02, 187500.00, 0.000, 0.000, 0.000, 13:41:45.252
190, 44152.05, 81823.45, -187500.02, -187500.02, -187500.02, -187500.02, -187500.02, 187500.00, 0.000, 0.000, 0.000, 13:41:45.252
191, 46303.74, 83972.95, -187500.02, -187500.02, -187500.02, -187500.02, -187500.02, 187500.00, 0.000, 0.000, 0.000, 13:41:45.252
192, 45571.81, 83229.20, -187500.02, -187500.02, -187500.02, -187500.02, -187500.02, 187500.00, 0.000, 0.000, 0.000, 13:41:45.253
193, 43279.64, 80945.45, -187500.02, -187500.02, -187500.02, -187500.02, -187500.02, 187500.00, 0.000, 0.000, 0.000, 13:41:45.253
194, 43859.44, 81529.26, -187500.02, -187500.02, -187500.02, -187500.02, -187500.02, 187500.00, 0.000, 0.000, 0.000, 13:41:45.253
195, 46005.95, 83684.55, -187500.02, -187500.02, -187500.02, -187500.02, -187500.02, 187500.00, 0.318, 0.980, -0.134, 13:41:45.254
196, 46008.34, 83674.67, -187500.02, -187500.02, -187500.02, -187500.02, -187500.02, 187500.00, 0.000, 0.000, 0.000, 13:41:45.254
197, 43480.82, 81142.38, -187500.02, -187500.02, -187500.02, -187500.02, -187500.02, 187500.00, 0.000, 0.000, 0.000, 13:41:45.254
198, 43607.96, 81266.45, -187500.02, -187500.02, -187500.02, -187500.02, -187500.02, 187500.00, 0.000, 0.000, 0.000, 13:41:45.255
199, 45632.22, 83310.83, -187500.02, -187500.02, -187500.02, -187500.02, -187500.02, 187500.00, 0.000, 0.000, 0.000, 13:41:45.255
200, 46339.70, 84005.32, -187500.02, -187500.02, -187500.02, -187500.02, -187500.02, 187500.00, 0.000, 0.000, 0.000, 13:41:45.255
201, 43809.04, 81453.42, -187500.02, -187500.02, -187500.02, -187500.02, -187500.02, 187500.00, 0.000, 0.000, 0.000, 13:41:45.256
202, 43419.74, 81069.39, -187500.02, -187500.02, -187500.02, -187500.02, -187500.02, 187500.00, 0.000, 0.000, 0.000, 13:41:45.256
203, 45220.33, 82901.27, -187500.02, -187500.02, -187500.02, -187500.02, -187500.02, 187500.00, 0.000, 0.000, 0.000, 13:41:45.256
204, 46508.79, 84189.52, -187500.02, -187500.02, -187500.02, -187500.02, -187500.02, 187500.00, 0.000, 0.000, 0.000, 13:41:45.257
205, 44206.36, 81867.58, -187500.02, -187500.02, -187500.02, -187500.02, -187500.02, 187500.00, 0.308, 0.976, -0.106, 13:41:45.257
206, 43299.15, 80949.92, -187500.02, -187500.02, -187500.02, -187500.02, -187500.02, 187500.00, 0.000, 0.000, 0.000, 13:41:45.257
207, 44831.25, 82499.10, -187500.02, -187500.02, -187500.02, -187500.02, -187500.02, 187500.00, 0.000, 0.000, 0.000, 13:41:45.258
208, 46537.63, 84216.81, -187500.02, -187500.02, -187500.02, -187500.02, -187500.02, 187500.00, 0.000, 0.000, 0.000, 13:41:45.258
209, 44669.67, 82335.73, -187500.02, -187500.02, -187500.02, -187500.02, -187500.02, 187500.00, 0.000, 0.000, 0.000, 13:41:45.259
210, 43254.31, 80918.88, -187500.02, -187500.02, -187500.02, -187500.02, -187500.02, 187500.00, 0.000, 0.000, 0.000, 13:41:45.259
211, 44461.48, 82146.26, -187500.02, -187500.02, -187500.02, -187500.02, -187500.02, 187500.00, 0.000, 0.000, 0.000, 13:41:45.259
212, 46417.26, 84103.48, -187500.02, -187500.02, -187500.02, -187500.02, -187500.02, 187500.00, 0.000, 0.000, 0.000, 13:41:45.262
213, 45160.83, 82831.96, -187500.02, -187500.02, -187500.02, -187500.02, -187500.02, 187500.00, 0.000, 0.000, 0.000, 13:41:45.262
214, 43286.59, 80959.71, -187500.02, -187500.02, -187500.02, -187500.02, -187500.02, 187500.00, 0.282, 0.992, -0.078, 13:41:45.262
215, 44148.07, 81821.76, -187500.02, -187500.02, -187500.02, -187500.02, -187500.02, 187500.00, 0.000, 0.000, 0.000, 13:41:45.263
216, 46203.16, 83859.07, -187500.02, -187500.02, -187500.02, -187500.02, -187500.02, 187500.00, 0.000, 0.000, 0.000, 13:41:45.263
217, 45626.10, 83275.63, -187500.02, -187500.02, -187500.02, -187500.02, -187500.02, 187500.00, 0.000, 0.000, 0.000, 13:41:45.263
218, 43396.27, 81085.87, -187500.02, -187500.02, -187500.02, -187500.02, -187500.02, 187500.00, 0.000, 0.000, 0.000, 13:41:45.264
219, 43870.24, 81560.02, -187500.02, -187500.02, -187500.02, -187500.02, -187500.02, 187500.00, 0.000, 0.000, 0.000, 13:41:45.264
220, 45894.32, 83541.38, -187500.02, -187500.02, -187500.02, -187500.02, -187500.02, 187500.00, 0.000, 0.000, 0.000, 13:41:45.264
221, 46027.40, 83645.45, -187500.02, -187500.02, -187500.02, -187500.02, -187500.02, 187500.00, 0.000, 0.000, 0.000, 13:41:45.264
222, 43628.48, 81314.41, -187500.02, -187500.02, -187500.02, -187500.02, -187500.02, 187500.00, 0.000, 0.000, 0.000, 13:41:45.264
223, 43667.98, 81358.38, -187500.02, -187500.02, -187500.02, -187500.02, -187500.02, 187500.00, 0.000, 0.000, 0.000, 13:41:45.265
224, 45537.50, 83178.39, -187500.02, -187500.02, -187500.02, -187500.02, -187500.02, 187500.00, 0.264, 1.012, -0.072, 13:41:45.265
225, 46311.67, 83909.25, -187500.02, -187500.02, -187500.02, -187500.02, -187500.02, 187500.00, 0.000, 0.000, 0.000, 13:41:45.265
226, 43917.36, 81622.33, -187500.02, -187500.02, -187500.02, -187500.02, -187500.02, 187500.00, 0.000, 0.000, 0.000, 13:41:45.266
227, 43439.18, 81192.17, -187500.02, -187500.02, -187500.02, -187500.02, -187500.02, 187500.00, 0.000, 0.000, 0.000, 13:41:45.266
228, 45129.31, 82805.95, -187500.02, -187500.02, -187500.02, -187500.02, -187500.02, 187500.00, 0.000, 0.000, 0.000, 13:41:45.267
229, 46516.28, 84063.23, -187500.02, -187500.02, -187500.02, -187500.02, -187500.02, 187500.00, 0.000, 0.000, 0.000, 13:41:45.267
230, 44404.89, 82011.14, -187500.02, -187500.02, -187500.02, -187500.02, -187500.02, 187500.00, 0.000, 0.000, 0.000, 13:41:45.268
231, 43465.18, 81116.45, -187500.02, -187500.02, -187500.02, -187500.02, -187500.02, 187500.00, 0.000, 0.000, 0.000, 13:41:45.268
232, 44840.35, 82455.49, -187500.02, -187500.02, -187500.02, -187500.02, -187500.02, 187500.00, 0.000, 0.000, 0.000, 13:41:45.269
233, 46490.98, 84029.80, -187500.02, -187500.02, -187500.02, -187500.02, -187500.02, 187500.00, 0.000, 0.000, 0.000, 13:41:45.269
234, 44835.79, 82433.30, -187500.02, -187500.02, -187500.02, -187500.02, -187500.02, 187500.00, 0.268, 0.978, -0.064, 13:41:45.269
235, 43416.12, 81089.13, -187500.02, -187500.02, -187500.02, -187500.02, -187500.02, 187500.00, 0.000, 0.000, 0.000, 13:41:45.270
236, 44476.68, 82126.66, -187500.02, -187500.02, -187500.02, -187500.02, -187500.02, 187500.00, 0.000, 0.000, 0.000, 13:41:45.270
237, 46335.75, 83908.13, -187500.02, -187500.02, -187500.02, -187500.02, -187500.02, 187500.00, 0.000, 0.000, 0.000, 13:41:45.271
238, 45265.07, 82872.95, -187500.02, -187500.02, -187500.02, -187500.02, -187500.02, 187500.00, 0.000, 0.000, 0.000, 13:41:45.271
239, 43435.20, 81144.85, -187500.02, -187500.02, -187500.02, -187500.02, -187500.02, 187500.00, 0.000, 0.000, 0.000, 13:41:45.271
240, 44181.37, 81861.49, -187500.02, -187500.02, -187500.02, -187500.02, -187500.02, 187500.00, 0.000, 0.000, 0.000, 13:41:45.272
241, 46105.99, 83668.66, -187500.02, -187500.02, -187500.02, -187500.02, -187500.02, 187500.00, 0.000, 0.000, 0.000, 13:41:45.706
242, 45678.05, 83260.29, -187500.02, -187500.02, -187500.02, -187500.02, -187500.02, 187500.00, 0.000, 0.000, 0.000, 13:41:45.707
243, 43548.33, 81274.56, -187500.02, -187500.02, -187500.02, -187500.02, -187500.02, 187500.00, 0.000, 0.000, 0.000, 13:41:45.707
244, 43918.47, 81627.30, -187500.02, -187500.02, -187500.02, -187500.02, -187500.02, 187500.00, 0.292, 0.952, -0.098, 13:41:45.708
245, 45799.28, 83373.44, -187500.02, -187500.02, -187500.02, -187500.02, -187500.02, 187500.00, 0.000, 0.000, 0.000, 13:41:45.708
246, 46036.88, 83573.91, -187500.02, -187500.02, -187500.02, -187500.02, -187500.02, 187500.00, 0.000, 0.000, 0.000, 13:41:45.708
247, 43726.63, 81457.15, -187500.02, -187500.02, -187500.02, -187500.02, -187500.02, 187500.00, 0.000, 0.000, 0.000, 13:41:45.709
248, 43688.63, 81419.65, -187500.02, -187500.02, -187500.02, -187500.02, -187500.02, 187500.00, 0.000, 0.000, 0.000, 13:41:45.709
249, 45457.23, 83037.58, -187500.02, -187500.02, -187500.02, -187500.02, -187500.02, 187500.00, 0.000, 0.000, 0.000, 13:41:45.709
250, 46319.54, 83790.41, -187500.02, -187500.02, -187500.02, -187500.02, -187500.02, 187500.00, 0.000, 0.000, 0.000, 13:41:45.710
251, 44055.31, 81724.10, -187500.02, -187500.02, -187500.02, -187500.02, -187500.02, 187500.00, 0.000, 0.000, 0.000, 13:41:45.710
252, 43543.57, 81281.52, -187500.02, -187500.02, -187500.02, -187500.02, -187500.02, 187500.00, 0.000, 0.000, 0.000, 13:41:45.711
253, 45096.95, 82712.83, -187500.02, -187500.02, -187500.02, -187500.02, -187500.02, 187500.00, 0.000, 0.000, 0.000, 13:41:45.711
254, 46449.25, 83935.45, -187500.02, -187500.02, -187500.02, -187500.02, -187500.02, 187500.00, 0.308, 0.964, -0.134, 13:41:45.711
255, 44444.70, 82060.72, -187500.02, -187500.02, -187500.02, -187500.02, -187500.02, 187500.00, 0.000, 0.000, 0.000, 13:41:45.712
0, 43440.64, 81110.21, -187500.02, -187500.02, -187500.02, -187500.02, -187500.02, 187500.00, 0.000, 0.000, 0.000, 13:41:45.712
1, 44741.91, 82335.91, -187500.02, -187500.02, -187500.02, -187500.02, -187500.02, 187500.00, 0.000, 0.000, 0.000, 13:41:45.712
2, 46402.60, 83916.78, -187500.02, -187500.02, -187500.02, -187500.02, -187500.02, 187500.00, 0.000, 0.000, 0.000, 13:41:45.712
3, 44865.98, 82466.24, -187500.02, -187500.02, -187500.02, -187500.02, -187500.02, 187500.00, 0.000, 0.000, 0.000, 13:41:45.713
4, 43423.56, 81075.54, -187500.02, -187500.02, -187500.02, -187500.02, -187500.02, 187500.00, 0.000, 0.000, 0.000, 13:41:45.713
5, 44446.69, 82034.16, -187500.02, -187500.02, -187500.02, -187500.02, -187500.02, 187500.00, 0.000, 0.000, 0.000, 13:41:45.713
6, 46264.76, 83813.98, -187500.02, -187500.02, -187500.02, -187500.02, -187500.02, 187500.00, 0.000, 0.000, 0.000, 13:41:45.713
7, 45324.39, 82887.04, -187500.02, -187500.02, -187500.02, -187500.02, -187500.02, 187500.00, 0.000, 0.000, 0.000, 13:41:45.714
8, 43527.59, 81099.57, -187500.02, -187500.02, -187500.02, -187500.02, -187500.02, 187500.00, 0.290, 0.968, -0.112, 13:41:45.714
9, 44161.30, 81769.52, -187500.02, -187500.02, -187500.02, -187500.02, -187500.02, 187500.00, 0.000, 0.000, 0.000, 13:41:45.714
10, 45950.22, 83623.08, -187500.02, -187500.02, -187500.02, -187500.02, -187500.02, 187500.00, 0.000, 0.000, 0.000, 13:41:45.714
11, 45682.34, 83318.18, -187500.02, -187500.02, -187500.02, -187500.02, -187500.02, 187500.00, 0.000, 0.000, 0.000, 13:41:45.715
12, 43689.41, 81248.21, -187500.02, -187500.02, -187500.02, -187500.02, -187500.02, 187500.00, 0.000, 0.000, 0.000, 13:41:45.715
13, 43982.29, 81536.26, -187500.02, -187500.02, -187500.02, -187500.02, -187500.02, 187500.00, 0.000, 0.000, 0.000, 13:41:45.715
14, 45639.15, 83317.53, -187500.02, -187500.02, -187500.02, -187500.02, -187500.02, 187500.00, 0.000, 0.000, 0.000, 13:41:45.715
15, 45932.48, 83653.23, -187500.02, -187500.02, -187500.02, -187500.02, -187500.02, 187500.00, 0.000, 0.000, 0.000, 13:41:45.716
16, 43915.88, 81506.48, -187500.02, -187500.02, -187500.02, -187500.02, -187500.02, 187500.00, 0.000, 0.000, 0.000, 13:41:45.716
17, 43819.23, 81383.86, -187500.02, -187500.02, -187500.02, -187500.02, -187500.02, 187500.00, 0.268, 0.972, -0.086, 13:41:45.716
18, 45352.22, 82979.66, -187500.02, -187500.02, -187500.02, -187500.02, -187500.02, 187500.00, 0.000, 0.000, 0.000, 13:41:45.717
19, 46172.38, 83820.88, -187500.02, -187500.02, -187500.02, -187500.02, -187500.02, 187500.00, 0.000, 0.000, 0.000, 13:41:45.717
20, 44184.30, 81783.27, -187500.02, -187500.02, -187500.02, -187500.02, -187500.02, 187500.00, 0.000, 0.000, 0.000, 13:41:45.717
21, 43669.61, 81243.27, -187500.02, -187500.02, -187500.02, -187500.02, -187500.02, 187500.00, 0.000, 0.000, 0.000, 13:41:45.718
22, 45053.61, 82656.66, -187500.02, -187500.02, -187500.02, -187500.02, -187500.02, 187500.00, 0.000, 0.000, 0.000, 13:41:45.718
23, 46309.55, 83920.60, -187500.02, -187500.02, -187500.02, -187500.02, -187500.02, 187500.00, 0.000, 0.000, 0.000, 13:41:45.718
24, 44571.59, 82172.81, -187500.02, -187500.02, -187500.02, -187500.02, -187500.02, 187500.00, 0.000, 0.000, 0.000, 13:41:45.718
25, 43603.83, 81210.12, -187500.02, -187500.02, -187500.02, -187500.02, -187500.02, 187500.00, 0.000, 0.000, 0.000, 13:41:45.719
26, 44721.70, 82351.91, -187500.02, -187500.02, -187500.02, -187500.02, -187500.02, 187500.00, 0.000, 0.000, 0.000, 13:41:45.719
27, 46264.78, 83884.30, -187500.02, -187500.02, -187500.02, -187500.02, -187500.02, 187500.00, 0.248, 0.968, -0.052, 13:41:45.719
28, 44952.06, 82572.68, -187500.02, -187500.02, -187500.02, -187500.02, -187500.02, 187500.00, 0.000, 0.000, 0.000, 13:41:45.720
29, 43578.84, 81214.19, -187500.02, -187500.02, -187500.02, -187500.02, -187500.02, 187500.00, 0.000, 0.000, 0.000, 13:41:45.720
30, 44437.84, 82071.27, -187500.02, -187500.02, -187500.02, -187500.02, -187500.02, 187500.00, 0.000, 0.000, 0.000, 13:41:45.720
31, 46104.34, 83713.47, -187500.02, -187500.02, -187500.02, -187500.02, -187500.02, 187500.00, 0.000, 0.000, 0.000, 13:41:45.721
32, 45324.66, 82947.39, -187500.02, -187500.02, -187500.02, -187500.02, -187500.02, 187500.00, 0.000, 0.000, 0.000, 13:41:45.721
33, 43590.55, 81283.99, -187500.02, -187500.02, -187500.02, -187500.02, -187500.02, 187500.00, 0.000, 0.000, 0.000, 13:41:45.721
34, 44139.60, 81834.30, -187500.02, -187500.02, -187500.02, -187500.02, -187500.02, 187500.00, 0.000, 0.000, 0.000, 13:41:45.721
35, 45869.49, 83500.44, -187500.02, -187500.02, -187500.02, -187500.02, -187500.02, 187500.00, 0.000, 0.000, 0.000, 13:41:45.722
36, 45706.32, 83319.50, -187500.02, -187500.02, -187500.02, -187500.02, -187500.02, 187500.00, 0.000, 0.000, 0.000, 13:41:45.722
37, 43710.96, 81415.96, -187500.02, -187500.02, -187500.02, -187500.02, -187500.02, 187500.00, 0.252, 0.974, -0.074, 13:41:45.722
38, 43894.31, 81600.27, -187500.02, -187500.02, -187500.02, -187500.02, -187500.02, 187500.00, 0.000, 0.000, 0.000, 13:41:45.723
39, 45570.87, 83184.09, -187500.02, -187500.02, -187500.02, -187500.02, -187500.02, 187500.00, 0.000, 0.000, 0.000, 13:41:45.723
40, 46024.12, 83595.37, -187500.02, -187500.02, -187500.02, -187500.02, -187500.02, 187500.00, 0.000, 0.000, 0.000, 13:41:45.723
41, 43989.37, 81624.61, -187500.02, -187500.02, -187500.02, -187500.02, -187500.02, 187500.00, 0.000, 0.000, 0.000, 13:41:45.724
42, 43809.48, 81441.88, -187500.02, -187500.02, -187500.02, -187500.02, -187500.02, 187500.00, 0.000, 0.000, 0.000, 13:41:45.724
43, 45280.83, 82905.73, -187500.02, -187500.02, -187500.02, -187500.02, -187500.02, 187500.00, 0.000, 0.000, 0.000, 13:41:45.724
44, 46162.79, 83771.45, -187500.02, -187500.02, -187500.02, -187500.02, -187500.02, 187500.00, 0.000, 0.000, 0.000, 13:41:45.725
45, 44229.21, 81889.14, -187500.02, -187500.02, -187500.02, -187500.02, -187500.02, 187500.00, 0.000, 0.000, 0.000, 13:41:45.725
46, 43645.29, 81329.84, -187500.02, -187500.02, -187500.02, -187500.02, -187500.02, 187500.00, 0.000, 0.000, 0.000, 13:41:45.728
47, 44973.61, 82606.70, -187500.02, -187500.02, -187500.02, -187500.02, -187500.02, 187500.00, 0.266, 0.976, -0.096, 13:41:45.728
48, 46294.21, 83899.13, -187500.02, -187500.02, -187500.02, -187500.02, -187500.02, 187500.00, 0.000, 0.000, 0.000, 13:41:45.729
49, 44625.59, 82267.52, -187500.02, -187500.02, -187500.02, -187500.02, -187500.02, 187500.00, 0.000, 0.000, 0.000, 13:41:45.729
50, 43604.03, 81247.34, -187500.02, -187500.02, -187500.02, -187500.02, -187500.02, 187500.00, 0.000, 0.000, 0.000, 13:41:45.729
51, 44668.82, 82313.94, -187500.02, -187500.02, -187500.02, -187500.02, -187500.02, 187500.00, 0.000, 0.000, 0.000, 13:41:45.730
52, 46223.72, 83868.15, -187500.02, -187500.02, -187500.02, -187500.02, -187500.02, 187500.00, 0.000, 0.000, 0.000, 13:41:45.730
53, 45023.34, 82665.53, -187500.02, -187500.02, -187500.02, -187500.02, -187500.02, 187500.00, 0.000, 0.000, 0.000, 13:41:45.730
54, 43601.97, 81238.93, -187500.02, -187500.02, -187500.02, -187500.02, -187500.02, 187500.00, 0.000, 0.000, 0.000, 13:41:45.731
55, 44383.23, 82028.02, -187500.02, -187500.02, -187500.02, -187500.02, -187500.02, 187500.00, 0.000, 0.000, 0.000, 13:41:45.731
56, 46051.10, 83719.15, -187500.02, -187500.02, -187500.02, -187500.02, -187500.02, 187500.00, 0.000, 0.000, 0.000, 13:41:45.731
57, 45391.27, 83054.79, -187500.02, -187500.02, -187500.02, -187500.02, -187500.02, 187500.00, 0.270, 0.980, -0.102, 13:41:45.732
58, 43649.91, 81295.75, -187500.02, -187500.02, -187500.02, -187500.02, -187500.02, 187500.00, 0.000, 0.000, 0.000, 13:41:45.732
59, 44137.56, 81790.02, -187500.02, -187500.02, -187500.02, -187500.02, -187500.02, 187500.00, 0.000, 0.000, 0.000, 13:41:45.732
60, 45795.77, 83490.42, -187500.02, -187500.02, -187500.02, -187500.02, -187500.02, 187500.00, 0.000, 0.000, 0.000, 13:41:45.733
61, 45713.47, 83394.76, -187500.02, -187500.02, -187500.02, -187500.02, -187500.02, 187500.00, 0.000, 0.000, 0.000, 13:41:45.733
62, 43782.55, 81407.30, -187500.02, -187500.02, -187500.02, -187500.02, -187500.02, 187500.00, 0.000, 0.000, 0.000, 13:41:45.733
63, 43947.33, 81568.09, -187500.02, -187500.02, -187500.02, -187500.02, -187500.02, 187500.00, 0.000, 0.000, 0.000, 13:41:45.734
64, 45519.68, 83206.58, -187500.02, -187500.02, -187500.02, -187500.02, -187500.02, 187500.00, 0.000, 0.000, 0.000, 13:41:45.734
65, 45992.60, 83690.56, -187500.02, -187500.02, -187500.02, -187500.02, -187500.02, 187500.00, 0.000, 0.000, 0.000, 13:41:45.734
66, 44004.30, 81646.59, -187500.02, -187500.02, -187500.02, -187500.02, -187500.02, 187500.00, 0.000, 0.000, 0.000, 13:41:45.735
67, 43757.18, 81408.20, -187500.02, -187500.02, -187500.02, -187500.02, -187500.02, 187500.00, 0.266, 0.976, -0.088, 13:41:45.735
68, 45151.95, 82872.20, -187500.02, -187500.02, -187500.02, -187500.02, -187500.02, 187500.00, 0.000, 0.000, 0.000, 13:41:45.736
69, 46129.04, 83860.79, -187500.02, -187500.02, -187500.02, -187500.02, -187500.02, 187500.00, 0.000, 0.000, 0.000, 13:41:45.736
70, 44303.14, 81966.70, -187500.02, -187500.02, -187500.02, -187500.02, -187500.02, 187500.00, 0.000, 0.000, 0.000, 13:41:45.736
71, 43654.61, 81286.90, -187500.02, -187500.02, -187500.02, -187500.02, -187500.02, 187500.00, 0.000, 0.000, 0.000, 13:41:45.737
72, 44869.94, 82526.52, -187500.02, -187500.02, -187500.02, -187500.02, -187500.02, 187500.00, 0.000, 0.000, 0.000, 13:41:45.737
73, 46186.17, 83888.62, -187500.02, -187500.02, -187500.02, -187500.02, -187500.02, 187500.00, 0.000, 0.000, 0.000, 13:41:45.738
74, 44674.72, 82350.33, -187500.02, -187500.02, -187500.02, -187500.02, -187500.02, 187500.00, 0.000, 0.000, 0.000, 13:41:45.738
75, 43631.36, 81275.70, -187500.02, -187500.02, -187500.02, -187500.02, -187500.02, 187500.00, 0.000, 0.000, 0.000, 13:41:45.738
76, 44607.35, 82277.51, -187500.02, -187500.02, -187500.02, -187500.02, -187500.02, 187500.00, 0.000, 0.000, 0.000, 13:41:45.740
77, 46135.18, 83830.21, -187500.02, -187500.02, -187500.02, -187500.02, -187500.02, 187500.00, 0.254, 0.972, -0.072, 13:41:45.741
78, 45048.44, 82731.80, -187500.02, -187500.02, -187500.02, -187500.02, -187500.02, 187500.00, 0.000, 0.000, 0.000, 13:41:45.741
79, 43607.54, 81270.85, -187500.02, -187500.02, -187500.02, -187500.02, -187500.02, 187500.00, 0.000, 0.000, 0.000, 13:41:45.741
80, 44332.18, 82010.02, -187500.02, -187500.02, -187500.02, -187500.02, -187500.02, 187500.00, 0.000, 0.000, 0.000, 13:41:45.742
81, 45965.55, 83665.77, -187500.02, -187500.02, -187500.02, -187500.02, -187500.02, 187500.00, 0.000, 0.000, 0.000, 13:41:45.746
82, 45415.75, 83109.73, -187500.02, -187500.02, -187500.02, -187500.02, -187500.02, 187500.00, 0.000, 0.000, 0.000, 13:41:45.747
83, 43653.43, 81345.77, -187500.02, -187500.02, -187500.02, -187500.02, -187500.02, 187500.00, 0.000, 0.000, 0.000, 13:41:45.747
84, 44085.21, 81781.90, -187500.02, -187500.02, -187500.02, -187500.02, -187500.02, 187500.00, 0.000, 0.000, 0.000, 13:41:45.748
85, 45730.91, 83433.56, -187500.02, -187500.02, -187500.02, -187500.02, -187500.02, 187500.00, 0.000, 0.000, 0.000, 13:41:45.748
86, 45759.59, 83444.36, -187500.02, -187500.02, -187500.02, -187500.02, -187500.02, 187500.00, 0.252, 0.982, -0.078, 13:41:45.749
87, 43802.13, 81497.66, -187500.02, -187500.02, -187500.02, -187500.02, -187500.02, 187500.00, 0.000, 0.000, 0.000, 13:41:45.749
88, 43894.11, 81586.93, -187500.02, -187500.02, -187500.02, -187500.02, -187500.02, 187500.00, 0.000, 0.000, 0.000, 13:41:45.749
89, 45443.53, 83137.18, -187500.02, -187500.02, -187500.02, -187500.02, -187500.02, 187500.00, 0.000, 0.000, 0.000, 13:41:45.749
90, 45998.41, 83692.26, -187500.02, -187500.02, -187500.02, -187500.02, -187500.02, 187500.00, 0.000, 0.000, 0.000, 13:41:45.750
91, 43986.55, 81730.85, -187500.02, -187500.02, -187500.02, -187500.02, -187500.02, 187500.00, 0.000, 0.000, 0.000, 13:41:45.750
92, 43682.04, 81438.76, -187500.02, -187500.02, -187500.02, -187500.02, -187500.02, 187500.00, 0.000, 0.000, 0.000, 13:41:45.751
93, 45139.97, 82860.28, -187500.02, -187500.02, -187500.02, -187500.02, -187500.02, 187500.00, 0.000, 0.000, 0.000, 13:41:45.751
94, 46211.18, 83897.76, -187500.02, -187500.02, -187500.02, -187500.02, -187500.02, 187500.00, 0.000, 0.000, 0.000, 13:41:45.752
95, 44338.42, 82067.98, -187500.02, -187500.02, -187500.02, -187500.02, -187500.02, 187500.00, 0.000, 0.000, 0.000, 13:41:45.752
96, 43621.30, 81343.34, -187500.02, -187500.02, -187500.02, -187500.02, -187500.02, 187500.00, 0.266, 0.980, -0.084, 13:41:45.753
97, 44873.45, 82553.38, -187500.02, -187500.02, -187500.02, -187500.02, -187500.02, 187500.00, 0.000, 0.000, 0.000, 13:41:45.753
98, 46245.00, 83918.66, -187500.02, -187500.02, -187500.02, -187500.02, -187500.02, 187500.00, 0.000, 0.000, 0.000, 13:41:45.753
99, 44728.95, 82423.95, -187500.02, -187500.02, -187500.02, -187500.02, -187500.02, 187500.00, 0.000, 0.000, 0.000, 13:41:45.754
100, 43568.46, 81266.83, -187500.02, -187500.02, -187500.02, -187500.02, -187500.02, 187500.00, 0.000, 0.000, 0.000, 13:41:45.754
101, 44536.36, 82227.02, -187500.02, -187500.02, -187500.02, -187500.02, -187500.02, 187500.00, 0.000, 0.000, 0.000, 13:41:45.754
102, 46146.80, 83827.11, -187500.02, -187500.02, -187500.02, -187500.02, -187500.02, 187500.00, 0.000, 0.000, 0.000, 13:41:45.755
103, 45117.24, 82819.83, -187500.02, -187500.02, -187500.02, -187500.02, -187500.02, 187500.00, 0.000, 0.000, 0.000, 13:41:45.755
104, 43552.80, 81281.20, -187500.02, -187500.02, -187500.02, -187500.02, -187500.02, 187500.00, 0.000, 0.000, 0.000, 13:41:45.755
105, 44267.16, 81987.58, -187500.02, -187500.02, -187500.02, -187500.02, -187500.02, 187500.00, 0.000, 0.000, 0.000, 13:41:46.186
106, 45990.77, 83670.87, -187500.02, -187500.02, -187500.02, -187500.02, -187500.02, 187500.00, 0.272, 0.980, -0.092, 13:41:46.187
107, 45509.36, 83196.74, -187500.02, -187500.02, -187500.02, -187500.02, -187500.02, 187500.00, 0.000, 0.000, 0.000, 13:41:46.187
108, 43594.53, 81355.83, -187500.02, -187500.02, -187500.02, -187500.02, -187500.02, 187500.00, 0.000, 0.000, 0.000, 13:41:46.187
109, 43959.09, 81738.77, -187500.02, -187500.02, -187500.02, -187500.02, -187500.02, 187500.00, 0.000, 0.000, 0.000, 13:41:46.188
110, 45663.90, 83410.45, -187500.02, -187500.02, -187500.02, -187500.02, -187500.02, 187500.00, 0.000, 0.000, 0.000, 13:41:46.188
111, 45831.22, 83523.75, -187500.02, -187500.02, -187500.02, -187500.02, -187500.02, 187500.00, 0.000, 0.000, 0.000, 13:41:46.188
112, 43813.38, 81517.99, -187500.02, -187500.02, -187500.02, -187500.02, -187500.02, 187500.00, 0.000, 0.000, 0.000, 13:41:46.189
113, 43816.84, 81532.74, -187500.02, -187500.02, -187500.02, -187500.02, -187500.02, 187500.00, 0.000, 0.000, 0.000, 13:41:46.189
114, 45420.62, 83112.57, -187500.02, -187500.02, -187500.02, -187500.02, -187500.02, 187500.00, 0.000, 0.000, 0.000, 13:41:46.190
115, 46090.77, 83768.39, -187500.02, -187500.02, -187500.02, -187500.02, -187500.02, 187500.00, 0.000, 0.000, 0.000, 13:41:46.190
116, 44004.50, 81773.25, -187500.02, -187500.02, -187500.02, -187500.02, -187500.02, 187500.00, 0.268, 0.980, -0.092, 13:41:46.190
117, 43632.41, 81404.07, -187500.02, -187500.02, -187500.02, -187500.02, -187500.02, 187500.00, 0.000, 0.000, 0.000, 13:41:46.191
118, 45095.89, 82813.73, -187500.02, -187500.02, -187500.02, -187500.02, -187500.02, 187500.00, 0.000, 0.000, 0.000, 13:41:46.191
119, 46276.94, 83943.43, -187500.02, -187500.02, -187500.02, -187500.02, -187500.02, 187500.00, 0.000, 0.000, 0.000, 13:41:46.191
120, 44394.74, 82113.71, -187500.02, -187500.02, -187500.02, -187500.02, -187500.02, 187500.00, 0.000, 0.000, 0.000, 13:41:46.192
121, 43539.95, 81291.34, -187500.02, -187500.02, -187500.02, -187500.02, -187500.02, 187500.00, 0.000, 0.000, 0.000, 13:41:46.192
122, 44748.77, 82496.13, -187500.02, -187500.02, -187500.02, -187500.02, -187500.02, 187500.00, 0.000, 0.000, 0.000, 13:41:46.192
123, 46248.39, 83962.94, -187500.02, -187500.02, -187500.02, -187500.02, -187500.02, 187500.00, 0.000, 0.000, 0.000, 13:41:46.193
124, 44767.01, 82500.24, -187500.02, -187500.02, -187500.02, -187500.02, -187500.02, 187500.00, 0.000, 0.000, 0.000, 13:41:46.193
125, 43477.36, 81237.44, -187500.02, -187500.02, -187500.02, -187500.02, -187500.02, 187500.00, 0.000, 0.000, 0.000, 13:41:46.193
126, 44445.05, 82199.63, -187500.02, -187500.02, -187500.02, -187500.02, -187500.02, 187500.00, 0.268, 0.974, -0.080, 13:41:46.193
127, 46144.75, 83875.66, -187500.02, -187500.02, -187500.02, -187500.02, -187500.02, 187500.00, 0.000, 0.000, 0.000, 13:41:46.194
128, 45151.10, 82893.41, -187500.02, -187500.02, -187500.02, -187500.02, -187500.02, 187500.00, 0.000, 0.000, 0.000, 13:41:46.194
129, 43451.30, 81212.47, -187500.02, -187500.02, -187500.02, -187500.02, -187500.02, 187500.00, 0.000, 0.000, 0.000, 13:41:46.194
130, 44166.78, 81931.84, -187500.02, -187500.02, -187500.02, -187500.02, -187500.02, 187500.00, 0.000, 0.000, 0.000, 13:41:46.195
131, 45971.97, 83697.38, -187500.02, -187500.02, -187500.02, -187500.02, -187500.02, 187500.00, 0.000, 0.000, 0.000, 13:41:46.195
132, 45584.28, 83297.39, -187500.02, -187500.02, -187500.02, -187500.02, -187500.02, 187500.00, 0.000, 0.000, 0.000, 13:41:46.195
133, 43579.15, 81357.64, -187500.02, -187500.02, -187500.02, -187500.02, -187500.02, 187500.00, 0.000, 0.000, 0.000, 13:41:46.195
134, 43918.92, 81691.76, -187500.02, -187500.02, -187500.02, -187500.02, -187500.02, 187500.00, 0.000, 0.000, 0.000, 13:41:46.196
135, 45701.96, 83425.70, -187500.02, -187500.02, -187500.02, -187500.02, -187500.02, 187500.00, 0.000, 0.000, 0.000, 13:41:46.196
136, 45938.42, 83660.81, -187500.02, -187500.02, -187500.02, -187500.02, -187500.02, 187500.00, 0.270, 0.972, -0.084, 13:41:46.196
137, 43778.21, 81585.67, -187500.02, -187500.02, -187500.02, -187500.02, -187500.02, 187500.00, 0.000, 0.000, 0.000, 13:41:46.197
138, 43721.98, 81527.94, -187500.02, -187500.02, -187500.02, -187500.02, -187500.02, 187500.00, 0.000, 0.000, 0.000, 13:41:46.197
139, 45362.51, 83090.57, -187500.02, -187500.02, -187500.02, -187500.02, -187500.02, 187500.00, 0.000, 0.000, 0.000, 13:41:46.197
140, 46161.34, 83843.47, -187500.02, -187500.02, -187500.02, -187500.02, -187500.02, 187500.00, 0.000, 0.000, 0.000, 13:41:46.198
141, 44048.71, 81825.98, -187500.02, -187500.02, -187500.02, -187500.02, -187500.02, 187500.00, 0.000, 0.000, 0.000, 13:41:46.198
142, 43565.52, 81366.78, -187500.02, -187500.02, -187500.02, -187500.02, -187500.02, 187500.00, 0.000, 0.000, 0.000, 13:41:46.199
143, 45016.64, 82768.75, -187500.02, -187500.02, -187500.02, -187500.02, -187500.02, 187500.00, 0.000, 0.000, 0.000, 13:41:46.199
144, 46288.76, 83974.41, -187500.02, -187500.02, -187500.02, -187500.02, -187500.02, 187500.00, 0.000, 0.000, 0.000, 13:41:46.199
145, 44397.78, 82167.60, -187500.02, -187500.02, -187500.02, -187500.02, -187500.02, 187500.00, 0.280, 0.968, -0.102, 13:41:46.200
146, 43437.53, 81262.00, -187500.02, -187500.02, -187500.02, -187500.02, -187500.02, 187500.00, 0.000, 0.000, 0.000, 13:41:46.200
147, 44658.34, 82437.50, -187500.02, -187500.02, -187500.02, -187500.02, -187500.02, 187500.00, 0.000, 0.000, 0.000, 13:41:46.200
148, 46264.62, 83957.64, -187500.02, -187500.02, -187500.02, -187500.02, -187500.02, 187500.00, 0.000, 0.000, 0.000, 13:41:46.201
149, 44796.27, 82540.56, -187500.02, -187500.02, -187500.02, -187500.02, -187500.02, 187500.00, 0.000, 0.000, 0.000, 13:41:46.201
150, 43362.96, 81181.78, -187500.02, -187500.02, -187500.02, -187500.02, -187500.02, 187500.00, 0.000, 0.000, 0.000, 13:41:46.201
151, 44324.54, 82120.20, -187500.02, -187500.02, -187500.02, -187500.02, -187500.02, 187500.00, 0.000, 0.000, 0.000, 13:41:46.202
152, 46151.95, 83844.59, -187500.02, -187500.02, -187500.02, -187500.02, -187500.02, 187500.00, 0.000, 0.000, 0.000, 13:41:46.202
153, 45267.33, 82964.04, -187500.02, -187500.02, -187500.02, -187500.02, -187500.02, 187500.00, 0.000, 0.000, 0.000, 13:41:46.203
154, 43438.47, 81222.21, -187500.02, -187500.02, -187500.02, -187500.02, -187500.02, 187500.00, 0.000, 0.000, 0.000, 13:41:46.203
155, 44082.42, 81835.97, -187500.02, -187500.02, -187500.02, -187500.02, -187500.02, 187500.00, 0.288, 0.974, -0.108, 13:41:46.203
156, 45970.50, 83633.84, -187500.02, -187500.02, -187500.02, -187500.02, -187500.02, 187500.00, 0.000, 0.000, 0.000, 13:41:46.204
157, 45680.48, 83355.98, -187500.02, -187500.02, -187500.02, -187500.02, -187500.02, 187500.00, 0.000, 0.000, 0.000, 13:41:46.204
158, 43534.07, 81318.23, -187500.02, -187500.02, -187500.02, -187500.02, -187500.02, 187500.00, 0.000, 0.000, 0.000, 13:41:46.204
159, 43825.62, 81598.66, -187500.02, -187500.02, -187500.02, -187500.02, -187500.02, 187500.00, 0.000, 0.000, 0.000, 13:41:46.205
160, 45676.13, 83371.65, -187500.02, -187500.02, -187500.02, -187500.02, -187500.02, 187500.00, 0.000, 0.000, 0.000, 13:41:46.205
161, 46012.09, 83684.26, -187500.02, -187500.02, -187500.02, -187500.02, -187500.02, 187500.00, 0.000, 0.000, 0.000, 13:41:46.205
162, 43720.68, 81506.66, -187500.02, -187500.02, -187500.02, -187500.02, -187500.02, 187500.00, 0.000, 0.000, 0.000, 13:41:46.206
163, 43584.96, 81386.01, -187500.02, -187500.02, -187500.02, -187500.02, -187500.02, 187500.00, 0.000, 0.000, 0.000, 13:41:46.206
164, 45318.09, 83022.71, -187500.02, -187500.02, -187500.02, -187500.02, -187500.02, 187500.00, 0.000, 0.000, 0.000, 13:41:46.206
165, 46286.73, 83918.08, -187500.02, -187500.02, -187500.02, -187500.02, -187500.02, 187500.00, 0.282, 0.972, -0.110, 13:41:46.206
166, 44097.22, 81828.82, -187500.02, -187500.02, -187500.02, -187500.02, -187500.02, 187500.00, 0.000, 0.000, 0.000, 13:41:46.207
167, 43480.94, 81259.83, -187500.02, -187500.02, -187500.02, -187500.02, -187500.02, 187500.00, 0.000, 0.000, 0.000, 13:41:46.207
168, 44970.68, 82703.87, -187500.02, -187500.02, -187500.02, -187500.02, -187500.02, 187500.00, 0.000, 0.000, 0.000, 13:41:46.207
169, 46377.25, 84049.89, -187500.02, -187500.02, -187500.02, -187500.02, -187500.02, 187500.00, 0.000, 0.000, 0.000, 13:41:46.208
170, 44441.59, 82199.07, -187500.02, -187500.02, -187500.02, -187500.02, -187500.02, 187500.00, 0.000, 0.000, 0.000, 13:41:46.208
171, 43362.56, 81157.26, -187500.02, -187500.02, -187500.02, -187500.02, -187500.02, 187500.00, 0.000, 0.000, 0.000, 13:41:46.208
172, 44640.57, 82377.53, -187500.02, -187500.02, -187500.02, -187500.02, -187500.02, 187500.00, 0.000, 0.000, 0.000, 13:41:46.209
173, 46402.20, 84052.19, -187500.02, -187500.02, -187500.02, -187500.02, -187500.02, 187500.00, 0.000, 0.000, 0.000, 13:41:46.209
174, 44925.02, 82617.32, -187500.02, -187500.02, -187500.02, -187500.02, -187500.02, 187500.00, 0.000, 0.000, 0.000, 13:41:46.209
175, 43342.40, 81117.67, -187500.02, -187500.02, -187500.02, -187500.02, -187500.02, 187500.00, 0.282, 0.976, -0.104, 13:41:46.210
176, 44324.49, 82077.50, -187500.02, -187500.02, -187500.02, -187500.02, -187500.02, 187500.00, 0.000, 0.000, 0.000, 13:41:46.210
177, 46243.81, 83910.23, -187500.02, -187500.02, -187500.02, -187500.02, -187500.02, 187500.00, 0.000, 0.000, 0.000, 13:41:46.210
178, 45364.00, 83072.06, -187500.02, -187500.02, -187500.02, -187500.02, -187500.02, 187500.00, 0.000, 0.000, 0.000, 13:41:46.210
179, 43347.88, 81174.73, -187500.02, -187500.02, -187500.02, -187500.02, -187500.02, 187500.00, 0.000, 0.000, 0.000, 13:41:46.211
180, 43993.93, 81788.54, -187500.02, -187500.02, -187500.02, -187500.02, -187500.02, 187500.00, 0.000, 0.000, 0.000, 13:41:46.211
181, 46006.26, 83674.00, -187500.02, -187500.02, -187500.02, -187500.02, -187500.02, 187500.00, 0.000, 0.000, 0.000, 13:41:46.211
182, 45793.61, 83461.05, -187500.02, -187500.02, -187500.02, -187500.02, -187500.02, 187500.00, 0.000, 0.000, 0.000, 13:41:46.212
183, 43463.61, 81311.53, -187500.02, -187500.02, -187500.02, -187500.02, -187500.02, 187500.00, 0.000, 0.000, 0.000, 13:41:46.212
184, 43720.73, 81548.88, -187500.02, -187500.02, -187500.02, -187500.02, -187500.02, 187500.00, 0.000, 0.000, 0.000, 13:41:46.212
185, 45683.93, 83362.17, -187500.02, -187500.02, -187500.02, -187500.02, -187500.02, 187500.00, 0.282, 0.986, -0.096, 13:41:46.213
186, 46174.37, 83798.54, -187500.02, -187500.02, -187500.02, -187500.02, -187500.02, 187500.00, 0.000, 0.000, 0.000, 13:41:46.213
187, 43751.82, 81558.16, -187500.02, -187500.02, -187500.02, -187500.02, -187500.02, 187500.00, 0.000, 0.000, 0.000, 13:41:46.213
188, 43514.93, 81362.29, -187500.02, -187500.02, -187500.02, -187500.02, -187500.02, 187500.00, 0.000, 0.000, 0.000, 13:41:46.214
189, 45305.64, 83014.96, -187500.02, -187500.02, -187500.02, -187500.02, -187500.02, 187500.00, 0.000, 0.000, 0.000, 13:41:46.214
190, 46415.83, 84009.34, -187500.02, -187500.02, -187500.02, -187500.02, -187500.02, 187500.00, 0.000, 0.000, 0.000, 13:41:46.214
191, 44109.13, 81887.87, -187500.02, -187500.02, -187500.02, -187500.02, -187500.02, 187500.00, 0.000, 0.000, 0.000, 13:41:46.214
192, 43367.61, 81221.12, -187500.02, -187500.02, -187500.02, -187500.02, -187500.02, 187500.00, 0.000, 0.000, 0.000, 13:41:46.215
193, 44944.30, 82663.68, -187500.02, -187500.02, -187500.02, -187500.02, -187500.02, 187500.00, 0.000, 0.000, 0.000, 13:41:46.215
194, 46543.53, 84108.63, -187500.02, -187500.02, -187500.02, -187500.02, -187500.02, 187500.00, 0.000, 0.000, 0.000, 13:41:46.215
195, 44569.71, 82307.75, -187500.02, -187500.02, -187500.02, -187500.02, -187500.02, 187500.00, 0.276, 0.994, -0.100, 13:41:46.216
196, 43301.43, 81161.88, -187500.02, -187500.02, -187500.02, -187500.02, -187500.02, 187500.00, 0.000, 0.000, 0.000, 13:41:46.216
197, 44578.72, 82335.42, -187500.02, -187500.02, -187500.02, -187500.02, -187500.02, 187500.00, 0.000, 0.000, 0.000, 13:41:46.216
198, 46467.53, 84043.96, -187500.02, -187500.02, -187500.02, -187500.02, -187500.02, 187500.00, 0.000, 0.000, 0.000, 13:41:46.217
199, 45051.10, 82721.92, -187500.02, -187500.02, -187500.02, -187500.02, -187500.02, 187500.00, 0.000, 0.000, 0.000, 13:41:46.217
200, 43296.87, 81156.74, -187500.02, -187500.02, -187500.02, -187500.02, -187500.02, 187500.00, 0.000, 0.000, 0.000, 13:41:46.217
201, 44231.73, 82028.35, -187500.02, -187500.02, -187500.02, -187500.02, -187500.02, 187500.00, 0.000, 0.000, 0.000, 13:41:46.218
202, 46283.62, 83889.88, -187500.02, -187500.02, -187500.02, -187500.02, -187500.02, 187500.00, 0.000, 0.000, 0.000, 13:41:46.218
203, 45519.66, 83171.84, -187500.02, -187500.02, -187500.02, -187500.02, -187500.02, 187500.00, 0.000, 0.000, 0.000, 13:41:46.219
204, 43379.62, 81219.71, -187500.02, -187500.02, -187500.02, -187500.02, -187500.02, 187500.00, 0.000, 0.000, 0.000, 13:41:46.219
205, 43955.91, 81758.30, -187500.02, -187500.02, -187500.02, -187500.02, -187500.02, 187500.00, 0.278, 0.990, -0.104, 13:41:46.219
206, 45989.90, 83641.12, -187500.02, -187500.02, -187500.02, -187500.02, -187500.02, 187500.00, 0.000, 0.000, 0.000, 13:41:46.220
207, 45908.02, 83553.48, -187500.02, -187500.02, -187500.02, -187500.02, -187500.02, 187500.00, 0.000, 0.000, 0.000, 13:41:46.220
208, 43541.62, 81371.26, -187500.02, -187500.02, -187500.02, -187500.02, -187500.02, 187500.00, 0.000, 0.000, 0.000, 13:41:46.220
209, 43709.75, 81527.85, -187500.02, -187500.02, -187500.02, -187500.02, -187500.02, 187500.00, 0.000, 0.000, 0.000, 13:41:46.221
210, 45632.98, 83318.00, -187500.02, -187500.02, -187500.02, -187500.02, -187500.02, 187500.00, 0.000, 0.000, 0.000, 13:41:46.221
211, 46202.04, 83850.13, -187500.02, -187500.02, -187500.02, -187500.02, -187500.02, 187500.00, 0.000, 0.000, 0.000, 13:41:46.222
212, 43781.14, 81599.94, -187500.02, -187500.02, -187500.02, -187500.02, -187500.02, 187500.00, 0.000, 0.000, 0.000, 13:41:46.222
213, 43492.85, 81324.88, -187500.02, -187500.02, -187500.02, -187500.02, -187500.02, 187500.00, 0.000, 0.000, 0.000, 13:41:46.222
214, 45269.34, 82972.69, -187500.02, -187500.02, -187500.02, -187500.02, -187500.02, 187500.00, 0.280, 0.980, -0.106, 13:41:46.223
215, 46462.43, 84069.60, -187500.02, -187500.02, -187500.02, -187500.02, -187500.02, 187500.00, 0.000, 0.000, 0.000, 13:41:46.223
216, 44176.93, 81940.91, -187500.02, -187500.02, -187500.02, -187500.02, -187500.02, 187500.00, 0.000, 0.000, 0.000, 13:41:46.223
217, 43340.32, 81172.68, -187500.02, -187500.02, -187500.02, -187500.02, -187500.02, 187500.00, 0.000, 0.000, 0.000, 13:41:46.224
218, 44882.35, 82602.50, -187500.02, -187500.02, -187500.02, -187500.02, -187500.02, 187500.00, 0.000, 0.000, 0.000, 13:41:46.224
219, 46540.78, 84135.56, -187500.02, -187500.02, -187500.02, -187500.02, -187500.02, 187500.00, 0.000, 0.000, 0.000, 13:41:46.224
220, 44642.49, 82335.35, -187500.02, -187500.02, -187500.02, -187500.02, -187500.02, 187500.00, 0.000, 0.000, 0.000, 13:41:46.225
221, 43292.29, 81089.24, -187500.02, -187500.02, -187500.02, -187500.02, -187500.02, 187500.00, 0.000, 0.000, 0.000, 13:41:46.225
222, 44539.05, 82283.52, -187500.02, -187500.02, -187500.02, -187500.02, -187500.02, 187500.00, 0.000, 0.000, 0.000, 13:41:46.226
223, 46475.73, 84117.52, -187500.02, -187500.02, -187500.02, -187500.02, -187500.02, 187500.00, 0.000, 0.000, 0.000, 13:41:46.226
224, 45126.25, 82824.19, -187500.02, -187500.02, -187500.02, -187500.02, -187500.02, 187500.00, 0.292, 0.966, -0.114, 13:41:46.227
225, 43307.15, 81072.66, -187500.02, -187500.02, -187500.02, -187500.02, -187500.02, 187500.00, 0.000, 0.000, 0.000, 13:41:46.670
226, 44207.84, 81940.15, -187500.02, -187500.02, -187500.02, -187500.02, -187500.02, 187500.00, 0.000, 0.000, 0.000, 13:41:46.671
227, 46263.28, 83947.02, -187500.02, -187500.02, -187500.02, -187500.02, -187500.02, 187500.00, 0.000, 0.000, 0.000, 13:41:46.671
228, 45609.70, 83297.02, -187500.02, -187500.02, -187500.02, -187500.02, -187500.02, 187500.00, 0.000, 0.000, 0.000, 13:41:46.674
229, 43417.17, 81139.11, -187500.02, -187500.02, -187500.02, -187500.02, -187500.02, 187500.00, 0.000, 0.000, 0.000, 13:41:46.675
230, 43944.22, 81666.88, -187500.02, -187500.02, -187500.02, -187500.02, -187500.02, 187500.00, 0.000, 0.000, 0.000, 13:41:46.675
231, 45959.90, 83684.44, -187500.02, -187500.02, -187500.02, -187500.02, -187500.02, 187500.00, 0.000, 0.000, 0.000, 13:41:46.676
232, 45978.45, 83698.81, -187500.02, -187500.02, -187500.02, -187500.02, -187500.02, 187500.00, 0.000, 0.000, 0.000, 13:41:46.676
233, 43597.52, 81308.06, -187500.02, -187500.02, -187500.02, -187500.02, -187500.02, 187500.00, 0.000, 0.000, 0.000, 13:41:46.676
234, 43695.00, 81403.84, -187500.02, -187500.02, -187500.02, -187500.02, -187500.02, 187500.00, 0.304, 0.960, -0.124, 13:41:46.677
235, 45581.22, 83323.50, -187500.02, -187500.02, -187500.02, -187500.02, -187500.02, 187500.00, 0.000, 0.000, 0.000, 13:41:46.677
236, 46296.36, 84025.77, -187500.02, -187500.02, -187500.02, -187500.02, -187500.02, 187500.00, 0.000, 0.000, 0.000, 13:41:46.677
237, 43881.08, 81599.60, -187500.02, -187500.02, -187500.02, -187500.02, -187500.02, 187500.00, 0.000, 0.000, 0.000, 13:41:46.678
238, 43489.52, 81213.23, -187500.02, -187500.02, -187500.02, -187500.02, -187500.02, 187500.00, 0.000, 0.000, 0.000, 13:41:46.678
239, 45235.44, 82966.16, -187500.02, -187500.02, -187500.02, -187500.02, -187500.02, 187500.00, 0.000, 0.000, 0.000, 13:41:46.679
240, 46509.69, 84232.50, -187500.02, -187500.02, -187500.02, -187500.02, -187500.02, 187500.00, 0.000, 0.000, 0.000, 13:41:46.680
241, 44284.70, 81981.68, -187500.02, -187500.02, -187500.02, -187500.02, -187500.02, 187500.00, 0.000, 0.000, 0.000, 13:41:46.681
242, 43354.38, 81063.52, -187500.02, -187500.02, -187500.02, -187500.02, -187500.02, 187500.00, 0.000, 0.000, 0.000, 13:41:46.681
243, 44809.01, 82573.58, -187500.02, -187500.02, -187500.02, -187500.02, -187500.02, 187500.00, 0.000, 0.000, 0.000, 13:41:46.681
244, 46521.67, 84281.25, -187500.02, -187500.02, -187500.02, -187500.02, -187500.02, 187500.00, 0.308, 0.960, -0.130, 13:41:46.682
245, 44703.13, 82426.50, -187500.02, -187500.02, -187500.02, -187500.02, -187500.02, 187500.00, 0.000, 0.000, 0.000, 13:41:46.682
246, 43260.04, 80977.82, -187500.02, -187500.02, -187500.02, -187500.02, -187500.02, 187500.00, 0.000, 0.000, 0.000, 13:41:46.683
247, 44454.18, 82206.36, -187500.02, -187500.02, -187500.02, -187500.02, -187500.02, 187500.00, 0.000, 0.000, 0.000, 13:41:46.683
248, 46431.79, 84184.13, -187500.02, -187500.02, -187500.02, -187500.02, -187500.02, 187500.00, 0.000, 0.000, 0.000, 13:41:46.683
249, 45197.82, 82922.82, -187500.02, -187500.02, -187500.02, -187500.02, -187500.02, 187500.00, 0.000, 0.000, 0.000, 13:41:46.684
250, 43296.24, 81026.19, -187500.02, -187500.02, -187500.02, -187500.02, -187500.02, 187500.00, 0.000, 0.000, 0.000, 13:41:46.684
251, 44157.57, 81890.95, -187500.02, -187500.02, -187500.02, -187500.02, -187500.02, 187500.00, 0.000, 0.000, 0.000, 13:41:46.684
252, 46247.84, 83979.10, -187500.02, -187500.02, -187500.02, -187500.02, -187500.02, 187500.00, 0.000, 0.000, 0.000, 13:41:46.685
253, 45675.63, 83400.44, -187500.02, -187500.02, -187500.02, -187500.02, -187500.02, 187500.00, 0.000, 0.000, 0.000, 13:41:46.685
254, 43382.12, 81108.22, -187500.02, -187500.02, -187500.02, -187500.02, -187500.02, 187500.00, 0.304, 0.966, -0.122, 13:41:46.685
255, 43841.80, 81575.20, -187500.02, -187500.02, -187500.02, -187500.02, -187500.02, 187500.00, 0.000, 0.000, 0.000, 13:41:46.686
0, 45911.42, 83656.03, -187500.02, -187500.02, -187500.02, -187500.02, -187500.02, 187500.00, 0.000, 0.000, 0.000, 13:41:46.686
1, 46076.49, 83806.50, -187500.02, -187500.02, -187500.02, -187500.02, -187500.02, 187500.00, 0.000, 0.000, 0.000, 13:41:46.686
2, 43598.89, 81343.94, -187500.02, -187500.02, -187500.02, -187500.02, -187500.02, 187500.00, 0.000, 0.000, 0.000, 13:41:46.687
3, 43604.92, 81353.09, -187500.02, -187500.02, -187500.02, -187500.02, -187500.02, 187500.00, 0.000, 0.000, 0.000, 13:41:46.687
4, 45534.21, 83273.14, -187500.02, -187500.02, -187500.02, -187500.02, -187500.02, 187500.00, 0.000, 0.000, 0.000, 13:41:46.687
5, 46364.58, 84087.91, -187500.02, -187500.02, -187500.02, -187500.02, -187500.02, 187500.00, 0.000, 0.000, 0.000, 13:41:46.688
6, 43898.69, 81651.79, -187500.02, -187500.02, -187500.02, -187500.02, -187500.02, 187500.00, 0.000, 0.000, 0.000, 13:41:46.688
7, 43398.17, 81173.89, -187500.02, -187500.02, -187500.02, -187500.02, -187500.02, 187500.00, 0.000, 0.000, 0.000, 13:41:46.688
8, 45132.33, 82894.33, -187500.02, -187500.02, -187500.02, -187500.02, -187500.02, 187500.00, 0.304, 0.974, -0.112, 13:41:46.689
9, 46532.60, 84245.66, -187500.02, -187500.02, -187500.02, -187500.02, -187500.02, 187500.00, 0.000, 0.000, 0.000, 13:41:46.689
10, 44315.30, 82061.50, -187500.02, -187500.02, -187500.02, -187500.02, -187500.02, 187500.00, 0.000, 0.000, 0.000, 13:41:46.689
11, 43279.97, 81065.21, -187500.02, -187500.02, -187500.02, -187500.02, -187500.02, 187500.00, 0.000, 0.000, 0.000, 13:41:46.690
12, 44742.80, 82510.59, -187500.02, -187500.02, -187500.02, -187500.02, -187500.02, 187500.00, 0.000, 0.000, 0.000, 13:41:46.690
13, 46544.27, 84266.25, -187500.02, -187500.02, -187500.02, -187500.02, -187500.02, 187500.00, 0.000, 0.000, 0.000, 13:41:46.690
14, 44764.02, 82531.51, -187500.02, -187500.02, -187500.02, -187500.02, -187500.02, 187500.00, 0.000, 0.000, 0.000, 13:41:46.691
15, 43187.57, 81003.16, -187500.02, -187500.02, -187500.02, -187500.02, -187500.02, 187500.00, 0.000, 0.000, 0.000, 13:41:46.691
16, 44368.99, 82151.35, -187500.02, -187500.02, -187500.02, -187500.02, -187500.02, 187500.00, 0.000, 0.000, 0.000, 13:41:46.691
17, 46442.39, 84169.38, -187500.02, -187500.02, -187500.02, -187500.02, -187500.02, 187500.00, 0.306, 0.972, -0.104, 13:41:46.692
18, 45290.80, 83033.22, -187500.02, -187500.02, -187500.02, -187500.02, -187500.02, 187500.00, 0.000, 0.000, 0.000, 13:41:46.692
19, 43230.71, 81028.18, -187500.02, -187500.02, -187500.02, -187500.02, -187500.02, 187500.00, 0.000, 0.000, 0.000, 13:41:46.692
20, 44058.77, 81819.36, -187500.02, -187500.02, -187500.02, -187500.02, -187500.02, 187500.00, 0.000, 0.000, 0.000, 13:41:46.693
21, 46225.04, 83926.30, -187500.02, -187500.02, -187500.02, -187500.02, -187500.02, 187500.00, 0.000, 0.000, 0.000, 13:41:46.693
22, 45779.72, 83485.95, -187500.02, -187500.02, -187500.02, -187500.02, -187500.02, 187500.00, 0.000, 0.000, 0.000, 13:41:46.693
23, 43370.25, 81142.15, -187500.02, -187500.02, -187500.02, -187500.02, -187500.02, 187500.00, 0.000, 0.000, 0.000, 13:41:46.694
24, 43761.38, 81533.28, -187500.02, -187500.02, -187500.02, -187500.02, -187500.02, 187500.00, 0.000, 0.000, 0.000, 13:41:46.694
25, 45895.39, 83633.61, -187500.02, -187500.02, -187500.02, -187500.02, -187500.02, 187500.00, 0.000, 0.000, 0.000, 13:41:46.694
26, 46191.69, 83900.35, -187500.02, -187500.02, -187500.02, -187500.02, -187500.02, 187500.00, 0.000, 0.000, 0.000, 13:41:46.695
27, 43609.08, 81370.27, -187500.02, -187500.02, -187500.02, -187500.02, -187500.02, 187500.00, 0.308, 0.968, -0.104, 13:41:46.695
28, 43558.32, 81301.70, -187500.02, -187500.02, -187500.02, -187500.02, -187500.02, 187500.00, 0.000, 0.000, 0.000, 13:41:46.695
29, 45536.71, 83249.98, -187500.02, -187500.02, -187500.02, -187500.02, -187500.02, 187500.00, 0.000, 0.000, 0.000, 13:41:46.695
30, 46489.26, 84184.73, -187500.02, -187500.02, -187500.02, -187500.02, -187500.02, 187500.00, 0.000, 0.000, 0.000, 13:41:46.699
31, 43961.88, 81698.51, -187500.02, -187500.02, -187500.02, -187500.02, -187500.02, 187500.00, 0.000, 0.000, 0.000, 13:41:46.700
32, 43363.63, 81102.43, -187500.02, -187500.02, -187500.02, -187500.02, -187500.02, 187500.00, 0.000, 0.000, 0.000, 13:41:46.700
33, 45100.36, 82828.81, -187500.02, -187500.02, -187500.02, -187500.02, -187500.02, 187500.00, 0.000, 0.000, 0.000, 13:41:46.700
34, 46619.28, 84325.77, -187500.02, -187500.02, -187500.02, -187500.02, -187500.02, 187500.00, 0.000, 0.000, 0.000, 13:41:46.701
35, 44397.25, 82120.17, -187500.02, -187500.02, -187500.02, -187500.02, -187500.02, 187500.00, 0.000, 0.000, 0.000, 13:41:46.701
36, 43234.66, 80968.43, -187500.02, -187500.02, -187500.02, -187500.02, -187500.02, 187500.00, 0.000, 0.000, 0.000, 13:41:46.701
37, 44705.34, 82431.58, -187500.02, -187500.02, -187500.02, -187500.02, -187500.02, 187500.00, 0.316, 0.962, -0.120, 13:41:46.702
38, 46625.94, 84339.12, -187500.02, -187500.02, -187500.02, -187500.02, -187500.02, 187500.00, 0.000, 0.000, 0.000, 13:41:46.703
39, 44906.11, 82638.87, -187500.02, -187500.02, -187500.02, -187500.02, -187500.02, 187500.00, 0.000, 0.000, 0.000, 13:41:46.703
40, 43191.14, 80948.07, -187500.02, -187500.02, -187500.02, -187500.02, -187500.02, 187500.00, 0.000, 0.000, 0.000, 13:41:46.703
41, 44330.32, 82077.81, -187500.02, -187500.02, -187500.02, -187500.02, -187500.02, 187500.00, 0.000, 0.000, 0.000, 13:41:46.703
42, 46477.95, 84191.06, -187500.02, -187500.02, -187500.02, -187500.02, -187500.02, 187500.00, 0.000, 0.000, 0.000, 13:41:46.704
43, 45416.08, 83118.87, -187500.02, -187500.02, -187500.02, -187500.02, -187500.02, 187500.00, 0.000, 0.000, 0.000, 13:41:46.704
44, 43243.61, 80977.22, -187500.02, -187500.02, -187500.02, -187500.02, -187500.02, 187500.00, 0.000, 0.000, 0.000, 13:41:46.704
45, 44004.44, 81748.77, -187500.02, -187500.02, -187500.02, -187500.02, -187500.02, 187500.00, 0.000, 0.000, 0.000, 13:41:46.705
46, 46199.24, 83931.22, -187500.02, -187500.02, -187500.02, -187500.02, -187500.02, 187500.00, 0.000, 0.000, 0.000, 13:41:46.705
47, 45873.51, 83598.49, -187500.02, -187500.02, -187500.02, -187500.02, -187500.02, 187500.00, 0.320, 0.972, -0.132, 13:41:46.705
48, 43364.62, 81129.25, -187500.02, -187500.02, -187500.02, -187500.02, -187500.02, 187500.00, 0.000, 0.000, 0.000, 13:41:46.706
49, 43695.54, 81469.58, -187500.02, -187500.02, -187500.02, -187500.02, -187500.02, 187500.00, 0.000, 0.000, 0.000, 13:41:46.706
50, 45861.11, 83596.59, -187500.02, -187500.02, -187500.02, -187500.02, -187500.02, 187500.00, 0.000, 0.000, 0.000, 13:41:46.707
51, 46274.90, 83987.41, -187500.02, -187500.02, -187500.02, -187500.02, -187500.02, 187500.00, 0.000, 0.000, 0.000, 13:41:46.707
52, 43662.86, 81402.73, -187500.02, -187500.02, -187500.02, -187500.02, -187500.02, 187500.00, 0.000, 0.000, 0.000, 13:41:46.707
53, 43510.80, 81240.97, -187500.02, -187500.02, -187500.02, -187500.02, -187500.02, 187500.00, 0.000, 0.000, 0.000, 13:41:46.707
54, 45464.83, 83186.15, -187500.02, -187500.02, -187500.02, -187500.02, -187500.02, 187500.00, 0.000, 0.000, 0.000, 13:41:46.708
55, 46528.55, 84239.45, -187500.02, -187500.02, -187500.02, -187500.02, -187500.02, 187500.00, 0.000, 0.000, 0.000, 13:41:46.708
56, 44021.07, 81756.78, -187500.02, -187500.02, -187500.02, -187500.02, -187500.02, 187500.00, 0.000, 0.000, 0.000, 13:41:46.708
57, 43305.99, 81068.99, -187500.02, -187500.02, -187500.02, -187500.02, -187500.02, 187500.00, 0.326, 0.964, -0.128, 13:41:46.709
58, 45041.51, 82793.61, -187500.02, -187500.02, -187500.02, -187500.02, -187500.02, 187500.00, 0.000, 0.000, 0.000, 13:41:46.709
59, 46667.11, 84380.11, -187500.02, -187500.02, -187500.02, -187500.02, -187500.02, 187500.00, 0.000, 0.000, 0.000, 13:41:46.709
60, 44508.98, 82216.62, -187500.02, -187500.02, -187500.02, -187500.02, -187500.02, 187500.00, 0.000, 0.000, 0.000, 13:41:46.710
61, 43244.88, 80958.26, -187500.02, -187500.02, -187500.02, -187500.02, -187500.02, 187500.00, 0.000, 0.000, 0.000, 13:41:46.711
62, 44652.50, 82375.88, -187500.02, -187500.02, -187500.02, -187500.02, -187500.02, 187500.00, 0.000, 0.000, 0.000, 13:41:46.711
63, 46614.47, 84332.70, -187500.02, -187500.02, -187500.02, -187500.02, -187500.02, 187500.00, 0.000, 0.000, 0.000, 13:41:46.711
64, 44983.42, 82712.20, -187500.02, -187500.02, -187500.02, -187500.02, -187500.02, 187500.00, 0.000, 0.000, 0.000, 13:41:46.712
65, 43196.06, 80936.71, -187500.02, -187500.02, -187500.02, -187500.02, -187500.02, 187500.00, 0.000, 0.000, 0.000, 13:41:46.712
66, 44270.78, 82016.77, -187500.02, -187500.02, -187500.02, -187500.02, -187500.02, 187500.00, 0.000, 0.000, 0.000, 13:41:46.712
67, 46433.36, 84180.51, -187500.02, -187500.02, -187500.02, -187500.02, -187500.02, 187500.00, 0.320, 0.958, -0.126, 13:41:46.712
68, 45509.74, 83226.96, -187500.02, -187500.02, -187500.02, -187500.02, -187500.02, 187500.00, 0.000, 0.000, 0.000, 13:41:46.713
69, 43262.20, 80991.56, -187500.02, -187500.02, -187500.02, -187500.02, -187500.02, 187500.00, 0.000, 0.000, 0.000, 13:41:46.713
70, 43939.95, 81687.13, -187500.02, -187500.02, -187500.02, -187500.02, -187500.02, 187500.00, 0.000, 0.000, 0.000, 13:41:46.714
71, 46141.55, 83891.30, -187500.02, -187500.02, -187500.02, -187500.02, -187500.02, 187500.00, 0.000, 0.000, 0.000, 13:41:46.715
72, 45950.67, 83678.63, -187500.02, -187500.02, -187500.02, -187500.02, -187500.02, 187500.00, 0.000, 0.000, 0.000, 13:41:46.715
73, 43412.43, 81138.26, -187500.02, -187500.02, -187500.02, -187500.02, -187500.02, 187500.00, 0.000, 0.000, 0.000, 13:41:46.716
74, 43668.49, 81400.85, -187500.02, -187500.02, -187500.02, -187500.02, -187500.02, 187500.00, 0.000, 0.000, 0.000, 13:41:46.716
75, 45767.16, 83525.76, -187500.02, -187500.02, -187500.02, -187500.02, -187500.02, 187500.00, 0.000, 0.000, 0.000, 13:41:46.716
76, 46314.73, 84068.48, -187500.02, -187500.02, -187500.02, -187500.02, -187500.02, 187500.00, 0.296, 0.974, -0.128, 13:41:46.716
77, 43712.05, 81468.33, -187500.02, -187500.02, -187500.02, -187500.02, -187500.02, 187500.00, 0.000, 0.000, 0.000, 13:41:46.717
78, 43430.64, 81201.27, -187500.02, -187500.02, -187500.02, -187500.02, -187500.02, 187500.00, 0.000, 0.000, 0.000, 13:41:46.717
79, 45368.79, 83127.50, -187500.02, -187500.02, -187500.02, -187500.02, -187500.02, 187500.00, 0.000, 0.000, 0.000, 13:41:46.717
80, 46585.44, 84322.71, -187500.02, -187500.02, -187500.02, -187500.02, -187500.02, 187500.00, 0.000, 0.000, 0.000, 13:41:46.718
81, 44104.41, 81835.43, -187500.02, -187500.02, -187500.02, -187500.02, -187500.02, 187500.00, 0.000, 0.000, 0.000, 13:41:46.718
82, 43312.63, 81037.55, -187500.02, -187500.02, -187500.02, -187500.02, -187500.02, 187500.00, 0.000, 0.000, 0.000, 13:41:46.718
83, 44977.36, 82724.72, -187500.02, -187500.02, -187500.02, -187500.02, -187500.02, 187500.00, 0.000, 0.000, 0.000, 13:41:46.719
84, 46648.16, 84401.59, -187500.02, -187500.02, -187500.02, -187500.02, -187500.02, 187500.00, 0.000, 0.000, 0.000, 13:41:46.719
85, 44573.47, 82307.46, -187500.02, -187500.02, -187500.02, -187500.02, -187500.02, 187500.00, 0.000, 0.000, 0.000, 13:41:46.719
86, 43217.50, 80940.80, -187500.02, -187500.02, -187500.02, -187500.02, -187500.02, 187500.00, 0.300, 0.968, -0.134, 13:41:46.720
87, 44569.45, 82304.44, -187500.02, -187500.02, -187500.02, -187500.02, -187500.02, 187500.00, 0.000, 0.000, 0.000, 13:41:46.720
88, 46561.86, 84320.12, -187500.02, -187500.02, -187500.02, -187500.02, -187500.02, 187500.00, 0.000, 0.000, 0.000, 13:41:46.720
89, 45060.94, 82809.92, -187500.02, -187500.02, -187500.02, -187500.02, -187500.02, 187500.00, 0.000, 0.000, 0.000, 13:41:46.721
90, 43188.60, 80935.06, -187500.02, -187500.02, -187500.02, -187500.02, -187500.02, 187500.00, 0.000, 0.000, 0.000, 13:41:47.152
91, 44206.74, 81963.80, -187500.02, -187500.02, -187500.02, -187500.02, -187500.02, 187500.00, 0.000, 0.000, 0.000, 13:41:47.152
92, 46381.95, 84149.35, -187500.02, -187500.02, -187500.02, -187500.02, -187500.02, 187500.00, 0.000, 0.000, 0.000, 13:41:47.153
93, 45576.97, 83321.11, -187500.02, -187500.02, -187500.02, -187500.02, -187500.02, 187500.00, 0.000, 0.000, 0.000, 13:41:47.153
94, 43276.46, 80993.87, -187500.02, -187500.02, -187500.02, -187500.02, -187500.02, 187500.00, 0.000, 0.000, 0.000, 13:41:47.153
95, 43901.93, 81631.14, -187500.02, -187500.02, -187500.02, -187500.02, -187500.02, 187500.00, 0.000, 0.000, 0.000, 13:41:47.154
96, 46097.70, 83843.40, -187500.02, -187500.02, -187500.02, -187500.02, -187500.02, 187500.00, 0.304, 0.972, -0.130, 13:41:47.154
97, 46046.56, 83772.79, -187500.02, -187500.02, -187500.02, -187500.02, -187500.02, 187500.00, 0.000, 0.000, 0.000, 13:41:47.155
98, 43464.73, 81183.23, -187500.02, -187500.02, -187500.02, -187500.02, -187500.02, 187500.00, 0.000, 0.000, 0.000, 13:41:47.155
99, 43620.90, 81346.29, -187500.02, -187500.02, -187500.02, -187500.02, -187500.02, 187500.00, 0.000, 0.000, 0.000, 13:41:47.155
100, 45729.41, 83478.24, -187500.02, -187500.02, -187500.02, -187500.02, -187500.02, 187500.00, 0.000, 0.000, 0.000, 13:41:47.156
101, 46394.96, 84141.55, -187500.02, -187500.02, -187500.02, -187500.02, -187500.02, 187500.00, 0.000, 0.000, 0.000, 13:41:47.156
102, 43772.38, 81495.35, -187500.02, -187500.02, -187500.02, -187500.02, -187500.02, 187500.00, 0.000, 0.000, 0.000, 13:41:47.156
103, 43404.96, 81130.95, -187500.02, -187500.02, -187500.02, -187500.02, -187500.02, 187500.00, 0.000, 0.000, 0.000, 13:41:47.157
104, 45297.73, 83064.24, -187500.02, -187500.02, -187500.02, -187500.02, -187500.02, 187500.00, 0.000, 0.000, 0.000, 13:41:47.157
105, 46617.96, 84391.38, -187500.02, -187500.02, -187500.02, -187500.02, -187500.02, 187500.00, 0.000, 0.000, 0.000, 13:41:47.157
106, 44197.02, 81924.59, -187500.02, -187500.02, -187500.02, -187500.02, -187500.02, 187500.00, 0.308, 0.972, -0.128, 13:41:47.157
107, 43263.34, 80974.47, -187500.02, -187500.02, -187500.02, -187500.02, -187500.02, 187500.00, 0.000, 0.000, 0.000, 13:41:47.158
108, 44891.18, 82643.49, -187500.02, -187500.02, -187500.02, -187500.02, -187500.02, 187500.00, 0.000, 0.000, 0.000, 13:41:47.158
109, 46668.23, 84453.25, -187500.02, -187500.02, -187500.02, -187500.02, -187500.02, 187500.00, 0.000, 0.000, 0.000, 13:41:47.158
110, 44638.09, 82388.37, -187500.02, -187500.02, -187500.02, -187500.02, -187500.02, 187500.00, 0.000, 0.000, 0.000, 13:41:47.159
111, 43163.18, 80878.31, -187500.02, -187500.02, -187500.02, -187500.02, -187500.02, 187500.00, 0.000, 0.000, 0.000, 13:41:47.159
112, 44502.66, 82231.04, -187500.02, -187500.02, -187500.02, -187500.02, -187500.02, 187500.00, 0.000, 0.000, 0.000, 13:41:47.159
113, 46603.56, 84373.45, -187500.02, -187500.02, -187500.02, -187500.02, -187500.02, 187500.00, 0.000, 0.000, 0.000, 13:41:47.160
114, 45185.19, 82914.40, -187500.02, -187500.02, -187500.02, -187500.02, -187500.02, 187500.00, 0.000, 0.000, 0.000, 13:41:47.160
115, 43166.11, 80862.80, -187500.02, -187500.02, -187500.02, -187500.02, -187500.02, 187500.00, 0.000, 0.000, 0.000, 13:41:47.160
116, 44115.59, 81854.32, -187500.02, -187500.02, -187500.02, -187500.02, -187500.02, 187500.00, 0.310, 0.968, -0.126, 13:41:47.161
117, 46358.70, 84153.82, -187500.02, -187500.02, -187500.02, -187500.02, -187500.02, 187500.00, 0.000, 0.000, 0.000, 13:41:47.161
118, 45683.43, 83430.56, -187500.02, -187500.02, -187500.02, -187500.02, -187500.02, 187500.00, 0.000, 0.000, 0.000, 13:41:47.161
119, 43275.75, 80938.44, -187500.02, -187500.02, -187500.02, -187500.02, -187500.02, 187500.00, 0.000, 0.000, 0.000, 13:41:47.161
120, 43826.65, 81511.58, -187500.02, -187500.02, -187500.02, -187500.02, -187500.02, 187500.00, 0.000, 0.000, 0.000, 13:41:47.162
121, 46053.22, 83837.88, -187500.02, -187500.02, -187500.02, -187500.02, -187500.02, 187500.00, 0.000, 0.000, 0.000, 13:41:47.162
122, 46122.55, 83894.50, -187500.02, -187500.02, -187500.02, -187500.02, -187500.02, 187500.00, 0.000, 0.000, 0.000, 13:41:47.162
123, 43494.13, 81154.13, -187500.02, -187500.02, -187500.02, -187500.02, -187500.02, 187500.00, 0.000, 0.000, 0.000, 13:41:47.163
124, 43572.91, 81231.83, -187500.02, -187500.02, -187500.02, -187500.02, -187500.02, 187500.00, 0.000, 0.000, 0.000, 13:41:47.163
125, 45663.20, 83432.51, -187500.02, -187500.02, -187500.02, -187500.02, -187500.02, 187500.00, 0.000, 0.000, 0.000, 13:41:47.163
126, 46454.59, 84266.38, -187500.02, -187500.02, -187500.02, -187500.02, -187500.02, 187500.00, 0.310, 0.966, -0.124, 13:41:47.164
127, 43821.42, 81527.31, -187500.02, -187500.02, -187500.02, -187500.02, -187500.02, 187500.00, 0.000, 0.000, 0.000, 13:41:47.164
128, 43376.15, 81051.73, -187500.02, -187500.02, -187500.02, -187500.02, -187500.02, 187500.00, 0.000, 0.000, 0.000, 13:41:47.164
129, 45244.24, 82999.94, -187500.02, -187500.02, -187500.02, -187500.02, -187500.02, 187500.00, 0.000, 0.000, 0.000, 13:41:47.165
130, 46645.72, 84447.44, -187500.02, -187500.02, -187500.02, -187500.02, -187500.02, 187500.00, 0.000, 0.000, 0.000, 13:41:47.165
131, 44245.16, 81941.65, -187500.02, -187500.02, -187500.02, -187500.02, -187500.02, 187500.00, 0.000, 0.000, 0.000, 13:41:47.166
132, 43230.98, 80882.04, -187500.02, -187500.02, -187500.02, -187500.02, -187500.02, 187500.00, 0.000, 0.000, 0.000, 13:41:47.166
133, 44819.63, 82559.95, -187500.02, -187500.02, -187500.02, -187500.02, -187500.02, 187500.00, 0.000, 0.000, 0.000, 13:41:47.166
134, 46688.46, 84505.84, -187500.02, -187500.02, -187500.02, -187500.02, -187500.02, 187500.00, 0.000, 0.000, 0.000, 13:41:47.167
135, 44751.45, 82478.80, -187500.02, -187500.02, -187500.02, -187500.02, -187500.02, 187500.00, 0.000, 0.000, 0.000, 13:41:47.167
136, 43173.93, 80825.25, -187500.02, -187500.02, -187500.02, -187500.02, -187500.02, 187500.00, 0.310, 0.974, -0.124, 13:41:47.168
137, 44433.81, 82149.14, -187500.02, -187500.02, -187500.02, -187500.02, -187500.02, 187500.00, 0.000, 0.000, 0.000, 13:41:47.168
138, 46563.71, 84380.02, -187500.02, -187500.02, -187500.02, -187500.02, -187500.02, 187500.00, 0.000, 0.000, 0.000, 13:41:47.169
139, 45262.41, 83022.11, -187500.02, -187500.02, -187500.02, -187500.02, -187500.02, 187500.00, 0.000, 0.000, 0.000, 13:41:47.169
140, 43173.13, 80856.63, -187500.02, -187500.02, -187500.02, -187500.02, -187500.02, 187500.00, 0.000, 0.000, 0.000, 13:41:47.169
141, 44078.38, 81789.01, -187500.02, -187500.02, -187500.02, -187500.02, -187500.02, 187500.00, 0.000, 0.000, 0.000, 13:41:47.170
142, 46312.68, 84123.76, -187500.02, -187500.02, -187500.02, -187500.02, -187500.02, 187500.00, 0.000, 0.000, 0.000, 13:41:47.170
143, 45754.78, 83536.31, -187500.02, -187500.02, -187500.02, -187500.02, -187500.02, 187500.00, 0.000, 0.000, 0.000, 13:41:47.171
144, 43313.16, 80985.64, -187500.02, -187500.02, -187500.02, -187500.02, -187500.02, 187500.00, 0.000, 0.000, 0.000, 13:41:47.171
145, 43816.77, 81497.79, -187500.02, -187500.02, -187500.02, -187500.02, -187500.02, 187500.00, 0.308, 0.968, -0.120, 13:41:47.171
146, 46011.76, 83792.95, -187500.02, -187500.02, -187500.02, -187500.02, -187500.02, 187500.00, 0.000, 0.000, 0.000, 13:41:47.172
147, 46194.13, 83972.82, -187500.02, -187500.02, -187500.02, -187500.02, -187500.02, 187500.00, 0.000, 0.000, 0.000, 13:41:47.172
148, 43553.58, 81232.85, -187500.02, -187500.02, -187500.02, -187500.02, -187500.02, 187500.00, 0.000, 0.000, 0.000, 13:41:47.172
149, 43554.96, 81233.21, -187500.02, -187500.02, -187500.02, -187500.02, -187500.02, 187500.00, 0.000, 0.000, 0.000, 13:41:47.173
150, 45603.52, 83373.14, -187500.02, -187500.02, -187500.02, -187500.02, -187500.02, 187500.00, 0.000, 0.000, 0.000, 13:41:47.173
151, 46496.21, 84290.41, -187500.02, -187500.02, -187500.02, -187500.02, -187500.02, 187500.00, 0.000, 0.000, 0.000, 13:41:47.173
152, 43909.33, 81593.99, -187500.02, -187500.02, -187500.02, -187500.02, -187500.02, 187500.00, 0.000, 0.000, 0.000, 13:41:47.174
153, 43375.23, 81038.80, -187500.02, -187500.02, -187500.02, -187500.02, -187500.02, 187500.00, 0.000, 0.000, 0.000, 13:41:47.174
154, 45180.81, 82943.03, -187500.02, -187500.02, -187500.02, -187500.02, -187500.02, 187500.00, 0.000, 0.000, 0.000, 13:41:47.174
155, 46653.63, 84488.59, -187500.02, -187500.02, -187500.02, -187500.02, -187500.02, 187500.00, 0.312, 0.970, -0.112, 13:41:47.175
156, 44327.04, 82051.75, -187500.02, -187500.02, -187500.02, -187500.02, -187500.02, 187500.00, 0.000, 0.000, 0.000, 13:41:47.175
157, 43215.93, 80884.27, -187500.02, -187500.02, -187500.02, -187500.02, -187500.02, 187500.00, 0.000, 0.000, 0.000, 13:41:47.175
158, 44745.69, 82499.28, -187500.02, -187500.02, -187500.02, -187500.02, -187500.02, 187500.00, 0.000, 0.000, 0.000, 13:41:47.176
159, 46653.95, 84499.36, -187500.02, -187500.02, -187500.02, -187500.02, -187500.02, 187500.00, 0.000, 0.000, 0.000, 13:41:47.176
160, 44825.02, 82578.27, -187500.02, -187500.02, -187500.02, -187500.02, -187500.02, 187500.00, 0.000, 0.000, 0.000, 13:41:47.176
161, 43166.18, 80831.52, -187500.02, -187500.02, -187500.02, -187500.02, -187500.02, 187500.00, 0.000, 0.000, 0.000, 13:41:47.177
162, 44375.95, 82101.55, -187500.02, -187500.02, -187500.02, -187500.02, -187500.02, 187500.00, 0.000, 0.000, 0.000, 13:41:47.177
163, 46528.91, 84359.64, -187500.02, -187500.02, -187500.02, -187500.02, -187500.02, 187500.00, 0.000, 0.000, 0.000, 13:41:47.178
164, 45346.61, 83118.63, -187500.02, -187500.02, -187500.02, -187500.02, -187500.02, 187500.00, 0.000, 0.000, 0.000, 13:41:47.178
165, 43190.57, 80862.53, -187500.02, -187500.02, -187500.02, -187500.02, -187500.02, 187500.00, 0.312, 0.966, -0.114, 13:41:47.179
166, 44026.95, 81748.02, -187500.02, -187500.02, -187500.02, -187500.02, -187500.02, 187500.00, 0.000, 0.000, 0.000, 13:41:47.179
167, 46282.04, 84113.48, -187500.02, -187500.02, -187500.02, -187500.02, -187500.02, 187500.00, 0.000, 0.000, 0.000, 13:41:47.179
168, 45859.14, 83645.95, -187500.02, -187500.02, -187500.02, -187500.02, -187500.02, 187500.00, 0.000, 0.000, 0.000, 13:41:47.180
169, 43339.34, 81001.31, -187500.02, -187500.02, -187500.02, -187500.02, -187500.02, 187500.00, 0.000, 0.000, 0.000, 13:41:47.180
170, 43740.30, 81423.13, -187500.02, -187500.02, -187500.02, -187500.02, -187500.02, 187500.00, 0.000, 0.000, 0.000, 13:41:47.180
171, 45938.06, 83743.47, -187500.02, -187500.02, -187500.02, -187500.02, -187500.02, 187500.00, 0.000, 0.000, 0.000, 13:41:47.181
172, 46276.80, 84087.44, -187500.02, -187500.02, -187500.02, -187500.02, -187500.02, 187500.00, 0.000, 0.000, 0.000, 13:41:47.181
173, 43585.30, 81273.20, -187500.02, -187500.02, -187500.02, -187500.02, -187500.02, 187500.00, 0.000, 0.000, 0.000, 13:41:47.181
174, 43486.77, 81168.91, -187500.02, -187500.02, -187500.02, -187500.02, -187500.02, 187500.00, 0.000, 0.000, 0.000, 13:41:47.182
175, 45529.21, 83319.37, -187500.02, -187500.02, -187500.02, -187500.02, -187500.02, 187500.00, 0.312, 0.968, -0.116, 13:41:47.182
176, 46554.05, 84381.95, -187500.02, -187500.02, -187500.02, -187500.02, -187500.02, 187500.00, 0.000, 0.000, 0.000, 13:41:47.182
177, 43954.32, 81638.05, -187500.02, -187500.02, -187500.02, -187500.02, -187500.02, 187500.00, 0.000, 0.000, 0.000, 13:41:47.183
178, 43309.95, 80937.83, -187500.02, -187500.02, -187500.02, -187500.02, -187500.02, 187500.00, 0.000, 0.000, 0.000, 13:41:47.183
179, 45117.42, 82850.91, -187500.02, -187500.02, -187500.02, -187500.02, -187500.02, 187500.00, 0.000, 0.000, 0.000, 13:41:47.183
180, 46706.29, 84534.32, -187500.02, -187500.02, -187500.02, -187500.02, -187500.02, 187500.00, 0.000, 0.000, 0.000, 13:41:47.184
181, 44422.55, 82133.92, -187500.02, -187500.02, -187500.02, -187500.02, -187500.02, 187500.00, 0.000, 0.000, 0.000, 13:41:47.184
182, 43199.19, 80846.57, -187500.02, -187500.02, -187500.02, -187500.02, -187500.02, 187500.00, 0.000, 0.000, 0.000, 13:41:47.184
183, 44695.48, 82436.31, -187500.02, -187500.02, -187500.02, -187500.02, -187500.02, 187500.00, 0.000, 0.000, 0.000, 13:41:47.185
184, 46676.97, 84539.80, -187500.02, -187500.02, -187500.02, -187500.02, -187500.02, 187500.00, 0.000, 0.000, 0.000, 13:41:47.185
185, 44935.41, 82677.24, -187500.02, -187500.02, -187500.02, -187500.02, -187500.02, 187500.00, 0.310, 0.964, -0.120, 13:41:47.185
186, 43166.25, 80792.01, -187500.02, -187500.02, -187500.02, -187500.02, -187500.02, 187500.00, 0.000, 0.000, 0.000, 13:41:47.186
187, 44323.71, 82024.48, -187500.02, -187500.02, -187500.02, -187500.02, -187500.02, 187500.00, 0.000, 0.000, 0.000, 13:41:47.186
188, 46516.73, 84350.72, -187500.02, -187500.02, -187500.02, -187500.02, -187500.02, 187500.00, 0.000, 0.000, 0.000, 13:41:47.187
189, 45444.52, 83205.59, -187500.02, -187500.02, -187500.02, -187500.02, -187500.02, 187500.00, 0.000, 0.000, 0.000, 13:41:47.187
190, 43217.86, 80835.59, -187500.02, -187500.02, -187500.02, -187500.02, -187500.02, 187500.00, 0.000, 0.000, 0.000, 13:41:47.187
191, 43976.34, 81658.05, -187500.02, -187500.02, -187500.02, -187500.02, -187500.02, 187500.00, 0.000, 0.000, 0.000, 13:41:47.188
192, 46212.54, 84044.12, -187500.02, -187500.02, -187500.02, -187500.02, -187500.02, 187500.00, 0.000, 0.000, 0.000, 13:41:47.188
193, 45928.96, 83721.65, -187500.02, -187500.02, -187500.02, -187500.02, -187500.02, 187500.00, 0.000, 0.000, 0.000, 13:41:47.189
194, 43387.08, 81018.90, -187500.02, -187500.02, -187500.02, -187500.02, -187500.02, 187500.00, 0.000, 0.000, 0.000, 13:41:47.189
195, 43705.06, 81357.62, -187500.02, -187500.02, -187500.02, -187500.02, -187500.02, 187500.00, 0.310, 0.960, -0.118, 13:41:47.189
196, 45854.80, 83664.56, -187500.02, -187500.02, -187500.02, -187500.02, -187500.02, 187500.00, 0.000, 0.000, 0.000, 13:41:47.190
197, 46312.34, 84133.28, -187500.02, -187500.02, -187500.02, -187500.02, -187500.02, 187500.00, 0.000, 0.000, 0.000, 13:41:47.190
198, 43667.24, 81313.88, -187500.02, -187500.02, -187500.02, -187500.02, -187500.02, 187500.00, 0.000, 0.000, 0.000, 13:41:47.190
199, 43477.11, 81112.09, -187500.02, -187500.02, -187500.02, -187500.02, -187500.02, 187500.00, 0.000, 0.000, 0.000, 13:41:47.191
200, 45476.66, 83242.30, -187500.02, -187500.02, -187500.02, -187500.02, -187500.02, 187500.00, 0.000, 0.000, 0.000, 13:41:47.191
201, 46596.68, 84404.68, -187500.02, -187500.02, -187500.02, -187500.02, -187500.02, 187500.00, 0.000, 0.000, 0.000, 13:41:47.191
202, 44046.82, 81711.70, -187500.02, -187500.02, -187500.02, -187500.02, -187500.02, 187500.00, 0.000, 0.000, 0.000, 13:41:47.192
203, 43326.64, 80938.55, -187500.02, -187500.02, -187500.02, -187500.02, -187500.02, 187500.00, 0.000, 0.000, 0.000, 13:41:47.192
204, 45075.00, 82794.16, -187500.02, -187500.02, -187500.02, -187500.02, -187500.02, 187500.00, 0.314, 0.958, -0.120, 13:41:47.192
205, 46698.87, 84534.25, -187500.02, -187500.02, -187500.02, -187500.02, -187500.02, 187500.00, 0.000, 0.000, 0.000, 13:41:47.193
206, 44513.92, 82221.76, -187500.02, -187500.02, -187500.02, -187500.02, -187500.02, 187500.00, 0.000, 0.000, 0.000, 13:41:47.193
207, 43221.99, 80839.06, -187500.02, -187500.02, -187500.02, -187500.02, -187500.02, 187500.00, 0.000, 0.000, 0.000, 13:41:47.194
208, 44657.35, 82352.16, -187500.02, -187500.02, -187500.02, -187500.02, -187500.02, 187500.00, 0.000, 0.000, 0.000, 13:41:47.194
209, 46662.26, 84463.77, -187500.02, -187500.02, -187500.02, -187500.02, -187500.02, 187500.00, 0.000, 0.000, 0.000, 13:41:47.194
210, 45036.93, 82751.90, -187500.02, -187500.02, -187500.02, -187500.02, -187500.02, 187500.00, 0.000, 0.000, 0.000, 13:41:47.626
211, 43198.05, 80821.85, -187500.02, -187500.02, -187500.02, -187500.02, -187500.02, 187500.00, 0.000, 0.000, 0.000, 13:41:47.626
212, 44279.79, 81973.03, -187500.02, -187500.02, -187500.02, -187500.02, -187500.02, 187500.00, 0.000, 0.000, 0.000, 13:41:47.627
213, 46462.86, 84288.85, -187500.02, -187500.02, -187500.02, -187500.02, -187500.02, 187500.00, 0.000, 0.000, 0.000, 13:41:47.627
214, 45528.38, 83287.49, -187500.02, -187500.02, -187500.02, -187500.02, -187500.02, 187500.00, 0.314, 0.964, -0.120, 13:41:47.627
215, 43287.95, 80883.72, -187500.02, -187500.02, -187500.02, -187500.02, -187500.02, 187500.00, 0.000, 0.000, 0.000, 13:41:47.627
216, 43973.10, 81611.24, -187500.02, -187500.02, -187500.02, -187500.02, -187500.02, 187500.00, 0.000, 0.000, 0.000, 13:41:47.628
217, 46180.16, 83967.86, -187500.02, -187500.02, -187500.02, -187500.02, -187500.02, 187500.00, 0.000, 0.000, 0.000, 13:41:47.628
218, 46007.89, 83783.09, -187500.02, -187500.02, -187500.02, -187500.02, -187500.02, 187500.00, 0.000, 0.000, 0.000, 13:41:47.628
219, 43450.43, 81084.05, -187500.02, -187500.02, -187500.02, -187500.02, -187500.02, 187500.00, 0.000, 0.000, 0.000, 13:41:47.629
220, 43681.12, 81329.81, -187500.02, -187500.02, -187500.02, -187500.02, -187500.02, 187500.00, 0.000, 0.000, 0.000, 13:41:47.629
221, 45792.15, 83575.05, -187500.02, -187500.02, -187500.02, -187500.02, -187500.02, 187500.00, 0.000, 0.000, 0.000, 13:41:47.629
222, 46358.52, 84158.25, -187500.02, -187500.02, -187500.02, -187500.02, -187500.02, 187500.00, 0.000, 0.000, 0.000, 13:41:47.629
223, 43737.42, 81380.59, -187500.02, -187500.02, -187500.02, -187500.02, -187500.02, 187500.00, 0.000, 0.000, 0.000, 13:41:47.630
224, 43467.84, 81106.52, -187500.02, -187500.02, -187500.02, -187500.02, -187500.02, 187500.00, 0.314, 0.966, -0.126, 13:41:47.630
225, 45392.79, 83155.05, -187500.02, -187500.02, -187500.02, -187500.02, -187500.02, 187500.00, 0.000, 0.000, 0.000, 13:41:47.630
226, 46603.03, 84416.75, -187500.02, -187500.02, -187500.02, -187500.02, -187500.02, 187500.00, 0.000, 0.000, 0.000, 13:41:47.631
227, 44124.00, 81803.18, -187500.02, -187500.02, -187500.02, -187500.02, -187500.02, 187500.00, 0.000, 0.000, 0.000, 13:41:47.631
228, 43304.92, 80929.30, -187500.02, -187500.02, -187500.02, -187500.02, -187500.02, 187500.00, 0.000, 0.000, 0.000, 13:41:47.631
229, 44974.59, 82708.29, -187500.02, -187500.02, -187500.02, -187500.02, -187500.02, 187500.00, 0.000, 0.000, 0.000, 13:41:47.632
230, 46688.81, 84511.23, -187500.02, -187500.02, -187500.02, -187500.02, -187500.02, 187500.00, 0.000, 0.000, 0.000, 13:41:47.633
231, 44619.63, 82311.28, -187500.02, -187500.02, -187500.02, -187500.02, -187500.02, 187500.00, 0.000, 0.000, 0.000, 13:41:47.633
232, 43237.30, 80854.66, -187500.02, -187500.02, -187500.02, -187500.02, -187500.02, 187500.00, 0.000, 0.000, 0.000, 13:41:47.633
233, 44583.41, 82294.07, -187500.02, -187500.02, -187500.02, -187500.02, -187500.02, 187500.00, 0.000, 0.000, 0.000, 13:41:47.634
234, 46603.30, 84430.23, -187500.02, -187500.02, -187500.02, -187500.02, -187500.02, 187500.00, 0.316, 0.966, -0.124, 13:41:47.634
235, 45102.80, 82836.01, -187500.02, -187500.02, -187500.02, -187500.02, -187500.02, 187500.00, 0.000, 0.000, 0.000, 13:41:47.635
236, 43206.12, 80826.90, -187500.02, -187500.02, -187500.02, -187500.02, -187500.02, 187500.00, 0.000, 0.000, 0.000, 13:41:47.635
237, 44224.40, 81900.79, -187500.02, -187500.02, -187500.02, -187500.02, -187500.02, 187500.00, 0.000, 0.000, 0.000, 13:41:47.635
238, 46409.84, 84216.81, -187500.02, -187500.02, -187500.02, -187500.02, -187500.02, 187500.00, 0.000, 0.000, 0.000, 13:41:47.636
239, 45609.40, 83364.18, -187500.02, -187500.02, -187500.02, -187500.02, -187500.02, 187500.00, 0.000, 0.000, 0.000, 13:41:47.636
240, 43295.06, 80933.27, -187500.02, -187500.02, -187500.02, -187500.02, -187500.02, 187500.00, 0.000, 0.000, 0.000, 13:41:47.636
241, 43905.04, 81589.74, -187500.02, -187500.02, -187500.02, -187500.02, -187500.02, 187500.00, 0.000, 0.000, 0.000, 13:41:47.638
242, 46093.83, 83907.57, -187500.02, -187500.02, -187500.02, -187500.02, -187500.02, 187500.00, 0.000, 0.000, 0.000, 13:41:47.638
243, 46057.96, 83843.54, -187500.02, -187500.02, -187500.02, -187500.02, -187500.02, 187500.00, 0.000, 0.000, 0.000, 13:41:47.638
244, 43517.57, 81135.11, -187500.02, -187500.02, -187500.02, -187500.02, -187500.02, 187500.00, 0.318, 0.958, -0.130, 13:41:47.639
245, 43669.50, 81301.63, -187500.02, -187500.02, -187500.02, -187500.02, -187500.02, 187500.00, 0.000, 0.000, 0.000, 13:41:47.639
246, 45727.53, 83495.85, -187500.02, -187500.02, -187500.02, -187500.02, -187500.02, 187500.00, 0.000, 0.000, 0.000, 13:41:47.639
247, 46387.27, 84187.38, -187500.02, -187500.02, -187500.02, -187500.02, -187500.02, 187500.00, 0.000, 0.000, 0.000, 13:41:47.640
248, 43782.11, 81447.45, -187500.02, -187500.02, -187500.02, -187500.02, -187500.02, 187500.00, 0.000, 0.000, 0.000, 13:41:47.640
249, 43421.48, 81070.84, -187500.02, -187500.02, -187500.02, -187500.02, -187500.02, 187500.00, 0.000, 0.000, 0.000, 13:41:47.641
250, 45311.86, 83069.07, -187500.02, -187500.02, -187500.02, -187500.02, -187500.02, 187500.00, 0.000, 0.000, 0.000, 13:41:47.641
251, 46628.33, 84448.28, -187500.02, -187500.02, -187500.02, -187500.02, -187500.02, 187500.00, 0.000, 0.000, 0.000, 13:41:47.641
252, 44209.89, 81893.73, -187500.02, -187500.02, -187500.02, -187500.02, -187500.02, 187500.00, 0.000, 0.000, 0.000, 13:41:47.642
253, 43287.30, 80917.47, -187500.02, -187500.02, -187500.02, -187500.02, -187500.02, 187500.00, 0.000, 0.000, 0.000, 13:41:47.644
254, 44890.13, 82617.99, -187500.02, -187500.02, -187500.02, -187500.02, -187500.02, 187500.00, 0.320, 0.958, -0.124, 13:41:47.645
255, 46657.03, 84472.80, -187500.02, -187500.02, -187500.02, -187500.02, -187500.02, 187500.00, 0.000, 0.000, 0.000, 13:41:47.645
0, 44686.93, 82390.72, -187500.02, -187500.02, -187500.02, -187500.02, -187500.02, 187500.00, 0.000, 0.000, 0.000, 13:41:47.645
1, 43228.29, 80859.80, -187500.02, -187500.02, -187500.02, -187500.02, -187500.02, 187500.00, 0.000, 0.000, 0.000, 13:41:47.646
2, 44531.74, 82240.67, -187500.02, -187500.02, -187500.02, -187500.02, -187500.02, 187500.00, 0.000, 0.000, 0.000, 13:41:47.646
3, 46582.91, 84406.87, -187500.02, -187500.02, -187500.02, -187500.02, -187500.02, 187500.00, 0.000, 0.000, 0.000, 13:41:47.646
4, 45200.21, 82940.48, -187500.02, -187500.02, -187500.02, -187500.02, -187500.02, 187500.00, 0.000, 0.000, 0.000, 13:41:47.647
5, 43229.79, 80865.37, -187500.02, -187500.02, -187500.02, -187500.02, -187500.02, 187500.00, 0.000, 0.000, 0.000, 13:41:47.647
6, 44171.32, 81862.19, -187500.02, -187500.02, -187500.02, -187500.02, -187500.02, 187500.00, 0.000, 0.000, 0.000, 13:41:47.647
7, 46344.33, 84155.19, -187500.02, -187500.02, -187500.02, -187500.02, -187500.02, 187500.00, 0.000, 0.000, 0.000, 13:41:47.648
8, 45682.54, 83442.21, -187500.02, -187500.02, -187500.02, -187500.02, -187500.02, 187500.00, 0.318, 0.962, -0.126, 13:41:47.648
9, 43352.35, 80971.88, -187500.02, -187500.02, -187500.02, -187500.02, -187500.02, 187500.00, 0.000, 0.000, 0.000, 13:41:47.648
10, 43898.58, 81546.29, -187500.02, -187500.02, -187500.02, -187500.02, -187500.02, 187500.00, 0.000, 0.000, 0.000, 13:41:47.649
11, 46040.32, 83835.27, -187500.02, -187500.02, -187500.02, -187500.02, -187500.02, 187500.00, 0.000, 0.000, 0.000, 13:41:47.649
12, 46113.48, 83912.09, -187500.02, -187500.02, -187500.02, -187500.02, -187500.02, 187500.00, 0.000, 0.000, 0.000, 13:41:47.649
13, 43546.88, 81197.67, -187500.02, -187500.02, -187500.02, -187500.02, -187500.02, 187500.00, 0.000, 0.000, 0.000, 13:41:47.650
14, 43607.04, 81271.48, -187500.02, -187500.02, -187500.02, -187500.02, -187500.02, 187500.00, 0.000, 0.000, 0.000, 13:41:47.650
15, 45637.99, 83431.88, -187500.02, -187500.02, -187500.02, -187500.02, -187500.02, 187500.00, 0.000, 0.000, 0.000, 13:41:47.650
16, 46447.28, 84255.93, -187500.02, -187500.02, -187500.02, -187500.02, -187500.02, 187500.00, 0.000, 0.000, 0.000, 13:41:47.651
17, 43878.46, 81544.28, -187500.02, -187500.02, -187500.02, -187500.02, -187500.02, 187500.00, 0.318, 0.958, -0.128, 13:41:47.651
18, 43429.91, 81077.73, -187500.02, -187500.02, -187500.02, -187500.02, -187500.02, 187500.00, 0.000, 0.000, 0.000, 13:41:47.652
19, 45249.05, 83010.53, -187500.02, -187500.02, -187500.02, -187500.02, -187500.02, 187500.00, 0.000, 0.000, 0.000, 13:41:47.652
20, 46638.86, 84457.54, -187500.02, -187500.02, -187500.02, -187500.02, -187500.02, 187500.00, 0.000, 0.000, 0.000, 13:41:47.652
21, 44309.38, 81987.70, -187500.02, -187500.02, -187500.02, -187500.02, -187500.02, 187500.00, 0.000, 0.000, 0.000, 13:41:47.653
22, 43285.67, 80931.44, -187500.02, -187500.02, -187500.02, -187500.02, -187500.02, 187500.00, 0.000, 0.000, 0.000, 13:41:47.653
23, 44824.77, 82580.17, -187500.02, -187500.02, -187500.02, -187500.02, -187500.02, 187500.00, 0.000, 0.000, 0.000, 13:41:47.653
24, 46667.78, 84498.87, -187500.02, -187500.02, -187500.02, -187500.02, -187500.02, 187500.00, 0.000, 0.000, 0.000, 13:41:47.654
25, 44784.02, 82487.50, -187500.02, -187500.02, -187500.02, -187500.02, -187500.02, 187500.00, 0.000, 0.000, 0.000, 13:41:47.654
26, 43234.11, 80851.30, -187500.02, -187500.02, -187500.02, -187500.02, -187500.02, 187500.00, 0.000, 0.000, 0.000, 13:41:47.655
27, 44455.81, 82166.53, -187500.02, -187500.02, -187500.02, -187500.02, -187500.02, 187500.00, 0.316, 0.958, -0.126, 13:41:47.655
28, 46537.45, 84367.30, -187500.02, -187500.02, -187500.02, -187500.02, -187500.02, 187500.00, 0.000, 0.000, 0.000, 13:41:47.656
29, 45277.61, 83023.90, -187500.02, -187500.02, -187500.02, -187500.02, -187500.02, 187500.00, 0.000, 0.000, 0.000, 13:41:47.678
30, 43234.26, 80873.05, -187500.02, -187500.02, -187500.02, -187500.02, -187500.02, 187500.00, 0.000, 0.000, 0.000, 13:41:47.678
31, 44112.80, 81805.88, -187500.02, -187500.02, -187500.02, -187500.02, -187500.02, 187500.00, 0.000, 0.000, 0.000, 13:41:47.679
32, 46282.17, 84102.44, -187500.02, -187500.02, -187500.02, -187500.02, -187500.02, 187500.00, 0.000, 0.000, 0.000, 13:41:47.679
33, 45742.22, 83525.60, -187500.02, -187500.02, -187500.02, -187500.02, -187500.02, 187500.00, 0.000, 0.000, 0.000, 13:41:47.679
34, 43350.38, 81006.32, -187500.02, -187500.02, -187500.02, -187500.02, -187500.02, 187500.00, 0.000, 0.000, 0.000, 13:41:47.679
35, 43798.49, 81486.43, -187500.02, -187500.02, -187500.02, -187500.02, -187500.02, 187500.00, 0.000, 0.000, 0.000, 13:41:47.680
36, 45929.68, 83752.77, -187500.02, -187500.02, -187500.02, -187500.02, -187500.02, 187500.00, 0.000, 0.000, 0.000, 13:41:47.680
37, 46155.68, 83968.88, -187500.02, -187500.02, -187500.02, -187500.02, -187500.02, 187500.00, 0.316, 0.960, -0.132, 13:41:47.680
38, 43594.19, 81261.24, -187500.02, -187500.02, -187500.02, -187500.02, -187500.02, 187500.00, 0.000, 0.000, 0.000, 13:41:47.681
39, 43575.26, 81238.38, -187500.02, -187500.02, -187500.02, -187500.02, -187500.02, 187500.00, 0.000, 0.000, 0.000, 13:41:47.681
40, 45562.35, 83346.70, -187500.02, -187500.02, -187500.02, -187500.02, -187500.02, 187500.00, 0.000, 0.000, 0.000, 13:41:47.681
41, 46456.00, 84285.74, -187500.02, -187500.02, -187500.02, -187500.02, -187500.02, 187500.00, 0.000, 0.000, 0.000, 13:41:47.682
42, 43926.90, 81615.05, -187500.02, -187500.02, -187500.02, -187500.02, -187500.02, 187500.00, 0.000, 0.000, 0.000, 13:41:47.682
43, 43387.71, 81042.30, -187500.02, -187500.02, -187500.02, -187500.02, -187500.02, 187500.00, 0.000, 0.000, 0.000, 13:41:47.683
44, 45156.54, 82909.39, -187500.02, -187500.02, -187500.02, -187500.02, -187500.02, 187500.00, 0.000, 0.000, 0.000, 13:41:47.683
45, 46627.86, 84456.60, -187500.02, -187500.02, -187500.02, -187500.02, -187500.02, 187500.00, 0.000, 0.000, 0.000, 13:41:47.683
46, 44367.74, 82075.18, -187500.02, -187500.02, -187500.02, -187500.02, -187500.02, 187500.00, 0.000, 0.000, 0.000, 13:41:47.684
47, 43278.65, 80921.00, -187500.02, -187500.02, -187500.02, -187500.02, -187500.02, 187500.00, 0.316, 0.962, -0.130, 13:41:47.684
48, 44756.42, 82506.81, -187500.02, -187500.02, -187500.02, -187500.02, -187500.02, 187500.00, 0.000, 0.000, 0.000, 13:41:47.686
49, 46615.52, 84472.18, -187500.02, -187500.02, -187500.02, -187500.02, -187500.02, 187500.00, 0.000, 0.000, 0.000, 13:41:47.686
50, 44848.19, 82586.97, -187500.02, -187500.02, -187500.02, -187500.02, -187500.02, 187500.00, 0.000, 0.000, 0.000, 13:41:47.686
51, 43216.56, 80851.94, -187500.02, -187500.02, -187500.02, -187500.02, -187500.02, 187500.00, 0.000, 0.000, 0.000, 13:41:47.687
52, 44390.21, 82098.29, -187500.02, -187500.02, -187500.02, -187500.02, -187500.02, 187500.00, 0.000, 0.000, 0.000, 13:41:47.687
53, 46490.04, 84330.60, -187500.02, -187500.02, -187500.02, -187500.02, -187500.02, 187500.00, 0.000, 0.000, 0.000, 13:41:47.687
54, 45352.80, 83114.69, -187500.02, -187500.02, -187500.02, -187500.02, -187500.02, 187500.00, 0.000, 0.000, 0.000, 13:41:47.688
55, 43247.81, 80885.51, -187500.02, -187500.02, -187500.02, -187500.02, -187500.02, 187500.00, 0.000, 0.000, 0.000, 13:41:47.688
56, 44038.37, 81739.43, -187500.02, -187500.02, -187500.02, -187500.02, -187500.02, 187500.00, 0.000, 0.000, 0.000, 13:41:47.689
57, 46209.75, 84048.52, -187500.02, -187500.02, -187500.02, -187500.02, -187500.02, 187500.00, 0.312, 0.966, -0.128, 13:41:47.689
58, 45817.88, 83607.66, -187500.02, -187500.02, -187500.02, -187500.02, -187500.02, 187500.00, 0.000, 0.000, 0.000, 13:41:47.690
59, 43392.58, 81041.21, -187500.02, -187500.02, -187500.02, -187500.02, -187500.02, 187500.00, 0.000, 0.000, 0.000, 13:41:47.690
60, 43761.43, 81451.68, -187500.02, -187500.02, -187500.02, -187500.02, -187500.02, 187500.00, 0.000, 0.000, 0.000, 13:41:47.690
61, 45887.70, 83705.96, -187500.02, -187500.02, -187500.02, -187500.02, -187500.02, 187500.00, 0.000, 0.000, 0.000, 13:41:47.691
62, 46229.22, 84034.53, -187500.02, -187500.02, -187500.02, -187500.02, -187500.02, 187500.00, 0.000, 0.000, 0.000, 13:41:47.691
63, 43652.82, 81288.77, -187500.02, -187500.02, -187500.02, -187500.02, -187500.02, 187500.00, 0.000, 0.000, 0.000, 13:41:47.692
64, 43565.67, 81181.40, -187500.02, -187500.02, -187500.02, -187500.02, -187500.02, 187500.00, 0.000, 0.000, 0.000, 13:41:47.692
65, 45533.47, 83286.73, -187500.02, -187500.02, -187500.02, -187500.02, -187500.02, 187500.00, 0.000, 0.000, 0.000, 13:41:47.692
66, 46526.54, 84340.75, -187500.02, -187500.02, -187500.02, -187500.02, -187500.02, 187500.00, 0.000, 0.000, 0.000, 13:41:47.693
67, 44014.14, 81686.59, -187500.02, -187500.02, -187500.02, -187500.02, -187500.02, 187500.00, 0.316, 0.970, -0.126, 13:41:47.693
68, 43375.77, 81011.95, -187500.02, -187500.02, -187500.02, -187500.02, -187500.02, 187500.00, 0.000, 0.000, 0.000, 13:41:47.693
69, 45095.85, 82851.45, -187500.02, -187500.02, -187500.02, -187500.02, -187500.02, 187500.00, 0.000, 0.000, 0.000, 13:41:47.694
70, 46635.37, 84474.03, -187500.02, -187500.02, -187500.02, -187500.02, -187500.02, 187500.00, 0.000, 0.000, 0.000, 13:41:47.694
71, 44425.07, 82134.52, -187500.02, -187500.02, -187500.02, -187500.02, -187500.02, 187500.00, 0.000, 0.000, 0.000, 13:41:47.694
72, 43241.37, 80875.90, -187500.02, -187500.02, -187500.02, -187500.02, -187500.02, 187500.00, 0.000, 0.000, 0.000, 13:41:47.695
73, 44720.45, 82433.81, -187500.02, -187500.02, -187500.02, -187500.02, -187500.02, 187500.00, 0.000, 0.000, 0.000, 13:41:47.695
74, 46647.84, 84458.37, -187500.02, -187500.02, -187500.02, -187500.02, -187500.02, 187500.00, 0.000, 0.000, 0.000, 13:41:48.108
75, 44951.43, 82658.34, -187500.02, -187500.02, -187500.02, -187500.02, -187500.02, 187500.00, 0.000, 0.000, 0.000, 13:41:48.108
76, 43217.43, 80835.88, -187500.02, -187500.02, -187500.02, -187500.02, -187500.02, 187500.00, 0.000, 0.000, 0.000, 13:41:48.109
77, 44326.59, 82036.66, -187500.02, -187500.02, -187500.02, -187500.02, -187500.02, 187500.00, 0.324, 0.964, -0.130, 13:41:48.109
78, 46461.96, 84296.02, -187500.02, -187500.02, -187500.02, -187500.02, -187500.02, 187500.00, 0.000, 0.000, 0.000, 13:41:48.109
79, 45443.57, 83202.40, -187500.02, -187500.02, -187500.02, -187500.02, -187500.02, 187500.00, 0.000, 0.000, 0.000, 13:41:48.110
80, 43275.68, 80909.94, -187500.02, -187500.02, -187500.02, -187500.02, -187500.02, 187500.00, 0.000, 0.000, 0.000, 13:41:48.110
81, 44027.41, 81696.00, -187500.02, -187500.02, -187500.02, -187500.02, -187500.02, 187500.00, 0.000, 0.000, 0.000, 13:41:48.110
82, 46211.49, 84019.00, -187500.02, -187500.02, -187500.02, -187500.02, -187500.02, 187500.00, 0.000, 0.000, 0.000, 13:41:48.110
83, 45910.04, 83709.20, -187500.02, -187500.02, -187500.02, -187500.02, -187500.02, 187500.00, 0.000, 0.000, 0.000, 13:41:48.111
84, 43413.34, 81087.08, -187500.02, -187500.02, -187500.02, -187500.02, -187500.02, 187500.00, 0.000, 0.000, 0.000, 13:41:48.111
85, 43739.23, 81422.13, -187500.02, -187500.02, -187500.02, -187500.02, -187500.02, 187500.00, 0.000, 0.000, 0.000, 13:41:48.111
86, 45855.56, 83655.40, -187500.02, -187500.02, -187500.02, -187500.02, -187500.02, 187500.00, 0.322, 0.962, -0.126, 13:41:48.111
87, 46295.51, 84105.79, -187500.02, -187500.02, -187500.02, -187500.02, -187500.02, 187500.00, 0.000, 0.000, 0.000, 13:41:48.112
88, 43686.10, 81343.98, -187500.02, -187500.02, -187500.02, -187500.02, -187500.02, 187500.00, 0.000, 0.000, 0.000, 13:41:48.112
89, 43498.15, 81151.60, -187500.02, -187500.02, -187500.02, -187500.02, -187500.02, 187500.00, 0.000, 0.000, 0.000, 13:41:48.112
90, 45438.70, 83220.39, -187500.02, -187500.02, -187500.02, -187500.02, -187500.02, 187500.00, 0.000, 0.000, 0.000, 13:41:48.112
91, 46557.48, 84371.22, -187500.02, -187500.02, -187500.02, -187500.02, -187500.02, 187500.00, 0.000, 0.000, 0.000, 13:41:48.113
92, 44080.79, 81742.27, -187500.02, -187500.02, -187500.02, -187500.02, -187500.02, 187500.00, 0.000, 0.000, 0.000, 13:41:48.113
93, 43346.18, 80972.97, -187500.02, -187500.02, -187500.02, -187500.02, -187500.02, 187500.00, 0.000, 0.000, 0.000, 13:41:48.113
94, 45040.39, 82783.59, -187500.02, -187500.02, -187500.02, -187500.02, -187500.02, 187500.00, 0.000, 0.000, 0.000, 13:41:48.114
95, 46665.55, 84502.51, -187500.02, -187500.02, -187500.02, -187500.02, -187500.02, 187500.00, 0.000, 0.000, 0.000, 13:41:48.114
96, 44517.01, 82223.03, -187500.02, -187500.02, -187500.02, -187500.02, -187500.02, 187500.00, 0.322, 0.962, -0.124, 13:41:48.114
97, 43237.73, 80858.46, -187500.02, -187500.02, -187500.02, -187500.02, -187500.02, 187500.00, 0.000, 0.000, 0.000, 13:41:48.115
98, 44646.51, 82356.63, -187500.02, -187500.02, -187500.02, -187500.02, -187500.02, 187500.00, 0.000, 0.000, 0.000, 13:41:48.115
99, 46632.60, 84463.69, -187500.02, -187500.02, -187500.02, -187500.02, -187500.02, 187500.00, 0.000, 0.000, 0.000, 13:41:48.115
100, 45041.00, 82785.47, -187500.02, -187500.02, -187500.02, -187500.02, -187500.02, 187500.00, 0.000, 0.000, 0.000, 13:41:48.116
101, 43226.35, 80849.56, -187500.02, -187500.02, -187500.02, -187500.02, -187500.02, 187500.00, 0.000, 0.000, 0.000, 13:41:48.116
102, 44293.18, 81973.84, -187500.02, -187500.02, -187500.02, -187500.02, -187500.02, 187500.00, 0.000, 0.000, 0.000, 13:41:48.117
103, 46468.54, 84278.21, -187500.02, -187500.02, -187500.02, -187500.02, -187500.02, 187500.00, 0.000, 0.000, 0.000, 13:41:48.117
104, 45566.62, 83315.45, -187500.02, -187500.02, -187500.02, -187500.02, -187500.02, 187500.00, 0.000, 0.000, 0.000, 13:41:48.117
105, 43317.81, 80926.90, -187500.02, -187500.02, -187500.02, -187500.02, -187500.02, 187500.00, 0.000, 0.000, 0.000, 13:41:48.118
106, 43971.00, 81638.09, -187500.02, -187500.02, -187500.02, -187500.02, -187500.02, 187500.00, 0.322, 0.962, -0.128, 13:41:48.118
107, 46160.29, 83984.40, -187500.02, -187500.02, -187500.02, -187500.02, -187500.02, 187500.00, 0.000, 0.000, 0.000, 13:41:48.118
108, 46010.91, 83801.76, -187500.02, -187500.02, -187500.02, -187500.02, -187500.02, 187500.00, 0.000, 0.000, 0.000, 13:41:48.119
109, 43494.13, 81117.00, -187500.02, -187500.02, -187500.02, -187500.02, -187500.02, 187500.00, 0.000, 0.000, 0.000, 13:41:48.119
110, 43717.20, 81348.91, -187500.02, -187500.02, -187500.02, -187500.02, -187500.02, 187500.00, 0.000, 0.000, 0.000, 13:41:48.119
111, 45791.95, 83575.20, -187500.02, -187500.02, -187500.02, -187500.02, -187500.02, 187500.00, 0.000, 0.000, 0.000, 13:41:48.120
112, 46363.89, 84163.32, -187500.02, -187500.02, -187500.02, -187500.02, -187500.02, 187500.00, 0.000, 0.000, 0.000, 13:41:48.121
113, 43782.28, 81421.32, -187500.02, -187500.02, -187500.02, -187500.02, -187500.02, 187500.00, 0.000, 0.000, 0.000, 13:41:48.121
114, 43503.36, 81135.89, -187500.02, -187500.02, -187500.02, -187500.02, -187500.02, 187500.00, 0.000, 0.000, 0.000, 13:41:48.121
115, 45397.55, 83154.99, -187500.02, -187500.02, -187500.02, -187500.02, -187500.02, 187500.00, 0.000, 0.000, 0.000, 13:41:48.122
116, 46578.55, 84400.03, -187500.02, -187500.02, -187500.02, -187500.02, -187500.02, 187500.00, 0.326, 0.962, -0.132, 13:41:48.122
117, 44128.06, 81815.30, -187500.02, -187500.02, -187500.02, -187500.02, -187500.02, 187500.00, 0.000, 0.000, 0.000, 13:41:48.122
118, 43348.55, 80974.29, -187500.02, -187500.02, -187500.02, -187500.02, -187500.02, 187500.00, 0.000, 0.000, 0.000, 13:41:48.123
119, 45003.14, 82729.48, -187500.02, -187500.02, -187500.02, -187500.02, -187500.02, 187500.00, 0.000, 0.000, 0.000, 13:41:48.123
120, 46681.91, 84493.86, -187500.02, -187500.02, -187500.02, -187500.02, -187500.02, 187500.00, 0.000, 0.000, 0.000, 13:41:48.123
121, 44640.70, 82324.29, -187500.02, -187500.02, -187500.02, -187500.02, -187500.02, 187500.00, 0.000, 0.000, 0.000, 13:41:48.124
122, 43273.18, 80882.18, -187500.02, -187500.02, -187500.02, -187500.02, -187500.02, 187500.00, 0.000, 0.000, 0.000, 13:41:48.124
123, 44606.68, 82309.96, -187500.02, -187500.02, -187500.02, -187500.02, -187500.02, 187500.00, 0.000, 0.000, 0.000, 13:41:48.125
124, 46614.00, 84439.95, -187500.02, -187500.02, -187500.02, -187500.02, -187500.02, 187500.00, 0.000, 0.000, 0.000, 13:41:48.125
125, 45120.64, 82863.48, -187500.02, -187500.02, -187500.02, -187500.02, -187500.02, 187500.00, 0.000, 0.000, 0.000, 13:41:48.125
126, 43238.58, 80867.00, -187500.02, -187500.02, -187500.02, -187500.02, -187500.02, 187500.00, 0.320, 0.958, -0.126, 13:41:48.126
127, 44241.21, 81930.61, -187500.02, -187500.02, -187500.02, -187500.02, -187500.02, 187500.00, 0.000, 0.000, 0.000, 13:41:48.126
128, 46391.29, 84225.10, -187500.02, -187500.02, -187500.02, -187500.02, -187500.02, 187500.00, 0.000, 0.000, 0.000, 13:41:48.126
129, 45598.88, 83379.76, -187500.02, -187500.02, -187500.02, -187500.02, -187500.02, 187500.00, 0.000, 0.000, 0.000, 13:41:48.126
130, 43325.03, 80944.83, -187500.02, -187500.02, -187500.02, -187500.02, -187500.02, 187500.00, 0.000, 0.000, 0.000, 13:41:48.127
131, 43940.29, 81585.92, -187500.02, -187500.02, -187500.02, -187500.02, -187500.02, 187500.00, 0.000, 0.000, 0.000, 13:41:48.127
132, 46098.97, 83900.69, -187500.02, -187500.02, -187500.02, -187500.02, -187500.02, 187500.00, 0.000, 0.000, 0.000, 13:41:48.128
133, 46076.29, 83860.44, -187500.02, -187500.02, -187500.02, -187500.02, -187500.02, 187500.00, 0.000, 0.000, 0.000, 13:41:48.128
134, 43541.51, 81167.77, -187500.02, -187500.02, -187500.02, -187500.02, -187500.02, 187500.00, 0.000, 0.000, 0.000, 13:41:48.128
135, 43677.63, 81318.51, -187500.02, -187500.02, -187500.02, -187500.02, -187500.02, 187500.00, 0.000, 0.000, 0.000, 13:41:48.130
136, 45724.58, 83505.47, -187500.02, -187500.02, -187500.02, -187500.02, -187500.02, 187500.00, 0.324, 0.960, -0.124, 13:41:48.131
137, 46399.11, 84204.54, -187500.02, -187500.02, -187500.02, -187500.02, -187500.02, 187500.00, 0.000, 0.000, 0.000, 13:41:48.131
138, 43824.64, 81471.95, -187500.02, -187500.02, -187500.02, -187500.02, -187500.02, 187500.00, 0.000, 0.000, 0.000, 13:41:48.131
139, 43479.04, 81091.26, -187500.02, -187500.02, -187500.02, -187500.02, -187500.02, 187500.00, 0.000, 0.000, 0.000, 13:41:48.132
140, 45336.89, 83078.05, -187500.02, -187500.02, -187500.02, -187500.02, -187500.02, 187500.00, 0.000, 0.000, 0.000, 13:41:48.132
141, 46624.46, 84439.91, -187500.02, -187500.02, -187500.02, -187500.02, -187500.02, 187500.00, 0.000, 0.000, 0.000, 13:41:48.132
142, 44229.74, 81904.57, -187500.02, -187500.02, -187500.02, -187500.02, -187500.02, 187500.00, 0.000, 0.000, 0.000, 13:41:48.132
143, 43327.31, 80937.92, -187500.02, -187500.02, -187500.02, -187500.02, -187500.02, 187500.00, 0.000, 0.000, 0.000, 13:41:48.133
144, 44922.00, 82643.07, -187500.02, -187500.02, -187500.02, -187500.02, -187500.02, 187500.00, 0.000, 0.000, 0.000, 13:41:48.133
145, 46676.30, 84504.92, -187500.02, -187500.02, -187500.02, -187500.02, -187500.02, 187500.00, 0.318, 0.960, -0.122, 13:41:48.133
146, 44726.15, 82418.75, -187500.02, -187500.02, -187500.02, -187500.02, -187500.02, 187500.00, 0.000, 0.000, 0.000, 13:41:48.134
147, 43271.32, 80873.21, -187500.02, -187500.02, -187500.02, -187500.02, -187500.02, 187500.00, 0.000, 0.000, 0.000, 13:41:48.134
148, 44560.05, 82249.74, -187500.02, -187500.02, -187500.02, -187500.02, -187500.02, 187500.00, 0.000, 0.000, 0.000, 13:41:48.134
149, 46605.69, 84416.34, -187500.02, -187500.02, -187500.02, -187500.02, -187500.02, 187500.00, 0.000, 0.000, 0.000, 13:41:48.134
150, 45233.29, 82949.89, -187500.02, -187500.02, -187500.02, -187500.02, -187500.02, 187500.00, 0.000, 0.000, 0.000, 13:41:48.135
151, 43263.52, 80868.79, -187500.02, -187500.02, -187500.02, -187500.02, -187500.02, 187500.00, 0.000, 0.000, 0.000, 13:41:48.135
152, 44186.40, 81866.14, -187500.02, -187500.02, -187500.02, -187500.02, -187500.02, 187500.00, 0.000, 0.000, 0.000, 13:41:48.135
153, 46347.32, 84177.59, -187500.02, -187500.02, -187500.02, -187500.02, -187500.02, 187500.00, 0.000, 0.000, 0.000, 13:41:48.136
154, 45708.71, 83478.82, -187500.02, -187500.02, -187500.02, -187500.02, -187500.02, 187500.00, 0.000, 0.000, 0.000, 13:41:48.136
155, 43371.10, 80987.54, -187500.02, -187500.02, -187500.02, -187500.02, -187500.02, 187500.00, 0.324, 0.962, -0.122, 13:41:48.136
