%OpenBCI Raw EEG Data
%
%Sample Rate = 250.0 Hz
%First Column = SampleIndex
%Last Column = Timestamp 
%Other Columns = EEG data in microvolts followed by Accel Data (in G) interleaved with Aux Data
0, 0.00, 0.00, 0.00, 0.00, 0.00, 0.00, 0.00, 0.00, 0.306, 0.972, -0.108, 13:46:22.439
1, 51415.40, 86600.69, -187500.02, -187500.02, -187500.02, -187500.02, -187500.02, 187500.00, 0.000, 0.000, 0.000, 13:46:22.926
2, 51291.20, 86609.68, -187500.02, -187500.02, -187500.02, -187500.02, -187500.02, 187500.00, 0.000, 0.000, 0.000, 13:46:22.926
3, 51165.91, 86549.75, -187500.02, -187500.02, -187500.02, -187500.02, -187500.02, 187500.00, 0.000, 0.000, 0.000, 13:46:22.927
4, 51158.25, 86477.94, -187500.02, -187500.02, -187500.02, -187500.02, -187500.02, 187500.00, 0.000, 0.000, 0.000, 13:46:22.927
5, 51398.53, 86593.36, -187500.02, -187500.02, -187500.02, -187500.02, -187500.02, 187500.00, 0.000, 0.000, 0.000, 13:46:22.927
6, 51319.18, 86619.96, -187500.02, -187500.02, -187500.02, -187500.02, -187500.02, 187500.00, 0.000, 0.000, 0.000, 13:46:22.927
7, 51142.98, 86539.89, -187500.02, -187500.02, -187500.02, -187500.02, -187500.02, 187500.00, 0.000, 0.000, 0.000, 13:46:22.928
8, 51141.28, 86471.09, -187500.02, -187500.02, -187500.02, -187500.02, -187500.02, 187500.00, 0.318, 0.960, -0.104, 13:46:22.928
9, 51357.85, 86571.59, -187500.02, -187500.02, -187500.02, -187500.02, -187500.02, 187500.00, 0.000, 0.000, 0.000, 13:46:22.928
10, 51379.48, 86633.88, -187500.02, -187500.02, -187500.02, -187500.02, -187500.02, 187500.00, 0.000, 0.000, 0.000, 13:46:22.928
11, 51122.37, 86534.84, -187500.02, -187500.02, -187500.02, -187500.02, -187500.02, 187500.00, 0.000, 0.000, 0.000, 13:46:22.929
12, 51054.49, 86459.02, -187500.02, -187500.02, -187500.02, -187500.02, -187500.02, 187500.00, 0.000, 0.000, 0.000, 13:46:22.929
13, 51297.57, 86545.46, -187500.02, -187500.02, -187500.02, -187500.02, -187500.02, 187500.00, 0.000, 0.000, 0.000, 13:46:22.929
14, 51455.97, 86649.51, -187500.02, -187500.02, -187500.02, -187500.02, -187500.02, 187500.00, 0.000, 0.000, 0.000, 13:46:22.930
15, 51114.75, 86509.48, -187500.02, -187500.02, -187500.02, -187500.02, -187500.02, 187500.00, 0.000, 0.000, 0.000, 13:46:22.930
16, 51074.81, 86456.95, -187500.02, -187500.02, -187500.02, -187500.02, -187500.02, 187500.00, 0.000, 0.000, 0.000, 13:46:22.930
17, 51314.51, 86556.57, -187500.02, -187500.02, -187500.02, -187500.02, -187500.02, 187500.00, 0.316, 0.960, -0.112, 13:46:22.931
18, 51530.69, 86708.52, -187500.02, -187500.02, -187500.02, -187500.02, -187500.02, 187500.00, 0.000, 0.000, 0.000, 13:46:22.931
19, 51103.69, 86519.66, -187500.02, -187500.02, -187500.02, -187500.02, -187500.02, 187500.00, 0.000, 0.000, 0.000, 13:46:22.931
20, 51021.25, 86452.88, -187500.02, -187500.02, -187500.02, -187500.02, -187500.02, 187500.00, 0.000, 0.000, 0.000, 13:46:22.932
21, 51282.07, 86544.03, -187500.02, -187500.02, -187500.02, -187500.02, -187500.02, 187500.00, 0.000, 0.000, 0.000, 13:46:22.932
22, 51579.66, 86744.66, -187500.02, -187500.02, -187500.02, -187500.02, -187500.02, 187500.00, 0.000, 0.000, 0.000, 13:46:22.932
23, 51185.58, 86541.93, -187500.02, -187500.02, -187500.02, -187500.02, -187500.02, 187500.00, 0.000, 0.000, 0.000, 13:46:22.932
24, 51006.52, 86421.20, -187500.02, -187500.02, -187500.02, -187500.02, -187500.02, 187500.00, 0.000, 0.000, 0.000, 13:46:22.933
25, 51192.40, 86501.45, -187500.02, -187500.02, -187500.02, -187500.02, -187500.02, 187500.00, 0.000, 0.000, 0.000, 13:46:22.933
26, 51619.03, 86770.50, -187500.02, -187500.02, -187500.02, -187500.02, -187500.02, 187500.00, 0.000, 0.000, 0.000, 13:46:22.933
27, 51230.60, 86575.59, -187500.02, -187500.02, -187500.02, -187500.02, -187500.02, 187500.00, 0.324, 0.956, -0.112, 13:46:22.934
28, 50946.55, 86391.88, -187500.02, -187500.02, -187500.02, -187500.02, -187500.02, 187500.00, 0.000, 0.000, 0.000, 13:46:22.934
29, 51145.39, 86478.77, -187500.02, -187500.02, -187500.02, -187500.02, -187500.02, 187500.00, 0.000, 0.000, 0.000, 13:46:22.934
30, 51635.07, 86796.88, -187500.02, -187500.02, -187500.02, -187500.02, -187500.02, 187500.00, 0.000, 0.000, 0.000, 13:46:22.934
31, 51395.35, 86663.61, -187500.02, -187500.02, -187500.02, -187500.02, -187500.02, 187500.00, 0.000, 0.000, 0.000, 13:46:22.935
32, 50968.37, 86383.88, -187500.02, -187500.02, -187500.02, -187500.02, -187500.02, 187500.00, 0.000, 0.000, 0.000, 13:46:22.935
33, 51082.74, 86449.34, -187500.02, -187500.02, -187500.02, -187500.02, -187500.02, 187500.00, 0.000, 0.000, 0.000, 13:46:22.936
34, 51581.66, 86802.08, -187500.02, -187500.02, -187500.02, -187500.02, -187500.02, 187500.00, 0.000, 0.000, 0.000, 13:46:22.936
35, 51478.50, 86748.37, -187500.02, -187500.02, -187500.02, -187500.02, -187500.02, 187500.00, 0.000, 0.000, 0.000, 13:46:22.936
36, 50921.72, 86363.07, -187500.02, -187500.02, -187500.02, -187500.02, -187500.02, 187500.00, 0.000, 0.000, 0.000, 13:46:22.937
37, 50954.64, 86373.95, -187500.02, -187500.02, -187500.02, -187500.02, -187500.02, 187500.00, 0.318, 0.968, -0.100, 13:46:22.937
38, 51462.72, 86718.28, -187500.02, -187500.02, -187500.02, -187500.02, -187500.02, 187500.00, 0.000, 0.000, 0.000, 13:46:22.938
39, 51557.52, 86795.80, -187500.02, -187500.02, -187500.02, -187500.02, -187500.02, 187500.00, 0.000, 0.000, 0.000, 13:46:22.938
40, 50914.23, 86344.43, -187500.02, -187500.02, -187500.02, -187500.02, -187500.02, 187500.00, 0.000, 0.000, 0.000, 13:46:22.938
41, 50909.18, 86310.97, -187500.02, -187500.02, -187500.02, -187500.02, -187500.02, 187500.00, 0.000, 0.000, 0.000, 13:46:22.939
42, 51385.86, 86645.04, -187500.02, -187500.02, -187500.02, -187500.02, -187500.02, 187500.00, 0.000, 0.000, 0.000, 13:46:22.939
43, 51676.25, 86855.16, -187500.02, -187500.02, -187500.02, -187500.02, -187500.02, 187500.00, 0.000, 0.000, 0.000, 13:46:22.939
44, 51004.11, 86376.37, -187500.02, -187500.02, -187500.02, -187500.02, -187500.02, 187500.00, 0.000, 0.000, 0.000, 13:46:22.940
45, 50891.95, 86271.18, -187500.02, -187500.02, -187500.02, -187500.02, -187500.02, 187500.00, 0.000, 0.000, 0.000, 13:46:22.940
46, 51320.48, 86566.96, -187500.02, -187500.02, -187500.02, -187500.02, -187500.02, 187500.00, 0.000, 0.000, 0.000, 13:46:22.940
47, 51783.47, 86903.78, -187500.02, -187500.02, -187500.02, -187500.02, -187500.02, 187500.00, 0.340, 0.964, -0.110, 13:46:22.941
48, 51105.72, 86439.20, -187500.02, -187500.02, -187500.02, -187500.02, -187500.02, 187500.00, 0.000, 0.000, 0.000, 13:46:22.941
49, 50782.85, 86220.27, -187500.02, -187500.02, -187500.02, -187500.02, -187500.02, 187500.00, 0.000, 0.000, 0.000, 13:46:22.941
50, 51150.89, 86469.38, -187500.02, -187500.02, -187500.02, -187500.02, -187500.02, 187500.00, 0.000, 0.000, 0.000, 13:46:22.942
51, 51778.91, 86917.91, -187500.02, -187500.02, -187500.02, -187500.02, -187500.02, 187500.00, 0.000, 0.000, 0.000, 13:46:22.942
52, 51271.01, 86549.59, -187500.02, -187500.02, -187500.02, -187500.02, -187500.02, 187500.00, 0.000, 0.000, 0.000, 13:46:22.942
53, 50792.48, 86204.35, -187500.02, -187500.02, -187500.02, -187500.02, -187500.02, 187500.00, 0.000, 0.000, 0.000, 13:46:22.942
54, 51087.73, 86394.88, -187500.02, -187500.02, -187500.02, -187500.02, -187500.02, 187500.00, 0.000, 0.000, 0.000, 13:46:22.943
55, 51774.86, 86896.07, -187500.02, -187500.02, -187500.02, -187500.02, -187500.02, 187500.00, 0.000, 0.000, 0.000, 13:46:22.943
56, 51407.87, 86640.99, -187500.02, -187500.02, -187500.02, -187500.02, -187500.02, 187500.00, 0.000, 0.000, 0.000, 13:46:22.943
57, 50791.63, 86181.71, -187500.02, -187500.02, -187500.02, -187500.02, -187500.02, 187500.00, 0.322, 0.966, -0.102, 13:46:22.944
58, 51017.54, 86332.41, -187500.02, -187500.02, -187500.02, -187500.02, -187500.02, 187500.00, 0.000, 0.000, 0.000, 13:46:22.944
59, 51695.89, 86852.48, -187500.02, -187500.02, -187500.02, -187500.02, -187500.02, 187500.00, 0.000, 0.000, 0.000, 13:46:22.944
60, 51577.05, 86762.23, -187500.02, -187500.02, -187500.02, -187500.02, -187500.02, 187500.00, 0.000, 0.000, 0.000, 13:46:22.945
61, 50849.82, 86209.02, -187500.02, -187500.02, -187500.02, -187500.02, -187500.02, 187500.00, 0.000, 0.000, 0.000, 13:46:22.945
62, 50936.34, 86276.48, -187500.02, -187500.02, -187500.02, -187500.02, -187500.02, 187500.00, 0.000, 0.000, 0.000, 13:46:22.946
63, 51572.31, 86779.62, -187500.02, -187500.02, -187500.02, -187500.02, -187500.02, 187500.00, 0.000, 0.000, 0.000, 13:46:22.946
64, 51693.73, 86879.23, -187500.02, -187500.02, -187500.02, -187500.02, -187500.02, 187500.00, 0.000, 0.000, 0.000, 13:46:22.948
65, 50889.76, 86258.24, -187500.02, -187500.02, -187500.02, -187500.02, -187500.02, 187500.00, 0.000, 0.000, 0.000, 13:46:22.948
66, 50862.24, 86228.67, -187500.02, -187500.02, -187500.02, -187500.02, -187500.02, 187500.00, 0.000, 0.000, 0.000, 13:46:22.949
67, 51453.45, 86688.40, -187500.02, -187500.02, -187500.02, -187500.02, -187500.02, 187500.00, 0.314, 0.974, -0.100, 13:46:22.949
68, 51822.20, 86970.03, -187500.02, -187500.02, -187500.02, -187500.02, -187500.02, 187500.00, 0.000, 0.000, 0.000, 13:46:22.949
69, 50970.25, 86333.95, -187500.02, -187500.02, -187500.02, -187500.02, -187500.02, 187500.00, 0.000, 0.000, 0.000, 13:46:22.949
70, 50779.45, 86194.94, -187500.02, -187500.02, -187500.02, -187500.02, -187500.02, 187500.00, 0.000, 0.000, 0.000, 13:46:22.950
71, 51321.01, 86597.27, -187500.02, -187500.02, -187500.02, -187500.02, -187500.02, 187500.00, 0.000, 0.000, 0.000, 13:46:22.950
72, 51905.35, 87024.86, -187500.02, -187500.02, -187500.02, -187500.02, -187500.02, 187500.00, 0.000, 0.000, 0.000, 13:46:22.950
73, 51089.13, 86438.17, -187500.02, -187500.02, -187500.02, -187500.02, -187500.02, 187500.00, 0.000, 0.000, 0.000, 13:46:22.951
74, 50702.23, 86146.26, -187500.02, -187500.02, -187500.02, -187500.02, -187500.02, 187500.00, 0.000, 0.000, 0.000, 13:46:22.951
75, 51201.96, 86488.30, -187500.02, -187500.02, -187500.02, -187500.02, -187500.02, 187500.00, 0.000, 0.000, 0.000, 13:46:22.951
76, 51993.57, 87048.22, -187500.02, -187500.02, -187500.02, -187500.02, -187500.02, 187500.00, 0.000, 0.000, 0.000, 13:46:22.952
77, 51280.29, 86580.02, -187500.02, -187500.02, -187500.02, -187500.02, -187500.02, 187500.00, 0.312, 0.968, -0.092, 13:46:22.952
78, 50579.40, 86132.49, -187500.02, -187500.02, -187500.02, -187500.02, -187500.02, 187500.00, 0.000, 0.000, 0.000, 13:46:22.952
79, 50991.66, 86391.39, -187500.02, -187500.02, -187500.02, -187500.02, -187500.02, 187500.00, 0.000, 0.000, 0.000, 13:46:22.953
80, 52010.47, 87032.51, -187500.02, -187500.02, -187500.02, -187500.02, -187500.02, 187500.00, 0.000, 0.000, 0.000, 13:46:22.953
81, 51553.58, 86744.30, -187500.02, -187500.02, -187500.02, -187500.02, -187500.02, 187500.00, 0.000, 0.000, 0.000, 13:46:22.953
82, 50582.46, 86130.12, -187500.02, -187500.02, -187500.02, -187500.02, -187500.02, 187500.00, 0.000, 0.000, 0.000, 13:46:22.954
83, 50872.30, 86307.50, -187500.02, -187500.02, -187500.02, -187500.02, -187500.02, 187500.00, 0.000, 0.000, 0.000, 13:46:22.954
84, 51957.86, 86993.21, -187500.02, -187500.02, -187500.02, -187500.02, -187500.02, 187500.00, 0.000, 0.000, 0.000, 13:46:22.954
85, 51806.34, 86897.45, -187500.02, -187500.02, -187500.02, -187500.02, -187500.02, 187500.00, 0.000, 0.000, 0.000, 13:46:22.955
86, 50531.95, 86106.02, -187500.02, -187500.02, -187500.02, -187500.02, -187500.02, 187500.00, 0.308, 0.976, -0.088, 13:46:22.955
87, 50675.11, 86195.14, -187500.02, -187500.02, -187500.02, -187500.02, -187500.02, 187500.00, 0.000, 0.000, 0.000, 13:46:22.956
88, 51833.70, 86914.89, -187500.02, -187500.02, -187500.02, -187500.02, -187500.02, 187500.00, 0.000, 0.000, 0.000, 13:46:22.956
89, 52103.30, 87074.52, -187500.02, -187500.02, -187500.02, -187500.02, -187500.02, 187500.00, 0.000, 0.000, 0.000, 13:46:22.956
90, 50582.98, 86143.04, -187500.02, -187500.02, -187500.02, -187500.02, -187500.02, 187500.00, 0.000, 0.000, 0.000, 13:46:22.957
91, 50460.63, 86073.08, -187500.02, -187500.02, -187500.02, -187500.02, -187500.02, 187500.00, 0.000, 0.000, 0.000, 13:46:22.957
92, 51646.14, 86801.61, -187500.02, -187500.02, -187500.02, -187500.02, -187500.02, 187500.00, 0.000, 0.000, 0.000, 13:46:22.960
93, 52369.49, 87256.31, -187500.02, -187500.02, -187500.02, -187500.02, -187500.02, 187500.00, 0.000, 0.000, 0.000, 13:46:22.961
94, 50753.19, 86239.66, -187500.02, -187500.02, -187500.02, -187500.02, -187500.02, 187500.00, 0.000, 0.000, 0.000, 13:46:22.961
95, 50304.19, 85971.71, -187500.02, -187500.02, -187500.02, -187500.02, -187500.02, 187500.00, 0.000, 0.000, 0.000, 13:46:22.961
96, 51362.21, 86648.97, -187500.02, -187500.02, -187500.02, -187500.02, -187500.02, 187500.00, 0.306, 0.970, -0.086, 13:46:22.962
97, 52482.99, 87361.14, -187500.02, -187500.02, -187500.02, -187500.02, -187500.02, 187500.00, 0.000, 0.000, 0.000, 13:46:22.962
98, 51017.88, 86386.56, -187500.02, -187500.02, -187500.02, -187500.02, -187500.02, 187500.00, 0.000, 0.000, 0.000, 13:46:22.962
99, 50216.23, 85859.91, -187500.02, -187500.02, -187500.02, -187500.02, -187500.02, 187500.00, 0.000, 0.000, 0.000, 13:46:22.963
100, 51133.91, 86462.42, -187500.02, -187500.02, -187500.02, -187500.02, -187500.02, 187500.00, 0.000, 0.000, 0.000, 13:46:22.963
101, 52492.94, 87402.16, -187500.02, -187500.02, -187500.02, -187500.02, -187500.02, 187500.00, 0.000, 0.000, 0.000, 13:46:22.963
102, 51352.77, 86605.56, -187500.02, -187500.02, -187500.02, -187500.02, -187500.02, 187500.00, 0.000, 0.000, 0.000, 13:46:22.964
103, 50200.65, 85803.43, -187500.02, -187500.02, -187500.02, -187500.02, -187500.02, 187500.00, 0.000, 0.000, 0.000, 13:46:22.964
104, 50901.47, 86298.54, -187500.02, -187500.02, -187500.02, -187500.02, -187500.02, 187500.00, 0.000, 0.000, 0.000, 13:46:22.965
105, 52412.22, 87381.84, -187500.02, -187500.02, -187500.02, -187500.02, -187500.02, 187500.00, 0.000, 0.000, 0.000, 13:46:22.965
106, 51712.05, 86868.87, -187500.02, -187500.02, -187500.02, -187500.02, -187500.02, 187500.00, 0.310, 0.972, -0.090, 13:46:22.966
107, 50195.94, 85781.95, -187500.02, -187500.02, -187500.02, -187500.02, -187500.02, 187500.00, 0.000, 0.000, 0.000, 13:46:22.966
108, 50681.75, 86128.29, -187500.02, -187500.02, -187500.02, -187500.02, -187500.02, 187500.00, 0.000, 0.000, 0.000, 13:46:22.966
109, 52246.87, 87281.37, -187500.02, -187500.02, -187500.02, -187500.02, -187500.02, 187500.00, 0.000, 0.000, 0.000, 13:46:22.967
110, 52088.93, 87142.36, -187500.02, -187500.02, -187500.02, -187500.02, -187500.02, 187500.00, 0.000, 0.000, 0.000, 13:46:22.967
111, 50317.30, 85821.02, -187500.02, -187500.02, -187500.02, -187500.02, -187500.02, 187500.00, 0.000, 0.000, 0.000, 13:46:22.968
112, 50481.55, 85955.66, -187500.02, -187500.02, -187500.02, -187500.02, -187500.02, 187500.00, 0.000, 0.000, 0.000, 13:46:22.968
113, 51948.25, 87086.39, -187500.02, -187500.02, -187500.02, -187500.02, -187500.02, 187500.00, 0.000, 0.000, 0.000, 13:46:22.968
114, 52327.45, 87372.77, -187500.02, -187500.02, -187500.02, -187500.02, -187500.02, 187500.00, 0.000, 0.000, 0.000, 13:46:22.969
115, 50487.25, 85943.55, -187500.02, -187500.02, -187500.02, -187500.02, -187500.02, 187500.00, 0.000, 0.000, 0.000, 13:46:22.969
116, 50341.27, 85828.93, -187500.02, -187500.02, -187500.02, -187500.02, -187500.02, 187500.00, 0.308, 0.972, -0.096, 13:46:22.969
117, 51655.57, 86880.98, -187500.02, -187500.02, -187500.02, -187500.02, -187500.02, 187500.00, 0.000, 0.000, 0.000, 13:46:22.970
118, 52514.06, 87544.76, -187500.02, -187500.02, -187500.02, -187500.02, -187500.02, 187500.00, 0.000, 0.000, 0.000, 13:46:22.970
119, 50762.66, 86130.01, -187500.02, -187500.02, -187500.02, -187500.02, -187500.02, 187500.00, 0.000, 0.000, 0.000, 13:46:22.970
120, 50244.11, 85731.61, -187500.02, -187500.02, -187500.02, -187500.02, -187500.02, 187500.00, 0.000, 0.000, 0.000, 13:46:22.970
121, 51372.06, 86667.84, -187500.02, -187500.02, -187500.02, -187500.02, -187500.02, 187500.00, 0.000, 0.000, 0.000, 13:46:23.408
122, 52576.04, 87633.70, -187500.02, -187500.02, -187500.02, -187500.02, -187500.02, 187500.00, 0.000, 0.000, 0.000, 13:46:23.409
123, 51030.46, 86380.02, -187500.02, -187500.02, -187500.02, -187500.02, -187500.02, 187500.00, 0.000, 0.000, 0.000, 13:46:23.409
124, 50140.50, 85661.60, -187500.02, -187500.02, -187500.02, -187500.02, -187500.02, 187500.00, 0.000, 0.000, 0.000, 13:46:23.410
125, 51132.05, 86437.52, -187500.02, -187500.02, -187500.02, -187500.02, -187500.02, 187500.00, 0.000, 0.000, 0.000, 13:46:23.411
126, 52618.11, 87627.40, -187500.02, -187500.02, -187500.02, -187500.02, -187500.02, 187500.00, 0.308, 0.970, -0.088, 13:46:23.411
127, 51455.12, 86672.59, -187500.02, -187500.02, -187500.02, -187500.02, -187500.02, 187500.00, 0.000, 0.000, 0.000, 13:46:23.412
128, 50133.42, 85625.69, -187500.02, -187500.02, -187500.02, -187500.02, -187500.02, 187500.00, 0.000, 0.000, 0.000, 13:46:23.413
129, 50826.75, 86213.16, -187500.02, -187500.02, -187500.02, -187500.02, -187500.02, 187500.00, 0.000, 0.000, 0.000, 13:46:23.413
130, 52439.54, 87523.39, -187500.02, -187500.02, -187500.02, -187500.02, -187500.02, 187500.00, 0.000, 0.000, 0.000, 13:46:23.414
131, 51814.74, 86993.63, -187500.02, -187500.02, -187500.02, -187500.02, -187500.02, 187500.00, 0.000, 0.000, 0.000, 13:46:23.414
132, 50180.02, 85668.45, -187500.02, -187500.02, -187500.02, -187500.02, -187500.02, 187500.00, 0.000, 0.000, 0.000, 13:46:23.414
133, 50617.69, 86036.51, -187500.02, -187500.02, -187500.02, -187500.02, -187500.02, 187500.00, 0.000, 0.000, 0.000, 13:46:23.415
134, 52251.52, 87358.10, -187500.02, -187500.02, -187500.02, -187500.02, -187500.02, 187500.00, 0.000, 0.000, 0.000, 13:46:23.415
135, 52183.54, 87271.00, -187500.02, -187500.02, -187500.02, -187500.02, -187500.02, 187500.00, 0.000, 0.000, 0.000, 13:46:23.416
136, 50309.59, 85754.50, -187500.02, -187500.02, -187500.02, -187500.02, -187500.02, 187500.00, 0.308, 0.972, -0.090, 13:46:23.416
137, 50436.82, 85874.69, -187500.02, -187500.02, -187500.02, -187500.02, -187500.02, 187500.00, 0.000, 0.000, 0.000, 13:46:23.416
138, 51968.72, 87121.51, -187500.02, -187500.02, -187500.02, -187500.02, -187500.02, 187500.00, 0.000, 0.000, 0.000, 13:46:23.417
139, 52444.99, 87484.99, -187500.02, -187500.02, -187500.02, -187500.02, -187500.02, 187500.00, 0.000, 0.000, 0.000, 13:46:23.417
140, 50506.69, 85905.91, -187500.02, -187500.02, -187500.02, -187500.02, -187500.02, 187500.00, 0.000, 0.000, 0.000, 13:46:23.417
141, 50293.70, 85740.41, -187500.02, -187500.02, -187500.02, -187500.02, -187500.02, 187500.00, 0.000, 0.000, 0.000, 13:46:23.418
142, 51657.14, 86854.77, -187500.02, -187500.02, -187500.02, -187500.02, -187500.02, 187500.00, 0.000, 0.000, 0.000, 13:46:23.418
143, 52597.45, 87615.91, -187500.02, -187500.02, -187500.02, -187500.02, -187500.02, 187500.00, 0.000, 0.000, 0.000, 13:46:23.419
144, 50767.36, 86137.01, -187500.02, -187500.02, -187500.02, -187500.02, -187500.02, 187500.00, 0.000, 0.000, 0.000, 13:46:23.419
145, 50171.77, 85649.49, -187500.02, -187500.02, -187500.02, -187500.02, -187500.02, 187500.00, 0.312, 0.970, -0.082, 13:46:23.419
146, 51336.55, 86611.80, -187500.02, -187500.02, -187500.02, -187500.02, -187500.02, 187500.00, 0.000, 0.000, 0.000, 13:46:23.420
147, 52685.92, 87707.51, -187500.02, -187500.02, -187500.02, -187500.02, -187500.02, 187500.00, 0.000, 0.000, 0.000, 13:46:23.420
148, 51107.06, 86420.09, -187500.02, -187500.02, -187500.02, -187500.02, -187500.02, 187500.00, 0.000, 0.000, 0.000, 13:46:23.420
149, 50049.53, 85582.32, -187500.02, -187500.02, -187500.02, -187500.02, -187500.02, 187500.00, 0.000, 0.000, 0.000, 13:46:23.421
150, 51011.60, 86360.43, -187500.02, -187500.02, -187500.02, -187500.02, -187500.02, 187500.00, 0.000, 0.000, 0.000, 13:46:23.421
151, 52597.32, 87642.91, -187500.02, -187500.02, -187500.02, -187500.02, -187500.02, 187500.00, 0.000, 0.000, 0.000, 13:46:23.421
152, 51528.21, 86733.57, -187500.02, -187500.02, -187500.02, -187500.02, -187500.02, 187500.00, 0.000, 0.000, 0.000, 13:46:23.421
153, 50109.95, 85581.61, -187500.02, -187500.02, -187500.02, -187500.02, -187500.02, 187500.00, 0.000, 0.000, 0.000, 13:46:23.422
154, 50811.08, 86158.55, -187500.02, -187500.02, -187500.02, -187500.02, -187500.02, 187500.00, 0.000, 0.000, 0.000, 13:46:23.422
155, 52490.81, 87545.14, -187500.02, -187500.02, -187500.02, -187500.02, -187500.02, 187500.00, 0.312, 0.968, -0.086, 13:46:23.423
156, 51929.61, 87064.87, -187500.02, -187500.02, -187500.02, -187500.02, -187500.02, 187500.00, 0.000, 0.000, 0.000, 13:46:23.423
157, 50175.73, 85634.38, -187500.02, -187500.02, -187500.02, -187500.02, -187500.02, 187500.00, 0.000, 0.000, 0.000, 13:46:23.423
158, 50569.08, 85977.30, -187500.02, -187500.02, -187500.02, -187500.02, -187500.02, 187500.00, 0.000, 0.000, 0.000, 13:46:23.424
159, 52226.21, 87340.65, -187500.02, -187500.02, -187500.02, -187500.02, -187500.02, 187500.00, 0.000, 0.000, 0.000, 13:46:23.424
160, 52252.88, 87334.61, -187500.02, -187500.02, -187500.02, -187500.02, -187500.02, 187500.00, 0.000, 0.000, 0.000, 13:46:23.424
161, 50289.25, 85729.27, -187500.02, -187500.02, -187500.02, -187500.02, -187500.02, 187500.00, 0.000, 0.000, 0.000, 13:46:23.425
162, 50356.31, 85803.02, -187500.02, -187500.02, -187500.02, -187500.02, -187500.02, 187500.00, 0.000, 0.000, 0.000, 13:46:23.425
163, 51908.35, 87088.27, -187500.02, -187500.02, -187500.02, -187500.02, -187500.02, 187500.00, 0.000, 0.000, 0.000, 13:46:23.425
164, 52499.91, 87556.05, -187500.02, -187500.02, -187500.02, -187500.02, -187500.02, 187500.00, 0.000, 0.000, 0.000, 13:46:23.426
165, 50517.71, 85914.60, -187500.02, -187500.02, -187500.02, -187500.02, -187500.02, 187500.00, 0.300, 0.978, -0.090, 13:46:23.426
166, 50233.04, 85676.71, -187500.02, -187500.02, -187500.02, -187500.02, -187500.02, 187500.00, 0.000, 0.000, 0.000, 13:46:23.426
167, 51612.57, 86835.38, -187500.02, -187500.02, -187500.02, -187500.02, -187500.02, 187500.00, 0.000, 0.000, 0.000, 13:46:23.427
168, 52669.40, 87712.58, -187500.02, -187500.02, -187500.02, -187500.02, -187500.02, 187500.00, 0.000, 0.000, 0.000, 13:46:23.427
169, 50825.43, 86170.30, -187500.02, -187500.02, -187500.02, -187500.02, -187500.02, 187500.00, 0.000, 0.000, 0.000, 13:46:23.427
170, 50110.29, 85588.18, -187500.02, -187500.02, -187500.02, -187500.02, -187500.02, 187500.00, 0.000, 0.000, 0.000, 13:46:23.428
171, 51289.32, 86568.02, -187500.02, -187500.02, -187500.02, -187500.02, -187500.02, 187500.00, 0.000, 0.000, 0.000, 13:46:23.428
172, 52699.33, 87737.61, -187500.02, -187500.02, -187500.02, -187500.02, -187500.02, 187500.00, 0.000, 0.000, 0.000, 13:46:23.429
173, 51199.86, 86459.47, -187500.02, -187500.02, -187500.02, -187500.02, -187500.02, 187500.00, 0.000, 0.000, 0.000, 13:46:23.429
174, 50084.29, 85532.88, -187500.02, -187500.02, -187500.02, -187500.02, -187500.02, 187500.00, 0.000, 0.000, 0.000, 13:46:23.430
175, 50988.57, 86321.56, -187500.02, -187500.02, -187500.02, -187500.02, -187500.02, 187500.00, 0.300, 0.980, -0.092, 13:46:23.430
176, 52595.46, 87678.36, -187500.02, -187500.02, -187500.02, -187500.02, -187500.02, 187500.00, 0.000, 0.000, 0.000, 13:46:23.431
177, 51597.35, 86796.91, -187500.02, -187500.02, -187500.02, -187500.02, -187500.02, 187500.00, 0.000, 0.000, 0.000, 13:46:23.431
178, 50091.44, 85539.59, -187500.02, -187500.02, -187500.02, -187500.02, -187500.02, 187500.00, 0.000, 0.000, 0.000, 13:46:23.432
179, 50739.53, 86101.51, -187500.02, -187500.02, -187500.02, -187500.02, -187500.02, 187500.00, 0.000, 0.000, 0.000, 13:46:23.432
180, 52438.15, 87537.99, -187500.02, -187500.02, -187500.02, -187500.02, -187500.02, 187500.00, 0.000, 0.000, 0.000, 13:46:23.433
181, 51960.34, 87134.34, -187500.02, -187500.02, -187500.02, -187500.02, -187500.02, 187500.00, 0.000, 0.000, 0.000, 13:46:23.433
182, 50140.71, 85630.29, -187500.02, -187500.02, -187500.02, -187500.02, -187500.02, 187500.00, 0.000, 0.000, 0.000, 13:46:23.433
183, 50517.24, 85942.79, -187500.02, -187500.02, -187500.02, -187500.02, -187500.02, 187500.00, 0.000, 0.000, 0.000, 13:46:23.434
184, 52200.78, 87332.60, -187500.02, -187500.02, -187500.02, -187500.02, -187500.02, 187500.00, 0.000, 0.000, 0.000, 13:46:23.434
185, 52319.57, 87409.13, -187500.02, -187500.02, -187500.02, -187500.02, -187500.02, 187500.00, 0.304, 0.974, -0.104, 13:46:23.435
186, 50325.15, 85760.98, -187500.02, -187500.02, -187500.02, -187500.02, -187500.02, 187500.00, 0.000, 0.000, 0.000, 13:46:23.435
187, 50356.76, 85797.15, -187500.02, -187500.02, -187500.02, -187500.02, -187500.02, 187500.00, 0.000, 0.000, 0.000, 13:46:23.436
188, 51898.47, 87068.70, -187500.02, -187500.02, -187500.02, -187500.02, -187500.02, 187500.00, 0.000, 0.000, 0.000, 13:46:23.436
189, 52579.21, 87616.35, -187500.02, -187500.02, -187500.02, -187500.02, -187500.02, 187500.00, 0.000, 0.000, 0.000, 13:46:23.437
190, 50574.46, 85969.68, -187500.02, -187500.02, -187500.02, -187500.02, -187500.02, 187500.00, 0.000, 0.000, 0.000, 13:46:23.438
191, 50209.30, 85678.91, -187500.02, -187500.02, -187500.02, -187500.02, -187500.02, 187500.00, 0.000, 0.000, 0.000, 13:46:23.438
192, 51573.59, 86801.63, -187500.02, -187500.02, -187500.02, -187500.02, -187500.02, 187500.00, 0.000, 0.000, 0.000, 13:46:23.438
193, 52713.30, 87720.27, -187500.02, -187500.02, -187500.02, -187500.02, -187500.02, 187500.00, 0.000, 0.000, 0.000, 13:46:23.439
194, 50884.50, 86220.64, -187500.02, -187500.02, -187500.02, -187500.02, -187500.02, 187500.00, 0.000, 0.000, 0.000, 13:46:23.439
195, 50089.68, 85585.03, -187500.02, -187500.02, -187500.02, -187500.02, -187500.02, 187500.00, 0.296, 0.966, -0.102, 13:46:23.440
196, 51232.72, 86532.20, -187500.02, -187500.02, -187500.02, -187500.02, -187500.02, 187500.00, 0.000, 0.000, 0.000, 13:46:23.440
197, 52718.71, 87730.55, -187500.02, -187500.02, -187500.02, -187500.02, -187500.02, 187500.00, 0.000, 0.000, 0.000, 13:46:23.440
198, 51268.46, 86530.73, -187500.02, -187500.02, -187500.02, -187500.02, -187500.02, 187500.00, 0.000, 0.000, 0.000, 13:46:23.441
199, 50054.85, 85562.77, -187500.02, -187500.02, -187500.02, -187500.02, -187500.02, 187500.00, 0.000, 0.000, 0.000, 13:46:23.441
200, 50961.62, 86284.62, -187500.02, -187500.02, -187500.02, -187500.02, -187500.02, 187500.00, 0.000, 0.000, 0.000, 13:46:23.441
201, 52646.22, 87654.42, -187500.02, -187500.02, -187500.02, -187500.02, -187500.02, 187500.00, 0.000, 0.000, 0.000, 13:46:23.442
202, 51695.00, 86854.38, -187500.02, -187500.02, -187500.02, -187500.02, -187500.02, 187500.00, 0.000, 0.000, 0.000, 13:46:23.442
203, 50074.57, 85547.25, -187500.02, -187500.02, -187500.02, -187500.02, -187500.02, 187500.00, 0.000, 0.000, 0.000, 13:46:23.442
204, 50669.88, 86065.91, -187500.02, -187500.02, -187500.02, -187500.02, -187500.02, 187500.00, 0.000, 0.000, 0.000, 13:46:23.443
205, 52446.62, 87485.87, -187500.02, -187500.02, -187500.02, -187500.02, -187500.02, 187500.00, 0.300, 0.970, -0.106, 13:46:23.443
206, 52086.89, 87168.65, -187500.02, -187500.02, -187500.02, -187500.02, -187500.02, 187500.00, 0.000, 0.000, 0.000, 13:46:23.443
207, 50192.58, 85631.99, -187500.02, -187500.02, -187500.02, -187500.02, -187500.02, 187500.00, 0.000, 0.000, 0.000, 13:46:23.444
208, 50505.02, 85885.63, -187500.02, -187500.02, -187500.02, -187500.02, -187500.02, 187500.00, 0.000, 0.000, 0.000, 13:46:23.444
209, 52190.88, 87264.09, -187500.02, -187500.02, -187500.02, -187500.02, -187500.02, 187500.00, 0.000, 0.000, 0.000, 13:46:23.444
210, 52421.75, 87437.88, -187500.02, -187500.02, -187500.02, -187500.02, -187500.02, 187500.00, 0.000, 0.000, 0.000, 13:46:23.445
211, 50376.38, 85757.77, -187500.02, -187500.02, -187500.02, -187500.02, -187500.02, 187500.00, 0.000, 0.000, 0.000, 13:46:23.445
212, 50298.89, 85720.39, -187500.02, -187500.02, -187500.02, -187500.02, -187500.02, 187500.00, 0.000, 0.000, 0.000, 13:46:23.448
213, 51817.13, 87003.85, -187500.02, -187500.02, -187500.02, -187500.02, -187500.02, 187500.00, 0.000, 0.000, 0.000, 13:46:23.450
214, 52604.63, 87641.41, -187500.02, -187500.02, -187500.02, -187500.02, -187500.02, 187500.00, 0.306, 0.970, -0.110, 13:46:23.450
215, 50631.97, 85947.17, -187500.02, -187500.02, -187500.02, -187500.02, -187500.02, 187500.00, 0.000, 0.000, 0.000, 13:46:23.450
216, 50184.89, 85581.41, -187500.02, -187500.02, -187500.02, -187500.02, -187500.02, 187500.00, 0.000, 0.000, 0.000, 13:46:23.451
217, 51511.89, 86732.27, -187500.02, -187500.02, -187500.02, -187500.02, -187500.02, 187500.00, 0.000, 0.000, 0.000, 13:46:23.451
218, 52754.07, 87774.16, -187500.02, -187500.02, -187500.02, -187500.02, -187500.02, 187500.00, 0.000, 0.000, 0.000, 13:46:23.452
219, 51003.97, 86243.80, -187500.02, -187500.02, -187500.02, -187500.02, -187500.02, 187500.00, 0.000, 0.000, 0.000, 13:46:23.453
220, 50123.50, 85495.11, -187500.02, -187500.02, -187500.02, -187500.02, -187500.02, 187500.00, 0.000, 0.000, 0.000, 13:46:23.454
221, 51207.13, 86462.71, -187500.02, -187500.02, -187500.02, -187500.02, -187500.02, 187500.00, 0.000, 0.000, 0.000, 13:46:23.454
222, 52724.72, 87798.34, -187500.02, -187500.02, -187500.02, -187500.02, -187500.02, 187500.00, 0.000, 0.000, 0.000, 13:46:23.454
223, 51340.86, 86571.30, -187500.02, -187500.02, -187500.02, -187500.02, -187500.02, 187500.00, 0.000, 0.000, 0.000, 13:46:23.454
224, 50064.08, 85447.54, -187500.02, -187500.02, -187500.02, -187500.02, -187500.02, 187500.00, 0.312, 0.968, -0.116, 13:46:23.455
225, 50920.22, 86213.58, -187500.02, -187500.02, -187500.02, -187500.02, -187500.02, 187500.00, 0.000, 0.000, 0.000, 13:46:23.455
226, 52638.00, 87729.77, -187500.02, -187500.02, -187500.02, -187500.02, -187500.02, 187500.00, 0.000, 0.000, 0.000, 13:46:23.455
227, 51772.70, 86933.60, -187500.02, -187500.02, -187500.02, -187500.02, -187500.02, 187500.00, 0.000, 0.000, 0.000, 13:46:23.456
228, 50088.49, 85464.71, -187500.02, -187500.02, -187500.02, -187500.02, -187500.02, 187500.00, 0.000, 0.000, 0.000, 13:46:23.456
229, 50680.10, 85998.55, -187500.02, -187500.02, -187500.02, -187500.02, -187500.02, 187500.00, 0.000, 0.000, 0.000, 13:46:23.456
230, 52438.84, 87547.42, -187500.02, -187500.02, -187500.02, -187500.02, -187500.02, 187500.00, 0.000, 0.000, 0.000, 13:46:23.457
231, 52163.85, 87284.14, -187500.02, -187500.02, -187500.02, -187500.02, -187500.02, 187500.00, 0.000, 0.000, 0.000, 13:46:23.457
232, 50191.54, 85563.08, -187500.02, -187500.02, -187500.02, -187500.02, -187500.02, 187500.00, 0.000, 0.000, 0.000, 13:46:23.458
233, 50433.49, 85785.21, -187500.02, -187500.02, -187500.02, -187500.02, -187500.02, 187500.00, 0.000, 0.000, 0.000, 13:46:23.458
234, 52113.18, 87263.69, -187500.02, -187500.02, -187500.02, -187500.02, -187500.02, 187500.00, 0.300, 0.970, -0.110, 13:46:23.458
235, 52459.39, 87553.32, -187500.02, -187500.02, -187500.02, -187500.02, -187500.02, 187500.00, 0.000, 0.000, 0.000, 13:46:23.459
236, 50380.45, 85746.85, -187500.02, -187500.02, -187500.02, -187500.02, -187500.02, 187500.00, 0.000, 0.000, 0.000, 13:46:23.459
237, 50255.44, 85660.11, -187500.02, -187500.02, -187500.02, -187500.02, -187500.02, 187500.00, 0.000, 0.000, 0.000, 13:46:23.459
238, 51776.47, 86997.93, -187500.02, -187500.02, -187500.02, -187500.02, -187500.02, 187500.00, 0.000, 0.000, 0.000, 13:46:23.459
239, 52661.13, 87750.04, -187500.02, -187500.02, -187500.02, -187500.02, -187500.02, 187500.00, 0.000, 0.000, 0.000, 13:46:23.460
240, 50639.26, 85999.36, -187500.02, -187500.02, -187500.02, -187500.02, -187500.02, 187500.00, 0.000, 0.000, 0.000, 13:46:23.460
241, 50101.86, 85553.02, -187500.02, -187500.02, -187500.02, -187500.02, -187500.02, 187500.00, 0.000, 0.000, 0.000, 13:46:23.885
242, 51431.74, 86707.63, -187500.02, -187500.02, -187500.02, -187500.02, -187500.02, 187500.00, 0.000, 0.000, 0.000, 13:46:23.885
243, 52734.65, 87835.67, -187500.02, -187500.02, -187500.02, -187500.02, -187500.02, 187500.00, 0.000, 0.000, 0.000, 13:46:23.885
244, 50973.66, 86316.58, -187500.02, -187500.02, -187500.02, -187500.02, -187500.02, 187500.00, 0.294, 0.972, -0.108, 13:46:23.886
245, 50027.16, 85488.02, -187500.02, -187500.02, -187500.02, -187500.02, -187500.02, 187500.00, 0.000, 0.000, 0.000, 13:46:23.886
246, 51100.51, 86426.02, -187500.02, -187500.02, -187500.02, -187500.02, -187500.02, 187500.00, 0.000, 0.000, 0.000, 13:46:23.886
247, 52714.20, 87809.02, -187500.02, -187500.02, -187500.02, -187500.02, -187500.02, 187500.00, 0.000, 0.000, 0.000, 13:46:23.886
248, 51431.81, 86655.09, -187500.02, -187500.02, -187500.02, -187500.02, -187500.02, 187500.00, 0.000, 0.000, 0.000, 13:46:23.887
249, 50038.34, 85462.02, -187500.02, -187500.02, -187500.02, -187500.02, -187500.02, 187500.00, 0.000, 0.000, 0.000, 13:46:23.887
250, 50825.14, 86164.25, -187500.02, -187500.02, -187500.02, -187500.02, -187500.02, 187500.00, 0.000, 0.000, 0.000, 13:46:23.887
251, 52557.78, 87664.01, -187500.02, -187500.02, -187500.02, -187500.02, -187500.02, 187500.00, 0.000, 0.000, 0.000, 13:46:23.888
252, 51819.57, 86996.97, -187500.02, -187500.02, -187500.02, -187500.02, -187500.02, 187500.00, 0.000, 0.000, 0.000, 13:46:23.888
253, 50092.49, 85496.13, -187500.02, -187500.02, -187500.02, -187500.02, -187500.02, 187500.00, 0.000, 0.000, 0.000, 13:46:23.888
254, 50599.30, 85962.86, -187500.02, -187500.02, -187500.02, -187500.02, -187500.02, 187500.00, 0.294, 0.980, -0.102, 13:46:23.889
255, 52344.92, 87487.43, -187500.02, -187500.02, -187500.02, -187500.02, -187500.02, 187500.00, 0.000, 0.000, 0.000, 13:46:23.889
0, 52200.44, 87333.29, -187500.02, -187500.02, -187500.02, -187500.02, -187500.02, 187500.00, 0.000, 0.000, 0.000, 13:46:23.889
1, 50186.10, 85581.98, -187500.02, -187500.02, -187500.02, -187500.02, -187500.02, 187500.00, 0.000, 0.000, 0.000, 13:46:23.890
2, 50369.30, 85758.27, -187500.02, -187500.02, -187500.02, -187500.02, -187500.02, 187500.00, 0.000, 0.000, 0.000, 13:46:23.890
3, 52053.43, 87243.44, -187500.02, -187500.02, -187500.02, -187500.02, -187500.02, 187500.00, 0.000, 0.000, 0.000, 13:46:23.890
4, 52520.77, 87617.72, -187500.02, -187500.02, -187500.02, -187500.02, -187500.02, 187500.00, 0.000, 0.000, 0.000, 13:46:23.891
5, 50411.52, 85771.71, -187500.02, -187500.02, -187500.02, -187500.02, -187500.02, 187500.00, 0.000, 0.000, 0.000, 13:46:23.891
6, 50209.84, 85605.44, -187500.02, -187500.02, -187500.02, -187500.02, -187500.02, 187500.00, 0.000, 0.000, 0.000, 13:46:23.891
7, 51725.29, 86944.55, -187500.02, -187500.02, -187500.02, -187500.02, -187500.02, 187500.00, 0.000, 0.000, 0.000, 13:46:23.891
8, 52728.01, 87799.28, -187500.02, -187500.02, -187500.02, -187500.02, -187500.02, 187500.00, 0.298, 0.962, -0.106, 13:46:23.892
9, 50746.19, 86028.62, -187500.02, -187500.02, -187500.02, -187500.02, -187500.02, 187500.00, 0.000, 0.000, 0.000, 13:46:23.892
10, 50120.41, 85487.91, -187500.02, -187500.02, -187500.02, -187500.02, -187500.02, 187500.00, 0.000, 0.000, 0.000, 13:46:23.892
11, 51413.61, 86653.55, -187500.02, -187500.02, -187500.02, -187500.02, -187500.02, 187500.00, 0.000, 0.000, 0.000, 13:46:23.892
12, 52799.16, 87885.20, -187500.02, -187500.02, -187500.02, -187500.02, -187500.02, 187500.00, 0.000, 0.000, 0.000, 13:46:23.893
13, 51106.28, 86362.58, -187500.02, -187500.02, -187500.02, -187500.02, -187500.02, 187500.00, 0.000, 0.000, 0.000, 13:46:23.893
14, 50039.95, 85428.63, -187500.02, -187500.02, -187500.02, -187500.02, -187500.02, 187500.00, 0.000, 0.000, 0.000, 13:46:23.893
15, 51062.09, 86366.02, -187500.02, -187500.02, -187500.02, -187500.02, -187500.02, 187500.00, 0.000, 0.000, 0.000, 13:46:23.893
16, 52737.06, 87837.75, -187500.02, -187500.02, -187500.02, -187500.02, -187500.02, 187500.00, 0.000, 0.000, 0.000, 13:46:23.894
17, 51544.89, 86728.37, -187500.02, -187500.02, -187500.02, -187500.02, -187500.02, 187500.00, 0.306, 0.976, -0.104, 13:46:23.894
18, 50060.69, 85420.07, -187500.02, -187500.02, -187500.02, -187500.02, -187500.02, 187500.00, 0.000, 0.000, 0.000, 13:46:23.895
19, 50810.12, 86114.34, -187500.02, -187500.02, -187500.02, -187500.02, -187500.02, 187500.00, 0.000, 0.000, 0.000, 13:46:23.895
20, 52568.53, 87700.22, -187500.02, -187500.02, -187500.02, -187500.02, -187500.02, 187500.00, 0.000, 0.000, 0.000, 13:46:23.896
21, 51903.54, 87098.95, -187500.02, -187500.02, -187500.02, -187500.02, -187500.02, 187500.00, 0.000, 0.000, 0.000, 13:46:23.896
22, 50075.04, 85483.41, -187500.02, -187500.02, -187500.02, -187500.02, -187500.02, 187500.00, 0.000, 0.000, 0.000, 13:46:23.897
23, 50540.22, 85907.27, -187500.02, -187500.02, -187500.02, -187500.02, -187500.02, 187500.00, 0.000, 0.000, 0.000, 13:46:23.897
24, 52302.79, 87481.13, -187500.02, -187500.02, -187500.02, -187500.02, -187500.02, 187500.00, 0.000, 0.000, 0.000, 13:46:23.897
25, 52283.54, 87423.68, -187500.02, -187500.02, -187500.02, -187500.02, -187500.02, 187500.00, 0.000, 0.000, 0.000, 13:46:23.898
26, 50244.33, 85616.41, -187500.02, -187500.02, -187500.02, -187500.02, -187500.02, 187500.00, 0.000, 0.000, 0.000, 13:46:23.898
27, 50362.50, 85744.75, -187500.02, -187500.02, -187500.02, -187500.02, -187500.02, 187500.00, 0.306, 0.966, -0.100, 13:46:23.899
28, 51977.10, 87208.88, -187500.02, -187500.02, -187500.02, -187500.02, -187500.02, 187500.00, 0.000, 0.000, 0.000, 13:46:23.899
29, 52541.15, 87678.45, -187500.02, -187500.02, -187500.02, -187500.02, -187500.02, 187500.00, 0.000, 0.000, 0.000, 13:46:23.900
30, 50483.98, 85828.15, -187500.02, -187500.02, -187500.02, -187500.02, -187500.02, 187500.00, 0.000, 0.000, 0.000, 13:46:23.900
31, 50206.00, 85599.80, -187500.02, -187500.02, -187500.02, -187500.02, -187500.02, 187500.00, 0.000, 0.000, 0.000, 13:46:23.900
32, 51655.15, 86903.78, -187500.02, -187500.02, -187500.02, -187500.02, -187500.02, 187500.00, 0.000, 0.000, 0.000, 13:46:23.901
33, 52745.45, 87839.58, -187500.02, -187500.02, -187500.02, -187500.02, -187500.02, 187500.00, 0.000, 0.000, 0.000, 13:46:23.901
34, 50809.58, 86115.75, -187500.02, -187500.02, -187500.02, -187500.02, -187500.02, 187500.00, 0.000, 0.000, 0.000, 13:46:23.901
35, 50101.50, 85506.55, -187500.02, -187500.02, -187500.02, -187500.02, -187500.02, 187500.00, 0.000, 0.000, 0.000, 13:46:23.902
36, 51322.64, 86611.95, -187500.02, -187500.02, -187500.02, -187500.02, -187500.02, 187500.00, 0.000, 0.000, 0.000, 13:46:23.902
37, 52787.84, 87882.27, -187500.02, -187500.02, -187500.02, -187500.02, -187500.02, 187500.00, 0.304, 0.970, -0.102, 13:46:23.902
38, 51183.84, 86433.37, -187500.02, -187500.02, -187500.02, -187500.02, -187500.02, 187500.00, 0.000, 0.000, 0.000, 13:46:23.903
39, 50017.82, 85430.22, -187500.02, -187500.02, -187500.02, -187500.02, -187500.02, 187500.00, 0.000, 0.000, 0.000, 13:46:23.903
40, 50995.64, 86320.84, -187500.02, -187500.02, -187500.02, -187500.02, -187500.02, 187500.00, 0.000, 0.000, 0.000, 13:46:23.903
41, 52698.55, 87797.36, -187500.02, -187500.02, -187500.02, -187500.02, -187500.02, 187500.00, 0.000, 0.000, 0.000, 13:46:23.903
42, 51614.82, 86786.30, -187500.02, -187500.02, -187500.02, -187500.02, -187500.02, 187500.00, 0.000, 0.000, 0.000, 13:46:23.903
43, 50067.14, 85438.89, -187500.02, -187500.02, -187500.02, -187500.02, -187500.02, 187500.00, 0.000, 0.000, 0.000, 13:46:23.904
44, 50752.43, 86087.95, -187500.02, -187500.02, -187500.02, -187500.02, -187500.02, 187500.00, 0.000, 0.000, 0.000, 13:46:23.904
45, 52504.09, 87658.48, -187500.02, -187500.02, -187500.02, -187500.02, -187500.02, 187500.00, 0.000, 0.000, 0.000, 13:46:23.904
46, 52000.84, 87162.93, -187500.02, -187500.02, -187500.02, -187500.02, -187500.02, 187500.00, 0.000, 0.000, 0.000, 13:46:23.905
47, 50136.48, 85492.60, -187500.02, -187500.02, -187500.02, -187500.02, -187500.02, 187500.00, 0.300, 0.972, -0.094, 13:46:23.905
48, 50524.08, 85858.34, -187500.02, -187500.02, -187500.02, -187500.02, -187500.02, 187500.00, 0.000, 0.000, 0.000, 13:46:23.906
49, 52242.77, 87414.14, -187500.02, -187500.02, -187500.02, -187500.02, -187500.02, 187500.00, 0.000, 0.000, 0.000, 13:46:23.906
50, 52332.25, 87463.76, -187500.02, -187500.02, -187500.02, -187500.02, -187500.02, 187500.00, 0.000, 0.000, 0.000, 13:46:23.906
51, 50281.10, 85619.16, -187500.02, -187500.02, -187500.02, -187500.02, -187500.02, 187500.00, 0.000, 0.000, 0.000, 13:46:23.907
52, 50327.70, 85683.95, -187500.02, -187500.02, -187500.02, -187500.02, -187500.02, 187500.00, 0.000, 0.000, 0.000, 13:46:23.907
53, 51935.26, 87158.01, -187500.02, -187500.02, -187500.02, -187500.02, -187500.02, 187500.00, 0.000, 0.000, 0.000, 13:46:23.908
54, 52608.50, 87732.98, -187500.02, -187500.02, -187500.02, -187500.02, -187500.02, 187500.00, 0.000, 0.000, 0.000, 13:46:23.908
55, 50531.39, 85851.69, -187500.02, -187500.02, -187500.02, -187500.02, -187500.02, 187500.00, 0.000, 0.000, 0.000, 13:46:23.909
56, 50178.43, 85552.15, -187500.02, -187500.02, -187500.02, -187500.02, -187500.02, 187500.00, 0.000, 0.000, 0.000, 13:46:23.909
57, 51602.42, 86849.76, -187500.02, -187500.02, -187500.02, -187500.02, -187500.02, 187500.00, 0.306, 0.972, -0.096, 13:46:23.910
58, 52757.11, 87866.85, -187500.02, -187500.02, -187500.02, -187500.02, -187500.02, 187500.00, 0.000, 0.000, 0.000, 13:46:23.910
59, 50878.76, 86152.59, -187500.02, -187500.02, -187500.02, -187500.02, -187500.02, 187500.00, 0.000, 0.000, 0.000, 13:46:23.911
60, 50102.71, 85465.71, -187500.02, -187500.02, -187500.02, -187500.02, -187500.02, 187500.00, 0.000, 0.000, 0.000, 13:46:23.911
61, 51264.42, 86543.13, -187500.02, -187500.02, -187500.02, -187500.02, -187500.02, 187500.00, 0.000, 0.000, 0.000, 13:46:23.911
62, 52762.34, 87878.07, -187500.02, -187500.02, -187500.02, -187500.02, -187500.02, 187500.00, 0.000, 0.000, 0.000, 13:46:23.912
63, 51255.19, 86489.63, -187500.02, -187500.02, -187500.02, -187500.02, -187500.02, 187500.00, 0.000, 0.000, 0.000, 13:46:23.912
64, 50027.49, 85418.93, -187500.02, -187500.02, -187500.02, -187500.02, -187500.02, 187500.00, 0.000, 0.000, 0.000, 13:46:23.912
65, 50989.58, 86280.93, -187500.02, -187500.02, -187500.02, -187500.02, -187500.02, 187500.00, 0.000, 0.000, 0.000, 13:46:23.913
66, 52701.14, 87808.00, -187500.02, -187500.02, -187500.02, -187500.02, -187500.02, 187500.00, 0.000, 0.000, 0.000, 13:46:23.913
67, 51667.22, 86869.07, -187500.02, -187500.02, -187500.02, -187500.02, -187500.02, 187500.00, 0.292, 0.972, -0.098, 13:46:23.913
68, 50034.85, 85423.07, -187500.02, -187500.02, -187500.02, -187500.02, -187500.02, 187500.00, 0.000, 0.000, 0.000, 13:46:23.914
69, 50684.50, 86025.24, -187500.02, -187500.02, -187500.02, -187500.02, -187500.02, 187500.00, 0.000, 0.000, 0.000, 13:46:23.914
70, 52487.73, 87621.92, -187500.02, -187500.02, -187500.02, -187500.02, -187500.02, 187500.00, 0.000, 0.000, 0.000, 13:46:23.915
71, 52099.70, 87227.91, -187500.02, -187500.02, -187500.02, -187500.02, -187500.02, 187500.00, 0.000, 0.000, 0.000, 13:46:23.915
72, 50171.48, 85517.01, -187500.02, -187500.02, -187500.02, -187500.02, -187500.02, 187500.00, 0.000, 0.000, 0.000, 13:46:23.915
73, 50502.54, 85828.93, -187500.02, -187500.02, -187500.02, -187500.02, -187500.02, 187500.00, 0.000, 0.000, 0.000, 13:46:23.916
74, 52217.34, 87373.84, -187500.02, -187500.02, -187500.02, -187500.02, -187500.02, 187500.00, 0.000, 0.000, 0.000, 13:46:23.916
75, 52429.14, 87524.38, -187500.02, -187500.02, -187500.02, -187500.02, -187500.02, 187500.00, 0.000, 0.000, 0.000, 13:46:23.917
76, 50359.62, 85652.73, -187500.02, -187500.02, -187500.02, -187500.02, -187500.02, 187500.00, 0.000, 0.000, 0.000, 13:46:23.917
77, 50327.81, 85648.04, -187500.02, -187500.02, -187500.02, -187500.02, -187500.02, 187500.00, 0.296, 0.970, -0.092, 13:46:23.918
78, 51911.88, 87093.88, -187500.02, -187500.02, -187500.02, -187500.02, -187500.02, 187500.00, 0.000, 0.000, 0.000, 13:46:23.918
79, 52666.43, 87754.73, -187500.02, -187500.02, -187500.02, -187500.02, -187500.02, 187500.00, 0.000, 0.000, 0.000, 13:46:23.919
80, 50604.41, 85897.62, -187500.02, -187500.02, -187500.02, -187500.02, -187500.02, 187500.00, 0.000, 0.000, 0.000, 13:46:23.919
81, 50177.88, 85528.73, -187500.02, -187500.02, -187500.02, -187500.02, -187500.02, 187500.00, 0.000, 0.000, 0.000, 13:46:23.919
82, 51561.11, 86788.22, -187500.02, -187500.02, -187500.02, -187500.02, -187500.02, 187500.00, 0.000, 0.000, 0.000, 13:46:23.920
83, 52789.07, 87877.06, -187500.02, -187500.02, -187500.02, -187500.02, -187500.02, 187500.00, 0.000, 0.000, 0.000, 13:46:23.920
84, 50951.94, 86211.99, -187500.02, -187500.02, -187500.02, -187500.02, -187500.02, 187500.00, 0.000, 0.000, 0.000, 13:46:23.920
85, 50074.37, 85441.95, -187500.02, -187500.02, -187500.02, -187500.02, -187500.02, 187500.00, 0.000, 0.000, 0.000, 13:46:23.921
86, 51209.92, 86483.50, -187500.02, -187500.02, -187500.02, -187500.02, -187500.02, 187500.00, 0.298, 0.974, -0.088, 13:46:23.921
87, 52765.11, 87868.70, -187500.02, -187500.02, -187500.02, -187500.02, -187500.02, 187500.00, 0.000, 0.000, 0.000, 13:46:23.921
88, 51321.23, 86551.96, -187500.02, -187500.02, -187500.02, -187500.02, -187500.02, 187500.00, 0.000, 0.000, 0.000, 13:46:23.922
89, 50006.28, 85400.09, -187500.02, -187500.02, -187500.02, -187500.02, -187500.02, 187500.00, 0.000, 0.000, 0.000, 13:46:23.922
90, 50886.20, 86212.76, -187500.02, -187500.02, -187500.02, -187500.02, -187500.02, 187500.00, 0.000, 0.000, 0.000, 13:46:23.922
91, 52623.29, 87763.05, -187500.02, -187500.02, -187500.02, -187500.02, -187500.02, 187500.00, 0.000, 0.000, 0.000, 13:46:23.923
92, 51729.56, 86923.30, -187500.02, -187500.02, -187500.02, -187500.02, -187500.02, 187500.00, 0.000, 0.000, 0.000, 13:46:23.923
93, 50043.48, 85423.98, -187500.02, -187500.02, -187500.02, -187500.02, -187500.02, 187500.00, 0.000, 0.000, 0.000, 13:46:23.923
94, 50650.10, 85977.13, -187500.02, -187500.02, -187500.02, -187500.02, -187500.02, 187500.00, 0.000, 0.000, 0.000, 13:46:23.924
95, 52405.88, 87560.52, -187500.02, -187500.02, -187500.02, -187500.02, -187500.02, 187500.00, 0.000, 0.000, 0.000, 13:46:23.924
96, 52083.99, 87275.00, -187500.02, -187500.02, -187500.02, -187500.02, -187500.02, 187500.00, 0.298, 0.972, -0.096, 13:46:23.924
97, 50126.71, 85529.87, -187500.02, -187500.02, -187500.02, -187500.02, -187500.02, 187500.00, 0.000, 0.000, 0.000, 13:46:23.925
98, 50428.21, 85785.45, -187500.02, -187500.02, -187500.02, -187500.02, -187500.02, 187500.00, 0.000, 0.000, 0.000, 13:46:23.925
99, 52155.02, 87321.00, -187500.02, -187500.02, -187500.02, -187500.02, -187500.02, 187500.00, 0.000, 0.000, 0.000, 13:46:23.925
100, 52449.44, 87575.74, -187500.02, -187500.02, -187500.02, -187500.02, -187500.02, 187500.00, 0.000, 0.000, 0.000, 13:46:23.926
101, 50361.36, 85699.89, -187500.02, -187500.02, -187500.02, -187500.02, -187500.02, 187500.00, 0.000, 0.000, 0.000, 13:46:23.926
102, 50286.75, 85627.70, -187500.02, -187500.02, -187500.02, -187500.02, -187500.02, 187500.00, 0.000, 0.000, 0.000, 13:46:23.927
103, 51849.99, 87037.96, -187500.02, -187500.02, -187500.02, -187500.02, -187500.02, 187500.00, 0.000, 0.000, 0.000, 13:46:23.927
104, 52701.30, 87796.22, -187500.02, -187500.02, -187500.02, -187500.02, -187500.02, 187500.00, 0.000, 0.000, 0.000, 13:46:23.928
105, 50665.01, 85955.48, -187500.02, -187500.02, -187500.02, -187500.02, -187500.02, 187500.00, 0.000, 0.000, 0.000, 13:46:24.375
106, 50138.11, 85506.95, -187500.02, -187500.02, -187500.02, -187500.02, -187500.02, 187500.00, 0.296, 0.972, -0.098, 13:46:24.375
107, 51473.36, 86725.13, -187500.02, -187500.02, -187500.02, -187500.02, -187500.02, 187500.00, 0.000, 0.000, 0.000, 13:46:24.375
108, 52793.25, 87896.31, -187500.02, -187500.02, -187500.02, -187500.02, -187500.02, 187500.00, 0.000, 0.000, 0.000, 13:46:24.376
109, 51004.73, 86273.73, -187500.02, -187500.02, -187500.02, -187500.02, -187500.02, 187500.00, 0.000, 0.000, 0.000, 13:46:24.376
110, 50047.63, 85426.27, -187500.02, -187500.02, -187500.02, -187500.02, -187500.02, 187500.00, 0.000, 0.000, 0.000, 13:46:24.377
111, 51153.55, 86434.73, -187500.02, -187500.02, -187500.02, -187500.02, -187500.02, 187500.00, 0.000, 0.000, 0.000, 13:46:24.377
112, 52765.56, 87869.33, -187500.02, -187500.02, -187500.02, -187500.02, -187500.02, 187500.00, 0.000, 0.000, 0.000, 13:46:24.377
113, 51418.20, 86630.55, -187500.02, -187500.02, -187500.02, -187500.02, -187500.02, 187500.00, 0.000, 0.000, 0.000, 13:46:24.378
114, 50029.26, 85388.89, -187500.02, -187500.02, -187500.02, -187500.02, -187500.02, 187500.00, 0.000, 0.000, 0.000, 13:46:24.378
115, 50870.85, 86160.63, -187500.02, -187500.02, -187500.02, -187500.02, -187500.02, 187500.00, 0.000, 0.000, 0.000, 13:46:24.378
116, 52627.27, 87736.09, -187500.02, -187500.02, -187500.02, -187500.02, -187500.02, 187500.00, 0.292, 0.970, -0.098, 13:46:24.379
117, 51823.52, 86991.55, -187500.02, -187500.02, -187500.02, -187500.02, -187500.02, 187500.00, 0.000, 0.000, 0.000, 13:46:24.379
118, 50052.64, 85427.11, -187500.02, -187500.02, -187500.02, -187500.02, -187500.02, 187500.00, 0.000, 0.000, 0.000, 13:46:24.379
119, 50588.14, 85936.15, -187500.02, -187500.02, -187500.02, -187500.02, -187500.02, 187500.00, 0.000, 0.000, 0.000, 13:46:24.379
120, 52356.39, 87521.18, -187500.02, -187500.02, -187500.02, -187500.02, -187500.02, 187500.00, 0.000, 0.000, 0.000, 13:46:24.380
121, 52205.31, 87343.64, -187500.02, -187500.02, -187500.02, -187500.02, -187500.02, 187500.00, 0.000, 0.000, 0.000, 13:46:24.380
122, 50223.23, 85560.75, -187500.02, -187500.02, -187500.02, -187500.02, -187500.02, 187500.00, 0.000, 0.000, 0.000, 13:46:24.381
123, 50431.59, 85758.08, -187500.02, -187500.02, -187500.02, -187500.02, -187500.02, 187500.00, 0.000, 0.000, 0.000, 13:46:24.381
124, 52086.92, 87254.57, -187500.02, -187500.02, -187500.02, -187500.02, -187500.02, 187500.00, 0.000, 0.000, 0.000, 13:46:24.382
125, 52477.56, 87592.68, -187500.02, -187500.02, -187500.02, -187500.02, -187500.02, 187500.00, 0.000, 0.000, 0.000, 13:46:24.382
126, 50398.04, 85722.13, -187500.02, -187500.02, -187500.02, -187500.02, -187500.02, 187500.00, 0.300, 0.972, -0.096, 13:46:24.382
127, 50259.53, 85596.20, -187500.02, -187500.02, -187500.02, -187500.02, -187500.02, 187500.00, 0.000, 0.000, 0.000, 13:46:24.383
128, 51770.39, 86959.30, -187500.02, -187500.02, -187500.02, -187500.02, -187500.02, 187500.00, 0.000, 0.000, 0.000, 13:46:24.383
129, 52705.43, 87791.03, -187500.02, -187500.02, -187500.02, -187500.02, -187500.02, 187500.00, 0.000, 0.000, 0.000, 13:46:24.383
130, 50726.61, 86017.40, -187500.02, -187500.02, -187500.02, -187500.02, -187500.02, 187500.00, 0.000, 0.000, 0.000, 13:46:24.384
131, 50176.45, 85512.67, -187500.02, -187500.02, -187500.02, -187500.02, -187500.02, 187500.00, 0.000, 0.000, 0.000, 13:46:24.384
132, 51464.18, 86673.47, -187500.02, -187500.02, -187500.02, -187500.02, -187500.02, 187500.00, 0.000, 0.000, 0.000, 13:46:24.384
133, 52815.96, 87870.72, -187500.02, -187500.02, -187500.02, -187500.02, -187500.02, 187500.00, 0.000, 0.000, 0.000, 13:46:24.385
134, 51122.80, 86333.03, -187500.02, -187500.02, -187500.02, -187500.02, -187500.02, 187500.00, 0.000, 0.000, 0.000, 13:46:24.385
135, 50084.58, 85428.84, -187500.02, -187500.02, -187500.02, -187500.02, -187500.02, 187500.00, 0.000, 0.000, 0.000, 13:46:24.385
136, 51108.56, 86369.55, -187500.02, -187500.02, -187500.02, -187500.02, -187500.02, 187500.00, 0.302, 0.970, -0.106, 13:46:24.386
137, 52719.07, 87820.16, -187500.02, -187500.02, -187500.02, -187500.02, -187500.02, 187500.00, 0.000, 0.000, 0.000, 13:46:24.386
138, 51496.45, 86697.20, -187500.02, -187500.02, -187500.02, -187500.02, -187500.02, 187500.00, 0.000, 0.000, 0.000, 13:46:24.386
139, 50054.61, 85414.57, -187500.02, -187500.02, -187500.02, -187500.02, -187500.02, 187500.00, 0.000, 0.000, 0.000, 13:46:24.387
140, 50815.04, 86112.20, -187500.02, -187500.02, -187500.02, -187500.02, -187500.02, 187500.00, 0.000, 0.000, 0.000, 13:46:24.387
141, 52572.51, 87689.45, -187500.02, -187500.02, -187500.02, -187500.02, -187500.02, 187500.00, 0.000, 0.000, 0.000, 13:46:24.387
142, 51904.28, 87063.41, -187500.02, -187500.02, -187500.02, -187500.02, -187500.02, 187500.00, 0.000, 0.000, 0.000, 13:46:24.388
143, 50128.39, 85465.76, -187500.02, -187500.02, -187500.02, -187500.02, -187500.02, 187500.00, 0.000, 0.000, 0.000, 13:46:24.388
144, 50599.34, 85902.24, -187500.02, -187500.02, -187500.02, -187500.02, -187500.02, 187500.00, 0.000, 0.000, 0.000, 13:46:24.388
145, 52333.32, 87465.01, -187500.02, -187500.02, -187500.02, -187500.02, -187500.02, 187500.00, 0.302, 0.974, -0.106, 13:46:24.389
146, 52272.70, 87386.78, -187500.02, -187500.02, -187500.02, -187500.02, -187500.02, 187500.00, 0.000, 0.000, 0.000, 13:46:24.389
147, 50241.63, 85590.86, -187500.02, -187500.02, -187500.02, -187500.02, -187500.02, 187500.00, 0.000, 0.000, 0.000, 13:46:24.389
148, 50361.92, 85717.44, -187500.02, -187500.02, -187500.02, -187500.02, -187500.02, 187500.00, 0.000, 0.000, 0.000, 13:46:24.390
149, 52005.87, 87180.70, -187500.02, -187500.02, -187500.02, -187500.02, -187500.02, 187500.00, 0.000, 0.000, 0.000, 13:46:24.390
150, 52554.52, 87628.38, -187500.02, -187500.02, -187500.02, -187500.02, -187500.02, 187500.00, 0.000, 0.000, 0.000, 13:46:24.390
151, 50505.98, 85787.63, -187500.02, -187500.02, -187500.02, -187500.02, -187500.02, 187500.00, 0.000, 0.000, 0.000, 13:46:24.391
152, 50259.08, 85589.72, -187500.02, -187500.02, -187500.02, -187500.02, -187500.02, 187500.00, 0.000, 0.000, 0.000, 13:46:24.391
153, 51705.30, 86906.24, -187500.02, -187500.02, -187500.02, -187500.02, -187500.02, 187500.00, 0.000, 0.000, 0.000, 13:46:24.391
154, 52722.69, 87810.99, -187500.02, -187500.02, -187500.02, -187500.02, -187500.02, 187500.00, 0.000, 0.000, 0.000, 13:46:24.392
155, 50777.82, 86056.70, -187500.02, -187500.02, -187500.02, -187500.02, -187500.02, 187500.00, 0.302, 0.978, -0.106, 13:46:24.392
156, 50124.37, 85475.44, -187500.02, -187500.02, -187500.02, -187500.02, -187500.02, 187500.00, 0.000, 0.000, 0.000, 13:46:24.392
157, 51367.75, 86610.86, -187500.02, -187500.02, -187500.02, -187500.02, -187500.02, 187500.00, 0.000, 0.000, 0.000, 13:46:24.393
158, 52789.32, 87877.73, -187500.02, -187500.02, -187500.02, -187500.02, -187500.02, 187500.00, 0.000, 0.000, 0.000, 13:46:24.393
159, 51183.17, 86409.96, -187500.02, -187500.02, -187500.02, -187500.02, -187500.02, 187500.00, 0.000, 0.000, 0.000, 13:46:24.394
160, 50078.59, 85429.99, -187500.02, -187500.02, -187500.02, -187500.02, -187500.02, 187500.00, 0.000, 0.000, 0.000, 13:46:24.394
161, 51072.15, 86332.63, -187500.02, -187500.02, -187500.02, -187500.02, -187500.02, 187500.00, 0.000, 0.000, 0.000, 13:46:24.394
162, 52729.15, 87810.55, -187500.02, -187500.02, -187500.02, -187500.02, -187500.02, 187500.00, 0.000, 0.000, 0.000, 13:46:24.395
163, 51584.89, 86767.70, -187500.02, -187500.02, -187500.02, -187500.02, -187500.02, 187500.00, 0.000, 0.000, 0.000, 13:46:24.395
164, 50050.43, 85413.10, -187500.02, -187500.02, -187500.02, -187500.02, -187500.02, 187500.00, 0.000, 0.000, 0.000, 13:46:24.395
165, 50770.33, 86076.74, -187500.02, -187500.02, -187500.02, -187500.02, -187500.02, 187500.00, 0.304, 0.970, -0.108, 13:46:24.396
166, 52517.16, 87644.61, -187500.02, -187500.02, -187500.02, -187500.02, -187500.02, 187500.00, 0.000, 0.000, 0.000, 13:46:24.399
167, 51953.41, 87118.52, -187500.02, -187500.02, -187500.02, -187500.02, -187500.02, 187500.00, 0.000, 0.000, 0.000, 13:46:24.400
168, 50129.78, 85477.78, -187500.02, -187500.02, -187500.02, -187500.02, -187500.02, 187500.00, 0.000, 0.000, 0.000, 13:46:24.400
169, 50561.68, 85862.95, -187500.02, -187500.02, -187500.02, -187500.02, -187500.02, 187500.00, 0.000, 0.000, 0.000, 13:46:24.400
170, 52273.80, 87405.17, -187500.02, -187500.02, -187500.02, -187500.02, -187500.02, 187500.00, 0.000, 0.000, 0.000, 13:46:24.401
171, 52329.03, 87427.59, -187500.02, -187500.02, -187500.02, -187500.02, -187500.02, 187500.00, 0.000, 0.000, 0.000, 13:46:24.401
172, 50309.33, 85625.87, -187500.02, -187500.02, -187500.02, -187500.02, -187500.02, 187500.00, 0.000, 0.000, 0.000, 13:46:24.401
173, 50358.61, 85694.64, -187500.02, -187500.02, -187500.02, -187500.02, -187500.02, 187500.00, 0.000, 0.000, 0.000, 13:46:24.402
174, 51952.65, 87132.20, -187500.02, -187500.02, -187500.02, -187500.02, -187500.02, 187500.00, 0.000, 0.000, 0.000, 13:46:24.402
175, 52600.74, 87680.75, -187500.02, -187500.02, -187500.02, -187500.02, -187500.02, 187500.00, 0.298, 0.970, -0.104, 13:46:24.402
176, 50557.07, 85849.92, -187500.02, -187500.02, -187500.02, -187500.02, -187500.02, 187500.00, 0.000, 0.000, 0.000, 13:46:24.403
177, 50213.08, 85559.48, -187500.02, -187500.02, -187500.02, -187500.02, -187500.02, 187500.00, 0.000, 0.000, 0.000, 13:46:24.403
178, 51597.95, 86821.46, -187500.02, -187500.02, -187500.02, -187500.02, -187500.02, 187500.00, 0.000, 0.000, 0.000, 13:46:24.403
179, 52724.25, 87794.27, -187500.02, -187500.02, -187500.02, -187500.02, -187500.02, 187500.00, 0.000, 0.000, 0.000, 13:46:24.404
180, 50868.72, 86125.09, -187500.02, -187500.02, -187500.02, -187500.02, -187500.02, 187500.00, 0.000, 0.000, 0.000, 13:46:24.404
181, 50114.44, 85467.79, -187500.02, -187500.02, -187500.02, -187500.02, -187500.02, 187500.00, 0.000, 0.000, 0.000, 13:46:24.404
182, 51311.98, 86540.03, -187500.02, -187500.02, -187500.02, -187500.02, -187500.02, 187500.00, 0.000, 0.000, 0.000, 13:46:24.405
183, 52778.23, 87837.23, -187500.02, -187500.02, -187500.02, -187500.02, -187500.02, 187500.00, 0.000, 0.000, 0.000, 13:46:24.405
184, 51248.32, 86476.57, -187500.02, -187500.02, -187500.02, -187500.02, -187500.02, 187500.00, 0.000, 0.000, 0.000, 13:46:24.405
185, 50079.86, 85446.02, -187500.02, -187500.02, -187500.02, -187500.02, -187500.02, 187500.00, 0.298, 0.974, -0.112, 13:46:24.407
186, 51011.91, 86280.68, -187500.02, -187500.02, -187500.02, -187500.02, -187500.02, 187500.00, 0.000, 0.000, 0.000, 13:46:24.407
187, 52681.70, 87748.16, -187500.02, -187500.02, -187500.02, -187500.02, -187500.02, 187500.00, 0.000, 0.000, 0.000, 13:46:24.408
188, 51664.31, 86827.54, -187500.02, -187500.02, -187500.02, -187500.02, -187500.02, 187500.00, 0.000, 0.000, 0.000, 13:46:24.408
189, 50097.03, 85461.34, -187500.02, -187500.02, -187500.02, -187500.02, -187500.02, 187500.00, 0.000, 0.000, 0.000, 13:46:24.408
190, 50745.79, 86048.55, -187500.02, -187500.02, -187500.02, -187500.02, -187500.02, 187500.00, 0.000, 0.000, 0.000, 13:46:24.408
191, 52479.52, 87563.31, -187500.02, -187500.02, -187500.02, -187500.02, -187500.02, 187500.00, 0.000, 0.000, 0.000, 13:46:24.409
192, 52042.97, 87150.03, -187500.02, -187500.02, -187500.02, -187500.02, -187500.02, 187500.00, 0.000, 0.000, 0.000, 13:46:24.409
193, 50166.01, 85526.24, -187500.02, -187500.02, -187500.02, -187500.02, -187500.02, 187500.00, 0.000, 0.000, 0.000, 13:46:24.409
194, 50513.13, 85846.86, -187500.02, -187500.02, -187500.02, -187500.02, -187500.02, 187500.00, 0.000, 0.000, 0.000, 13:46:24.410
195, 52216.15, 87325.11, -187500.02, -187500.02, -187500.02, -187500.02, -187500.02, 187500.00, 0.302, 0.966, -0.110, 13:46:24.410
196, 52381.33, 87444.27, -187500.02, -187500.02, -187500.02, -187500.02, -187500.02, 187500.00, 0.000, 0.000, 0.000, 13:46:24.410
197, 50356.45, 85686.64, -187500.02, -187500.02, -187500.02, -187500.02, -187500.02, 187500.00, 0.000, 0.000, 0.000, 13:46:24.411
198, 50349.25, 85705.50, -187500.02, -187500.02, -187500.02, -187500.02, -187500.02, 187500.00, 0.000, 0.000, 0.000, 13:46:24.411
199, 51905.46, 87066.55, -187500.02, -187500.02, -187500.02, -187500.02, -187500.02, 187500.00, 0.000, 0.000, 0.000, 13:46:24.412
200, 52625.26, 87665.20, -187500.02, -187500.02, -187500.02, -187500.02, -187500.02, 187500.00, 0.000, 0.000, 0.000, 13:46:24.412
201, 50605.11, 85894.53, -187500.02, -187500.02, -187500.02, -187500.02, -187500.02, 187500.00, 0.000, 0.000, 0.000, 13:46:24.412
202, 50197.84, 85563.99, -187500.02, -187500.02, -187500.02, -187500.02, -187500.02, 187500.00, 0.000, 0.000, 0.000, 13:46:24.413
203, 51561.32, 86772.35, -187500.02, -187500.02, -187500.02, -187500.02, -187500.02, 187500.00, 0.000, 0.000, 0.000, 13:46:24.413
204, 52738.96, 87787.03, -187500.02, -187500.02, -187500.02, -187500.02, -187500.02, 187500.00, 0.000, 0.000, 0.000, 13:46:24.413
205, 50924.38, 86188.23, -187500.02, -187500.02, -187500.02, -187500.02, -187500.02, 187500.00, 0.304, 0.968, -0.112, 13:46:24.414
206, 50098.59, 85486.23, -187500.02, -187500.02, -187500.02, -187500.02, -187500.02, 187500.00, 0.000, 0.000, 0.000, 13:46:24.414
207, 51238.13, 86493.96, -187500.02, -187500.02, -187500.02, -187500.02, -187500.02, 187500.00, 0.000, 0.000, 0.000, 13:46:24.415
208, 52764.11, 87805.74, -187500.02, -187500.02, -187500.02, -187500.02, -187500.02, 187500.00, 0.000, 0.000, 0.000, 13:46:24.415
209, 51331.74, 86530.87, -187500.02, -187500.02, -187500.02, -187500.02, -187500.02, 187500.00, 0.000, 0.000, 0.000, 13:46:24.416
210, 50057.80, 85448.23, -187500.02, -187500.02, -187500.02, -187500.02, -187500.02, 187500.00, 0.000, 0.000, 0.000, 13:46:24.416
211, 50927.40, 86248.34, -187500.02, -187500.02, -187500.02, -187500.02, -187500.02, 187500.00, 0.000, 0.000, 0.000, 13:46:24.416
212, 52633.89, 87733.97, -187500.02, -187500.02, -187500.02, -187500.02, -187500.02, 187500.00, 0.000, 0.000, 0.000, 13:46:24.417
213, 51713.20, 86891.40, -187500.02, -187500.02, -187500.02, -187500.02, -187500.02, 187500.00, 0.000, 0.000, 0.000, 13:46:24.417
214, 50071.55, 85460.41, -187500.02, -187500.02, -187500.02, -187500.02, -187500.02, 187500.00, 0.300, 0.970, -0.114, 13:46:24.418
215, 50697.46, 86006.85, -187500.02, -187500.02, -187500.02, -187500.02, -187500.02, 187500.00, 0.000, 0.000, 0.000, 13:46:24.418
216, 52457.02, 87553.28, -187500.02, -187500.02, -187500.02, -187500.02, -187500.02, 187500.00, 0.000, 0.000, 0.000, 13:46:24.419
217, 52113.98, 87241.38, -187500.02, -187500.02, -187500.02, -187500.02, -187500.02, 187500.00, 0.000, 0.000, 0.000, 13:46:24.419
218, 50208.25, 85565.96, -187500.02, -187500.02, -187500.02, -187500.02, -187500.02, 187500.00, 0.000, 0.000, 0.000, 13:46:24.419
219, 50511.68, 85824.13, -187500.02, -187500.02, -187500.02, -187500.02, -187500.02, 187500.00, 0.000, 0.000, 0.000, 13:46:24.420
220, 52168.32, 87292.73, -187500.02, -187500.02, -187500.02, -187500.02, -187500.02, 187500.00, 0.000, 0.000, 0.000, 13:46:24.420
221, 52444.34, 87515.81, -187500.02, -187500.02, -187500.02, -187500.02, -187500.02, 187500.00, 0.000, 0.000, 0.000, 13:46:24.420
222, 50407.34, 85733.17, -187500.02, -187500.02, -187500.02, -187500.02, -187500.02, 187500.00, 0.000, 0.000, 0.000, 13:46:24.421
223, 50323.74, 85680.20, -187500.02, -187500.02, -187500.02, -187500.02, -187500.02, 187500.00, 0.000, 0.000, 0.000, 13:46:24.421
224, 51832.55, 87021.75, -187500.02, -187500.02, -187500.02, -187500.02, -187500.02, 187500.00, 0.300, 0.968, -0.110, 13:46:24.422
225, 52634.42, 87711.20, -187500.02, -187500.02, -187500.02, -187500.02, -187500.02, 187500.00, 0.000, 0.000, 0.000, 13:46:24.923
226, 50674.15, 85956.27, -187500.02, -187500.02, -187500.02, -187500.02, -187500.02, 187500.00, 0.000, 0.000, 0.000, 13:46:24.924
227, 50221.15, 85567.80, -187500.02, -187500.02, -187500.02, -187500.02, -187500.02, 187500.00, 0.000, 0.000, 0.000, 13:46:24.924
228, 51531.59, 86745.51, -187500.02, -187500.02, -187500.02, -187500.02, -187500.02, 187500.00, 0.000, 0.000, 0.000, 13:46:24.925
229, 52788.29, 87834.48, -187500.02, -187500.02, -187500.02, -187500.02, -187500.02, 187500.00, 0.000, 0.000, 0.000, 13:46:24.925
230, 51030.28, 86282.60, -187500.02, -187500.02, -187500.02, -187500.02, -187500.02, 187500.00, 0.000, 0.000, 0.000, 13:46:24.926
231, 50114.53, 85495.38, -187500.02, -187500.02, -187500.02, -187500.02, -187500.02, 187500.00, 0.000, 0.000, 0.000, 13:46:24.926
232, 51188.69, 86452.41, -187500.02, -187500.02, -187500.02, -187500.02, -187500.02, 187500.00, 0.000, 0.000, 0.000, 13:46:24.926
233, 52760.64, 87809.61, -187500.02, -187500.02, -187500.02, -187500.02, -187500.02, 187500.00, 0.000, 0.000, 0.000, 13:46:24.926
234, 51427.20, 86612.80, -187500.02, -187500.02, -187500.02, -187500.02, -187500.02, 187500.00, 0.304, 0.968, -0.116, 13:46:24.927
235, 50110.17, 85474.88, -187500.02, -187500.02, -187500.02, -187500.02, -187500.02, 187500.00, 0.000, 0.000, 0.000, 13:46:24.927
236, 50933.61, 86214.63, -187500.02, -187500.02, -187500.02, -187500.02, -187500.02, 187500.00, 0.000, 0.000, 0.000, 13:46:24.927
237, 52625.91, 87705.98, -187500.02, -187500.02, -187500.02, -187500.02, -187500.02, 187500.00, 0.000, 0.000, 0.000, 13:46:24.928
238, 51809.31, 86975.84, -187500.02, -187500.02, -187500.02, -187500.02, -187500.02, 187500.00, 0.000, 0.000, 0.000, 13:46:24.928
239, 50141.44, 85518.22, -187500.02, -187500.02, -187500.02, -187500.02, -187500.02, 187500.00, 0.000, 0.000, 0.000, 13:46:24.928
240, 50677.53, 85998.45, -187500.02, -187500.02, -187500.02, -187500.02, -187500.02, 187500.00, 0.000, 0.000, 0.000, 13:46:24.929
241, 52413.27, 87505.29, -187500.02, -187500.02, -187500.02, -187500.02, -187500.02, 187500.00, 0.000, 0.000, 0.000, 13:46:24.929
242, 52201.07, 87296.37, -187500.02, -187500.02, -187500.02, -187500.02, -187500.02, 187500.00, 0.000, 0.000, 0.000, 13:46:24.930
243, 50236.24, 85600.67, -187500.02, -187500.02, -187500.02, -187500.02, -187500.02, 187500.00, 0.000, 0.000, 0.000, 13:46:24.930
244, 50450.70, 85805.86, -187500.02, -187500.02, -187500.02, -187500.02, -187500.02, 187500.00, 0.304, 0.970, -0.124, 13:46:24.930
245, 52104.11, 87254.75, -187500.02, -187500.02, -187500.02, -187500.02, -187500.02, 187500.00, 0.000, 0.000, 0.000, 13:46:24.931
246, 52483.01, 87565.03, -187500.02, -187500.02, -187500.02, -187500.02, -187500.02, 187500.00, 0.000, 0.000, 0.000, 13:46:24.932
247, 50433.31, 85775.53, -187500.02, -187500.02, -187500.02, -187500.02, -187500.02, 187500.00, 0.000, 0.000, 0.000, 13:46:24.933
248, 50308.72, 85658.95, -187500.02, -187500.02, -187500.02, -187500.02, -187500.02, 187500.00, 0.000, 0.000, 0.000, 13:46:24.933
249, 51817.76, 86976.70, -187500.02, -187500.02, -187500.02, -187500.02, -187500.02, 187500.00, 0.000, 0.000, 0.000, 13:46:24.934
250, 52725.08, 87752.30, -187500.02, -187500.02, -187500.02, -187500.02, -187500.02, 187500.00, 0.000, 0.000, 0.000, 13:46:24.934
251, 50743.13, 86029.42, -187500.02, -187500.02, -187500.02, -187500.02, -187500.02, 187500.00, 0.000, 0.000, 0.000, 13:46:24.934
252, 50179.53, 85551.74, -187500.02, -187500.02, -187500.02, -187500.02, -187500.02, 187500.00, 0.000, 0.000, 0.000, 13:46:24.935
253, 51457.89, 86681.54, -187500.02, -187500.02, -187500.02, -187500.02, -187500.02, 187500.00, 0.000, 0.000, 0.000, 13:46:24.935
254, 52794.59, 87830.41, -187500.02, -187500.02, -187500.02, -187500.02, -187500.02, 187500.00, 0.308, 0.968, -0.116, 13:46:24.936
255, 51080.82, 86328.23, -187500.02, -187500.02, -187500.02, -187500.02, -187500.02, 187500.00, 0.000, 0.000, 0.000, 13:46:24.936
0, 50085.21, 85482.48, -187500.02, -187500.02, -187500.02, -187500.02, -187500.02, 187500.00, 0.000, 0.000, 0.000, 13:46:24.936
1, 51127.33, 86407.10, -187500.02, -187500.02, -187500.02, -187500.02, -187500.02, 187500.00, 0.000, 0.000, 0.000, 13:46:24.937
2, 52732.66, 87801.29, -187500.02, -187500.02, -187500.02, -187500.02, -187500.02, 187500.00, 0.000, 0.000, 0.000, 13:46:24.937
3, 51472.82, 86682.54, -187500.02, -187500.02, -187500.02, -187500.02, -187500.02, 187500.00, 0.000, 0.000, 0.000, 13:46:24.937
4, 50053.24, 85453.48, -187500.02, -187500.02, -187500.02, -187500.02, -187500.02, 187500.00, 0.000, 0.000, 0.000, 13:46:24.938
5, 50847.78, 86149.32, -187500.02, -187500.02, -187500.02, -187500.02, -187500.02, 187500.00, 0.000, 0.000, 0.000, 13:46:24.938
6, 52588.38, 87662.69, -187500.02, -187500.02, -187500.02, -187500.02, -187500.02, 187500.00, 0.000, 0.000, 0.000, 13:46:24.938
7, 51890.11, 87032.68, -187500.02, -187500.02, -187500.02, -187500.02, -187500.02, 187500.00, 0.000, 0.000, 0.000, 13:46:24.939
8, 50125.13, 85501.70, -187500.02, -187500.02, -187500.02, -187500.02, -187500.02, 187500.00, 0.304, 0.972, -0.110, 13:46:24.939
9, 50617.40, 85941.45, -187500.02, -187500.02, -187500.02, -187500.02, -187500.02, 187500.00, 0.000, 0.000, 0.000, 13:46:24.939
10, 52353.19, 87461.88, -187500.02, -187500.02, -187500.02, -187500.02, -187500.02, 187500.00, 0.000, 0.000, 0.000, 13:46:24.940
11, 52259.96, 87360.85, -187500.02, -187500.02, -187500.02, -187500.02, -187500.02, 187500.00, 0.000, 0.000, 0.000, 13:46:24.940
12, 50257.45, 85638.67, -187500.02, -187500.02, -187500.02, -187500.02, -187500.02, 187500.00, 0.000, 0.000, 0.000, 13:46:24.940
13, 50392.09, 85787.73, -187500.02, -187500.02, -187500.02, -187500.02, -187500.02, 187500.00, 0.000, 0.000, 0.000, 13:46:24.941
14, 52054.37, 87216.80, -187500.02, -187500.02, -187500.02, -187500.02, -187500.02, 187500.00, 0.000, 0.000, 0.000, 13:46:24.941
15, 52571.55, 87618.81, -187500.02, -187500.02, -187500.02, -187500.02, -187500.02, 187500.00, 0.000, 0.000, 0.000, 13:46:24.942
16, 50511.90, 85826.47, -187500.02, -187500.02, -187500.02, -187500.02, -187500.02, 187500.00, 0.000, 0.000, 0.000, 13:46:24.942
17, 50264.42, 85640.44, -187500.02, -187500.02, -187500.02, -187500.02, -187500.02, 187500.00, 0.302, 0.976, -0.108, 13:46:24.942
18, 51714.09, 86918.48, -187500.02, -187500.02, -187500.02, -187500.02, -187500.02, 187500.00, 0.000, 0.000, 0.000, 13:46:24.943
19, 52739.03, 87776.46, -187500.02, -187500.02, -187500.02, -187500.02, -187500.02, 187500.00, 0.000, 0.000, 0.000, 13:46:24.943
20, 50792.35, 86078.71, -187500.02, -187500.02, -187500.02, -187500.02, -187500.02, 187500.00, 0.000, 0.000, 0.000, 13:46:24.943
21, 50124.03, 85539.12, -187500.02, -187500.02, -187500.02, -187500.02, -187500.02, 187500.00, 0.000, 0.000, 0.000, 13:46:24.944
22, 51401.39, 86639.52, -187500.02, -187500.02, -187500.02, -187500.02, -187500.02, 187500.00, 0.000, 0.000, 0.000, 13:46:24.944
23, 52821.66, 87836.59, -187500.02, -187500.02, -187500.02, -187500.02, -187500.02, 187500.00, 0.000, 0.000, 0.000, 13:46:24.944
24, 51196.67, 86409.23, -187500.02, -187500.02, -187500.02, -187500.02, -187500.02, 187500.00, 0.000, 0.000, 0.000, 13:46:24.945
25, 50105.99, 85484.45, -187500.02, -187500.02, -187500.02, -187500.02, -187500.02, 187500.00, 0.000, 0.000, 0.000, 13:46:24.945
26, 51076.91, 86349.39, -187500.02, -187500.02, -187500.02, -187500.02, -187500.02, 187500.00, 0.000, 0.000, 0.000, 13:46:24.946
27, 52736.97, 87769.66, -187500.02, -187500.02, -187500.02, -187500.02, -187500.02, 187500.00, 0.302, 0.974, -0.108, 13:46:24.946
28, 51580.31, 86753.02, -187500.02, -187500.02, -187500.02, -187500.02, -187500.02, 187500.00, 0.000, 0.000, 0.000, 13:46:24.947
29, 50075.91, 85479.17, -187500.02, -187500.02, -187500.02, -187500.02, -187500.02, 187500.00, 0.000, 0.000, 0.000, 13:46:24.947
30, 50805.76, 86125.25, -187500.02, -187500.02, -187500.02, -187500.02, -187500.02, 187500.00, 0.000, 0.000, 0.000, 13:46:24.947
31, 52562.02, 87634.88, -187500.02, -187500.02, -187500.02, -187500.02, -187500.02, 187500.00, 0.000, 0.000, 0.000, 13:46:24.948
32, 51998.52, 87107.27, -187500.02, -187500.02, -187500.02, -187500.02, -187500.02, 187500.00, 0.000, 0.000, 0.000, 13:46:24.948
33, 50173.32, 85539.32, -187500.02, -187500.02, -187500.02, -187500.02, -187500.02, 187500.00, 0.000, 0.000, 0.000, 13:46:24.948
34, 50573.19, 85906.89, -187500.02, -187500.02, -187500.02, -187500.02, -187500.02, 187500.00, 0.000, 0.000, 0.000, 13:46:24.949
35, 52296.51, 87392.66, -187500.02, -187500.02, -187500.02, -187500.02, -187500.02, 187500.00, 0.000, 0.000, 0.000, 13:46:24.949
36, 52330.93, 87394.91, -187500.02, -187500.02, -187500.02, -187500.02, -187500.02, 187500.00, 0.000, 0.000, 0.000, 13:46:24.949
37, 50322.85, 85668.09, -187500.02, -187500.02, -187500.02, -187500.02, -187500.02, 187500.00, 0.308, 0.972, -0.116, 13:46:24.950
38, 50379.29, 85756.29, -187500.02, -187500.02, -187500.02, -187500.02, -187500.02, 187500.00, 0.000, 0.000, 0.000, 13:46:24.950
39, 51963.31, 87146.23, -187500.02, -187500.02, -187500.02, -187500.02, -187500.02, 187500.00, 0.000, 0.000, 0.000, 13:46:24.950
40, 52603.67, 87651.23, -187500.02, -187500.02, -187500.02, -187500.02, -187500.02, 187500.00, 0.000, 0.000, 0.000, 13:46:24.951
41, 50573.50, 85872.59, -187500.02, -187500.02, -187500.02, -187500.02, -187500.02, 187500.00, 0.000, 0.000, 0.000, 13:46:24.951
42, 50249.25, 85617.59, -187500.02, -187500.02, -187500.02, -187500.02, -187500.02, 187500.00, 0.000, 0.000, 0.000, 13:46:24.952
43, 51664.40, 86859.30, -187500.02, -187500.02, -187500.02, -187500.02, -187500.02, 187500.00, 0.000, 0.000, 0.000, 13:46:24.952
44, 52754.68, 87788.95, -187500.02, -187500.02, -187500.02, -187500.02, -187500.02, 187500.00, 0.000, 0.000, 0.000, 13:46:24.952
45, 50856.83, 86126.52, -187500.02, -187500.02, -187500.02, -187500.02, -187500.02, 187500.00, 0.000, 0.000, 0.000, 13:46:24.952
46, 50118.49, 85503.51, -187500.02, -187500.02, -187500.02, -187500.02, -187500.02, 187500.00, 0.000, 0.000, 0.000, 13:46:24.953
47, 51327.14, 86564.93, -187500.02, -187500.02, -187500.02, -187500.02, -187500.02, 187500.00, 0.310, 0.964, -0.102, 13:46:24.953
48, 52786.17, 87819.42, -187500.02, -187500.02, -187500.02, -187500.02, -187500.02, 187500.00, 0.000, 0.000, 0.000, 13:46:24.954
49, 51245.84, 86456.59, -187500.02, -187500.02, -187500.02, -187500.02, -187500.02, 187500.00, 0.000, 0.000, 0.000, 13:46:24.954
50, 50096.67, 85473.65, -187500.02, -187500.02, -187500.02, -187500.02, -187500.02, 187500.00, 0.000, 0.000, 0.000, 13:46:24.954
51, 51049.24, 86311.99, -187500.02, -187500.02, -187500.02, -187500.02, -187500.02, 187500.00, 0.000, 0.000, 0.000, 13:46:24.955
52, 52735.77, 87775.81, -187500.02, -187500.02, -187500.02, -187500.02, -187500.02, 187500.00, 0.000, 0.000, 0.000, 13:46:24.955
53, 51653.76, 86815.42, -187500.02, -187500.02, -187500.02, -187500.02, -187500.02, 187500.00, 0.000, 0.000, 0.000, 13:46:24.959
54, 50087.82, 85469.67, -187500.02, -187500.02, -187500.02, -187500.02, -187500.02, 187500.00, 0.000, 0.000, 0.000, 13:46:24.959
55, 50771.65, 86080.99, -187500.02, -187500.02, -187500.02, -187500.02, -187500.02, 187500.00, 0.000, 0.000, 0.000, 13:46:24.959
56, 52545.33, 87602.27, -187500.02, -187500.02, -187500.02, -187500.02, -187500.02, 187500.00, 0.000, 0.000, 0.000, 13:46:24.960
57, 52073.15, 87153.56, -187500.02, -187500.02, -187500.02, -187500.02, -187500.02, 187500.00, 0.308, 0.968, -0.106, 13:46:24.963
58, 50196.05, 85542.27, -187500.02, -187500.02, -187500.02, -187500.02, -187500.02, 187500.00, 0.000, 0.000, 0.000, 13:46:24.963
59, 50556.43, 85893.05, -187500.02, -187500.02, -187500.02, -187500.02, -187500.02, 187500.00, 0.000, 0.000, 0.000, 13:46:24.964
60, 52256.48, 87385.51, -187500.02, -187500.02, -187500.02, -187500.02, -187500.02, 187500.00, 0.000, 0.000, 0.000, 13:46:24.964
61, 52384.06, 87475.16, -187500.02, -187500.02, -187500.02, -187500.02, -187500.02, 187500.00, 0.000, 0.000, 0.000, 13:46:24.965
62, 50318.54, 85693.19, -187500.02, -187500.02, -187500.02, -187500.02, -187500.02, 187500.00, 0.000, 0.000, 0.000, 13:46:24.965
63, 50345.38, 85723.59, -187500.02, -187500.02, -187500.02, -187500.02, -187500.02, 187500.00, 0.000, 0.000, 0.000, 13:46:24.965
64, 51967.20, 87114.83, -187500.02, -187500.02, -187500.02, -187500.02, -187500.02, 187500.00, 0.000, 0.000, 0.000, 13:46:24.966
65, 52667.04, 87696.48, -187500.02, -187500.02, -187500.02, -187500.02, -187500.02, 187500.00, 0.000, 0.000, 0.000, 13:46:24.966
66, 50621.13, 85904.57, -187500.02, -187500.02, -187500.02, -187500.02, -187500.02, 187500.00, 0.000, 0.000, 0.000, 13:46:24.966
67, 50220.97, 85586.15, -187500.02, -187500.02, -187500.02, -187500.02, -187500.02, 187500.00, 0.306, 0.970, -0.100, 13:46:24.966
68, 51609.17, 86810.73, -187500.02, -187500.02, -187500.02, -187500.02, -187500.02, 187500.00, 0.000, 0.000, 0.000, 13:46:24.967
69, 52795.22, 87817.85, -187500.02, -187500.02, -187500.02, -187500.02, -187500.02, 187500.00, 0.000, 0.000, 0.000, 13:46:24.967
70, 50944.59, 86191.66, -187500.02, -187500.02, -187500.02, -187500.02, -187500.02, 187500.00, 0.000, 0.000, 0.000, 13:46:24.967
71, 50149.36, 85517.80, -187500.02, -187500.02, -187500.02, -187500.02, -187500.02, 187500.00, 0.000, 0.000, 0.000, 13:46:24.968
72, 51292.29, 86537.55, -187500.02, -187500.02, -187500.02, -187500.02, -187500.02, 187500.00, 0.000, 0.000, 0.000, 13:46:24.968
73, 52792.38, 87844.50, -187500.02, -187500.02, -187500.02, -187500.02, -187500.02, 187500.00, 0.000, 0.000, 0.000, 13:46:24.968
74, 51329.71, 86540.37, -187500.02, -187500.02, -187500.02, -187500.02, -187500.02, 187500.00, 0.000, 0.000, 0.000, 13:46:24.969
75, 50111.45, 85472.46, -187500.02, -187500.02, -187500.02, -187500.02, -187500.02, 187500.00, 0.000, 0.000, 0.000, 13:46:24.969
76, 51025.21, 86270.04, -187500.02, -187500.02, -187500.02, -187500.02, -187500.02, 187500.00, 0.000, 0.000, 0.000, 13:46:24.969
77, 52723.94, 87752.27, -187500.02, -187500.02, -187500.02, -187500.02, -187500.02, 187500.00, 0.310, 0.974, -0.108, 13:46:24.969
78, 51769.12, 86902.38, -187500.02, -187500.02, -187500.02, -187500.02, -187500.02, 187500.00, 0.000, 0.000, 0.000, 13:46:24.970
79, 50131.30, 85498.37, -187500.02, -187500.02, -187500.02, -187500.02, -187500.02, 187500.00, 0.000, 0.000, 0.000, 13:46:24.970
80, 50739.02, 86048.91, -187500.02, -187500.02, -187500.02, -187500.02, -187500.02, 187500.00, 0.000, 0.000, 0.000, 13:46:24.970
81, 52490.48, 87576.19, -187500.02, -187500.02, -187500.02, -187500.02, -187500.02, 187500.00, 0.000, 0.000, 0.000, 13:46:24.971
82, 52120.15, 87227.63, -187500.02, -187500.02, -187500.02, -187500.02, -187500.02, 187500.00, 0.000, 0.000, 0.000, 13:46:24.971
83, 50195.98, 85570.21, -187500.02, -187500.02, -187500.02, -187500.02, -187500.02, 187500.00, 0.000, 0.000, 0.000, 13:46:24.971
84, 50499.59, 85849.70, -187500.02, -187500.02, -187500.02, -187500.02, -187500.02, 187500.00, 0.000, 0.000, 0.000, 13:46:24.971
85, 52204.82, 87325.22, -187500.02, -187500.02, -187500.02, -187500.02, -187500.02, 187500.00, 0.000, 0.000, 0.000, 13:46:24.972
86, 52460.30, 87512.09, -187500.02, -187500.02, -187500.02, -187500.02, -187500.02, 187500.00, 0.308, 0.972, -0.106, 13:46:24.972
87, 50410.60, 85725.27, -187500.02, -187500.02, -187500.02, -187500.02, -187500.02, 187500.00, 0.000, 0.000, 0.000, 13:46:24.972
88, 50332.91, 85693.16, -187500.02, -187500.02, -187500.02, -187500.02, -187500.02, 187500.00, 0.000, 0.000, 0.000, 13:46:24.973
89, 51868.50, 87056.20, -187500.02, -187500.02, -187500.02, -187500.02, -187500.02, 187500.00, 0.000, 0.000, 0.000, 13:46:24.973
90, 52698.66, 87730.39, -187500.02, -187500.02, -187500.02, -187500.02, -187500.02, 187500.00, 0.000, 0.000, 0.000, 13:46:25.325
91, 50700.50, 85965.50, -187500.02, -187500.02, -187500.02, -187500.02, -187500.02, 187500.00, 0.000, 0.000, 0.000, 13:46:25.326
92, 50208.52, 85573.92, -187500.02, -187500.02, -187500.02, -187500.02, -187500.02, 187500.00, 0.000, 0.000, 0.000, 13:46:25.326
93, 51540.13, 86757.35, -187500.02, -187500.02, -187500.02, -187500.02, -187500.02, 187500.00, 0.000, 0.000, 0.000, 13:46:25.326
94, 52806.71, 87838.62, -187500.02, -187500.02, -187500.02, -187500.02, -187500.02, 187500.00, 0.000, 0.000, 0.000, 13:46:25.328
95, 51014.37, 86264.81, -187500.02, -187500.02, -187500.02, -187500.02, -187500.02, 187500.00, 0.000, 0.000, 0.000, 13:46:25.328
96, 50106.66, 85496.76, -187500.02, -187500.02, -187500.02, -187500.02, -187500.02, 187500.00, 0.310, 0.968, -0.106, 13:46:25.328
97, 51228.43, 86485.31, -187500.02, -187500.02, -187500.02, -187500.02, -187500.02, 187500.00, 0.000, 0.000, 0.000, 13:46:25.328
98, 52801.12, 87848.19, -187500.02, -187500.02, -187500.02, -187500.02, -187500.02, 187500.00, 0.000, 0.000, 0.000, 13:46:25.329
99, 51429.04, 86615.24, -187500.02, -187500.02, -187500.02, -187500.02, -187500.02, 187500.00, 0.000, 0.000, 0.000, 13:46:25.329
100, 50131.09, 85482.88, -187500.02, -187500.02, -187500.02, -187500.02, -187500.02, 187500.00, 0.000, 0.000, 0.000, 13:46:25.329
101, 50975.97, 86240.41, -187500.02, -187500.02, -187500.02, -187500.02, -187500.02, 187500.00, 0.000, 0.000, 0.000, 13:46:25.330
102, 52684.94, 87734.73, -187500.02, -187500.02, -187500.02, -187500.02, -187500.02, 187500.00, 0.000, 0.000, 0.000, 13:46:25.330
103, 51843.37, 86974.75, -187500.02, -187500.02, -187500.02, -187500.02, -187500.02, 187500.00, 0.000, 0.000, 0.000, 13:46:25.330
104, 50153.49, 85518.20, -187500.02, -187500.02, -187500.02, -187500.02, -187500.02, 187500.00, 0.000, 0.000, 0.000, 13:46:25.331
105, 50717.07, 86020.26, -187500.02, -187500.02, -187500.02, -187500.02, -187500.02, 187500.00, 0.000, 0.000, 0.000, 13:46:25.331
106, 52455.05, 87538.57, -187500.02, -187500.02, -187500.02, -187500.02, -187500.02, 187500.00, 0.314, 0.966, -0.100, 13:46:25.331
107, 52206.70, 87299.36, -187500.02, -187500.02, -187500.02, -187500.02, -187500.02, 187500.00, 0.000, 0.000, 0.000, 13:46:25.332
108, 50252.84, 85601.52, -187500.02, -187500.02, -187500.02, -187500.02, -187500.02, 187500.00, 0.000, 0.000, 0.000, 13:46:25.333
109, 50501.55, 85822.11, -187500.02, -187500.02, -187500.02, -187500.02, -187500.02, 187500.00, 0.000, 0.000, 0.000, 13:46:25.333
110, 52165.86, 87281.46, -187500.02, -187500.02, -187500.02, -187500.02, -187500.02, 187500.00, 0.000, 0.000, 0.000, 13:46:25.333
111, 52527.58, 87569.73, -187500.02, -187500.02, -187500.02, -187500.02, -187500.02, 187500.00, 0.000, 0.000, 0.000, 13:46:25.334
112, 50482.93, 85775.51, -187500.02, -187500.02, -187500.02, -187500.02, -187500.02, 187500.00, 0.000, 0.000, 0.000, 13:46:25.334
113, 50337.51, 85668.45, -187500.02, -187500.02, -187500.02, -187500.02, -187500.02, 187500.00, 0.000, 0.000, 0.000, 13:46:25.334
114, 51820.42, 87000.50, -187500.02, -187500.02, -187500.02, -187500.02, -187500.02, 187500.00, 0.000, 0.000, 0.000, 13:46:25.335
115, 52700.29, 87774.13, -187500.02, -187500.02, -187500.02, -187500.02, -187500.02, 187500.00, 0.000, 0.000, 0.000, 13:46:25.335
116, 50727.21, 86031.37, -187500.02, -187500.02, -187500.02, -187500.02, -187500.02, 187500.00, 0.314, 0.980, -0.110, 13:46:25.336
117, 50229.49, 85578.63, -187500.02, -187500.02, -187500.02, -187500.02, -187500.02, 187500.00, 0.000, 0.000, 0.000, 13:46:25.336
118, 51543.70, 86724.66, -187500.02, -187500.02, -187500.02, -187500.02, -187500.02, 187500.00, 0.000, 0.000, 0.000, 13:46:25.337
119, 52851.32, 87856.77, -187500.02, -187500.02, -187500.02, -187500.02, -187500.02, 187500.00, 0.000, 0.000, 0.000, 13:46:25.337
120, 51124.72, 86338.17, -187500.02, -187500.02, -187500.02, -187500.02, -187500.02, 187500.00, 0.000, 0.000, 0.000, 13:46:25.337
121, 50136.88, 85499.91, -187500.02, -187500.02, -187500.02, -187500.02, -187500.02, 187500.00, 0.000, 0.000, 0.000, 13:46:25.338
122, 51183.57, 86433.88, -187500.02, -187500.02, -187500.02, -187500.02, -187500.02, 187500.00, 0.000, 0.000, 0.000, 13:46:25.338
123, 52784.85, 87821.09, -187500.02, -187500.02, -187500.02, -187500.02, -187500.02, 187500.00, 0.000, 0.000, 0.000, 13:46:25.339
124, 51520.64, 86679.37, -187500.02, -187500.02, -187500.02, -187500.02, -187500.02, 187500.00, 0.000, 0.000, 0.000, 13:46:25.339
125, 50124.86, 85473.88, -187500.02, -187500.02, -187500.02, -187500.02, -187500.02, 187500.00, 0.000, 0.000, 0.000, 13:46:25.340
126, 50916.45, 86194.07, -187500.02, -187500.02, -187500.02, -187500.02, -187500.02, 187500.00, 0.308, 0.978, -0.108, 13:46:25.340
127, 52663.12, 87713.95, -187500.02, -187500.02, -187500.02, -187500.02, -187500.02, 187500.00, 0.000, 0.000, 0.000, 13:46:25.340
128, 51922.95, 87046.88, -187500.02, -187500.02, -187500.02, -187500.02, -187500.02, 187500.00, 0.000, 0.000, 0.000, 13:46:25.341
129, 50156.78, 85531.59, -187500.02, -187500.02, -187500.02, -187500.02, -187500.02, 187500.00, 0.000, 0.000, 0.000, 13:46:25.341
130, 50656.41, 85980.66, -187500.02, -187500.02, -187500.02, -187500.02, -187500.02, 187500.00, 0.000, 0.000, 0.000, 13:46:25.342
131, 52400.18, 87503.12, -187500.02, -187500.02, -187500.02, -187500.02, -187500.02, 187500.00, 0.000, 0.000, 0.000, 13:46:25.342
132, 52276.10, 87360.59, -187500.02, -187500.02, -187500.02, -187500.02, -187500.02, 187500.00, 0.000, 0.000, 0.000, 13:46:25.342
133, 50296.30, 85618.87, -187500.02, -187500.02, -187500.02, -187500.02, -187500.02, 187500.00, 0.000, 0.000, 0.000, 13:46:25.343
134, 50482.33, 85783.58, -187500.02, -187500.02, -187500.02, -187500.02, -187500.02, 187500.00, 0.000, 0.000, 0.000, 13:46:25.343
135, 52121.52, 87232.48, -187500.02, -187500.02, -187500.02, -187500.02, -187500.02, 187500.00, 0.000, 0.000, 0.000, 13:46:25.344
136, 52582.14, 87615.73, -187500.02, -187500.02, -187500.02, -187500.02, -187500.02, 187500.00, 0.306, 0.974, -0.108, 13:46:25.344
137, 50519.50, 85816.52, -187500.02, -187500.02, -187500.02, -187500.02, -187500.02, 187500.00, 0.000, 0.000, 0.000, 13:46:25.345
138, 50294.33, 85646.38, -187500.02, -187500.02, -187500.02, -187500.02, -187500.02, 187500.00, 0.000, 0.000, 0.000, 13:46:25.345
139, 51756.25, 86942.61, -187500.02, -187500.02, -187500.02, -187500.02, -187500.02, 187500.00, 0.000, 0.000, 0.000, 13:46:25.346
140, 52756.29, 87787.44, -187500.02, -187500.02, -187500.02, -187500.02, -187500.02, 187500.00, 0.000, 0.000, 0.000, 13:46:25.346
141, 50813.20, 86075.54, -187500.02, -187500.02, -187500.02, -187500.02, -187500.02, 187500.00, 0.000, 0.000, 0.000, 13:46:25.346
142, 50169.83, 85547.97, -187500.02, -187500.02, -187500.02, -187500.02, -187500.02, 187500.00, 0.000, 0.000, 0.000, 13:46:25.347
143, 51429.86, 86661.20, -187500.02, -187500.02, -187500.02, -187500.02, -187500.02, 187500.00, 0.000, 0.000, 0.000, 13:46:25.347
144, 52828.50, 87861.51, -187500.02, -187500.02, -187500.02, -187500.02, -187500.02, 187500.00, 0.000, 0.000, 0.000, 13:46:25.349
145, 51165.85, 86406.37, -187500.02, -187500.02, -187500.02, -187500.02, -187500.02, 187500.00, 0.302, 0.970, -0.110, 13:46:25.349
146, 50089.39, 85498.70, -187500.02, -187500.02, -187500.02, -187500.02, -187500.02, 187500.00, 0.000, 0.000, 0.000, 13:46:25.350
147, 51092.20, 86395.39, -187500.02, -187500.02, -187500.02, -187500.02, -187500.02, 187500.00, 0.000, 0.000, 0.000, 13:46:25.350
148, 52740.44, 87814.15, -187500.02, -187500.02, -187500.02, -187500.02, -187500.02, 187500.00, 0.000, 0.000, 0.000, 13:46:25.351
149, 51569.72, 86746.98, -187500.02, -187500.02, -187500.02, -187500.02, -187500.02, 187500.00, 0.000, 0.000, 0.000, 13:46:25.351
150, 50113.88, 85484.27, -187500.02, -187500.02, -187500.02, -187500.02, -187500.02, 187500.00, 0.000, 0.000, 0.000, 13:46:25.352
151, 50848.43, 86142.16, -187500.02, -187500.02, -187500.02, -187500.02, -187500.02, 187500.00, 0.000, 0.000, 0.000, 13:46:25.352
152, 52587.42, 87658.24, -187500.02, -187500.02, -187500.02, -187500.02, -187500.02, 187500.00, 0.000, 0.000, 0.000, 13:46:25.352
153, 51969.73, 87087.35, -187500.02, -187500.02, -187500.02, -187500.02, -187500.02, 187500.00, 0.000, 0.000, 0.000, 13:46:25.359
154, 50175.60, 85518.69, -187500.02, -187500.02, -187500.02, -187500.02, -187500.02, 187500.00, 0.000, 0.000, 0.000, 13:46:25.359
155, 50611.59, 85920.55, -187500.02, -187500.02, -187500.02, -187500.02, -187500.02, 187500.00, 0.308, 0.972, -0.108, 13:46:25.360
156, 52338.93, 87441.05, -187500.02, -187500.02, -187500.02, -187500.02, -187500.02, 187500.00, 0.000, 0.000, 0.000, 13:46:25.360
157, 52327.00, 87406.65, -187500.02, -187500.02, -187500.02, -187500.02, -187500.02, 187500.00, 0.000, 0.000, 0.000, 13:46:25.360
158, 50301.01, 85651.97, -187500.02, -187500.02, -187500.02, -187500.02, -187500.02, 187500.00, 0.000, 0.000, 0.000, 13:46:25.361
159, 50396.12, 85761.25, -187500.02, -187500.02, -187500.02, -187500.02, -187500.02, 187500.00, 0.000, 0.000, 0.000, 13:46:25.361
160, 52008.13, 87179.04, -187500.02, -187500.02, -187500.02, -187500.02, -187500.02, 187500.00, 0.000, 0.000, 0.000, 13:46:25.361
161, 52584.46, 87651.40, -187500.02, -187500.02, -187500.02, -187500.02, -187500.02, 187500.00, 0.000, 0.000, 0.000, 13:46:25.361
162, 50551.33, 85848.84, -187500.02, -187500.02, -187500.02, -187500.02, -187500.02, 187500.00, 0.000, 0.000, 0.000, 13:46:25.362
163, 50263.21, 85615.52, -187500.02, -187500.02, -187500.02, -187500.02, -187500.02, 187500.00, 0.000, 0.000, 0.000, 13:46:25.362
164, 51710.45, 86889.61, -187500.02, -187500.02, -187500.02, -187500.02, -187500.02, 187500.00, 0.000, 0.000, 0.000, 13:46:25.362
165, 52785.41, 87802.55, -187500.02, -187500.02, -187500.02, -187500.02, -187500.02, 187500.00, 0.312, 0.970, -0.112, 13:46:25.363
166, 50872.32, 86120.46, -187500.02, -187500.02, -187500.02, -187500.02, -187500.02, 187500.00, 0.000, 0.000, 0.000, 13:46:25.363
167, 50158.36, 85519.36, -187500.02, -187500.02, -187500.02, -187500.02, -187500.02, 187500.00, 0.000, 0.000, 0.000, 13:46:25.363
168, 51362.54, 86598.77, -187500.02, -187500.02, -187500.02, -187500.02, -187500.02, 187500.00, 0.000, 0.000, 0.000, 13:46:25.364
169, 52804.39, 87854.76, -187500.02, -187500.02, -187500.02, -187500.02, -187500.02, 187500.00, 0.000, 0.000, 0.000, 13:46:25.364
170, 51247.61, 86455.23, -187500.02, -187500.02, -187500.02, -187500.02, -187500.02, 187500.00, 0.000, 0.000, 0.000, 13:46:25.364
171, 50123.32, 85467.57, -187500.02, -187500.02, -187500.02, -187500.02, -187500.02, 187500.00, 0.000, 0.000, 0.000, 13:46:25.365
172, 51084.15, 86332.47, -187500.02, -187500.02, -187500.02, -187500.02, -187500.02, 187500.00, 0.000, 0.000, 0.000, 13:46:25.365
173, 52737.69, 87791.44, -187500.02, -187500.02, -187500.02, -187500.02, -187500.02, 187500.00, 0.000, 0.000, 0.000, 13:46:25.366
174, 51638.25, 86800.29, -187500.02, -187500.02, -187500.02, -187500.02, -187500.02, 187500.00, 0.000, 0.000, 0.000, 13:46:25.366
175, 50096.47, 85463.97, -187500.02, -187500.02, -187500.02, -187500.02, -187500.02, 187500.00, 0.304, 0.970, -0.112, 13:46:25.366
176, 50798.00, 86098.00, -187500.02, -187500.02, -187500.02, -187500.02, -187500.02, 187500.00, 0.000, 0.000, 0.000, 13:46:25.367
177, 52535.36, 87631.64, -187500.02, -187500.02, -187500.02, -187500.02, -187500.02, 187500.00, 0.000, 0.000, 0.000, 13:46:25.367
178, 52068.63, 87168.11, -187500.02, -187500.02, -187500.02, -187500.02, -187500.02, 187500.00, 0.000, 0.000, 0.000, 13:46:25.367
179, 50217.73, 85551.21, -187500.02, -187500.02, -187500.02, -187500.02, -187500.02, 187500.00, 0.000, 0.000, 0.000, 13:46:25.368
180, 50571.65, 85891.23, -187500.02, -187500.02, -187500.02, -187500.02, -187500.02, 187500.00, 0.000, 0.000, 0.000, 13:46:25.368
181, 52276.95, 87395.23, -187500.02, -187500.02, -187500.02, -187500.02, -187500.02, 187500.00, 0.000, 0.000, 0.000, 13:46:25.369
182, 52401.52, 87468.16, -187500.02, -187500.02, -187500.02, -187500.02, -187500.02, 187500.00, 0.000, 0.000, 0.000, 13:46:25.369
183, 50378.68, 85688.38, -187500.02, -187500.02, -187500.02, -187500.02, -187500.02, 187500.00, 0.000, 0.000, 0.000, 13:46:25.369
184, 50386.38, 85718.55, -187500.02, -187500.02, -187500.02, -187500.02, -187500.02, 187500.00, 0.000, 0.000, 0.000, 13:46:25.369
185, 51960.18, 87121.15, -187500.02, -187500.02, -187500.02, -187500.02, -187500.02, 187500.00, 0.306, 0.970, -0.106, 13:46:25.370
186, 52654.14, 87710.55, -187500.02, -187500.02, -187500.02, -187500.02, -187500.02, 187500.00, 0.000, 0.000, 0.000, 13:46:25.370
187, 50629.96, 85927.32, -187500.02, -187500.02, -187500.02, -187500.02, -187500.02, 187500.00, 0.000, 0.000, 0.000, 13:46:25.370
188, 50258.75, 85614.89, -187500.02, -187500.02, -187500.02, -187500.02, -187500.02, 187500.00, 0.000, 0.000, 0.000, 13:46:25.371
189, 51655.73, 86842.47, -187500.02, -187500.02, -187500.02, -187500.02, -187500.02, 187500.00, 0.000, 0.000, 0.000, 13:46:25.371
190, 52835.66, 87841.23, -187500.02, -187500.02, -187500.02, -187500.02, -187500.02, 187500.00, 0.000, 0.000, 0.000, 13:46:25.371
191, 50975.66, 86197.58, -187500.02, -187500.02, -187500.02, -187500.02, -187500.02, 187500.00, 0.000, 0.000, 0.000, 13:46:25.372
192, 50171.35, 85520.09, -187500.02, -187500.02, -187500.02, -187500.02, -187500.02, 187500.00, 0.000, 0.000, 0.000, 13:46:25.372
193, 51337.20, 86559.61, -187500.02, -187500.02, -187500.02, -187500.02, -187500.02, 187500.00, 0.000, 0.000, 0.000, 13:46:25.372
194, 52821.95, 87854.45, -187500.02, -187500.02, -187500.02, -187500.02, -187500.02, 187500.00, 0.000, 0.000, 0.000, 13:46:25.373
195, 51314.42, 86522.41, -187500.02, -187500.02, -187500.02, -187500.02, -187500.02, 187500.00, 0.306, 0.974, -0.108, 13:46:25.373
196, 50096.36, 85465.55, -187500.02, -187500.02, -187500.02, -187500.02, -187500.02, 187500.00, 0.000, 0.000, 0.000, 13:46:25.374
197, 51021.83, 86285.69, -187500.02, -187500.02, -187500.02, -187500.02, -187500.02, 187500.00, 0.000, 0.000, 0.000, 13:46:25.374
198, 52724.81, 87769.24, -187500.02, -187500.02, -187500.02, -187500.02, -187500.02, 187500.00, 0.000, 0.000, 0.000, 13:46:25.374
199, 51749.72, 86897.97, -187500.02, -187500.02, -187500.02, -187500.02, -187500.02, 187500.00, 0.000, 0.000, 0.000, 13:46:25.375
200, 50121.04, 85498.17, -187500.02, -187500.02, -187500.02, -187500.02, -187500.02, 187500.00, 0.000, 0.000, 0.000, 13:46:25.375
201, 50760.68, 86063.89, -187500.02, -187500.02, -187500.02, -187500.02, -187500.02, 187500.00, 0.000, 0.000, 0.000, 13:46:25.375
202, 52515.82, 87591.84, -187500.02, -187500.02, -187500.02, -187500.02, -187500.02, 187500.00, 0.000, 0.000, 0.000, 13:46:25.375
203, 52140.72, 87224.46, -187500.02, -187500.02, -187500.02, -187500.02, -187500.02, 187500.00, 0.000, 0.000, 0.000, 13:46:25.376
204, 50237.69, 85567.05, -187500.02, -187500.02, -187500.02, -187500.02, -187500.02, 187500.00, 0.000, 0.000, 0.000, 13:46:25.376
205, 50539.30, 85856.38, -187500.02, -187500.02, -187500.02, -187500.02, -187500.02, 187500.00, 0.308, 0.978, -0.102, 13:46:25.376
206, 52231.78, 87343.38, -187500.02, -187500.02, -187500.02, -187500.02, -187500.02, 187500.00, 0.000, 0.000, 0.000, 13:46:25.377
207, 52471.72, 87514.59, -187500.02, -187500.02, -187500.02, -187500.02, -187500.02, 187500.00, 0.000, 0.000, 0.000, 13:46:25.377
208, 50443.64, 85729.76, -187500.02, -187500.02, -187500.02, -187500.02, -187500.02, 187500.00, 0.000, 0.000, 0.000, 13:46:25.377
209, 50404.03, 85713.39, -187500.02, -187500.02, -187500.02, -187500.02, -187500.02, 187500.00, 0.000, 0.000, 0.000, 13:46:25.377
210, 51933.32, 87078.77, -187500.02, -187500.02, -187500.02, -187500.02, -187500.02, 187500.00, 0.000, 0.000, 0.000, 13:46:25.808
211, 52706.64, 87741.95, -187500.02, -187500.02, -187500.02, -187500.02, -187500.02, 187500.00, 0.000, 0.000, 0.000, 13:46:25.809
212, 50671.20, 85957.16, -187500.02, -187500.02, -187500.02, -187500.02, -187500.02, 187500.00, 0.000, 0.000, 0.000, 13:46:25.809
213, 50235.34, 85569.34, -187500.02, -187500.02, -187500.02, -187500.02, -187500.02, 187500.00, 0.000, 0.000, 0.000, 13:46:25.809
214, 51617.42, 86780.91, -187500.02, -187500.02, -187500.02, -187500.02, -187500.02, 187500.00, 0.306, 0.978, -0.110, 13:46:25.810
215, 52841.78, 87854.06, -187500.02, -187500.02, -187500.02, -187500.02, -187500.02, 187500.00, 0.000, 0.000, 0.000, 13:46:25.810
216, 51020.02, 86254.06, -187500.02, -187500.02, -187500.02, -187500.02, -187500.02, 187500.00, 0.000, 0.000, 0.000, 13:46:25.810
217, 50132.03, 85503.76, -187500.02, -187500.02, -187500.02, -187500.02, -187500.02, 187500.00, 0.000, 0.000, 0.000, 13:46:25.811
218, 51255.95, 86502.81, -187500.02, -187500.02, -187500.02, -187500.02, -187500.02, 187500.00, 0.000, 0.000, 0.000, 13:46:25.811
219, 52813.80, 87852.03, -187500.02, -187500.02, -187500.02, -187500.02, -187500.02, 187500.00, 0.000, 0.000, 0.000, 13:46:25.811
220, 51440.17, 86602.08, -187500.02, -187500.02, -187500.02, -187500.02, -187500.02, 187500.00, 0.000, 0.000, 0.000, 13:46:25.812
221, 50126.07, 85470.23, -187500.02, -187500.02, -187500.02, -187500.02, -187500.02, 187500.00, 0.000, 0.000, 0.000, 13:46:25.813
222, 50972.64, 86244.78, -187500.02, -187500.02, -187500.02, -187500.02, -187500.02, 187500.00, 0.000, 0.000, 0.000, 13:46:25.813
223, 52676.45, 87744.92, -187500.02, -187500.02, -187500.02, -187500.02, -187500.02, 187500.00, 0.000, 0.000, 0.000, 13:46:25.813
224, 51816.48, 86956.93, -187500.02, -187500.02, -187500.02, -187500.02, -187500.02, 187500.00, 0.306, 0.976, -0.106, 13:46:25.813
225, 50156.46, 85503.89, -187500.02, -187500.02, -187500.02, -187500.02, -187500.02, 187500.00, 0.000, 0.000, 0.000, 13:46:25.814
226, 50722.36, 86024.44, -187500.02, -187500.02, -187500.02, -187500.02, -187500.02, 187500.00, 0.000, 0.000, 0.000, 13:46:25.814
227, 52468.84, 87562.69, -187500.02, -187500.02, -187500.02, -187500.02, -187500.02, 187500.00, 0.000, 0.000, 0.000, 13:46:25.814
228, 52213.74, 87301.58, -187500.02, -187500.02, -187500.02, -187500.02, -187500.02, 187500.00, 0.000, 0.000, 0.000, 13:46:25.815
229, 50257.52, 85591.15, -187500.02, -187500.02, -187500.02, -187500.02, -187500.02, 187500.00, 0.000, 0.000, 0.000, 13:46:25.815
230, 50487.85, 85823.23, -187500.02, -187500.02, -187500.02, -187500.02, -187500.02, 187500.00, 0.000, 0.000, 0.000, 13:46:25.816
231, 52147.11, 87293.13, -187500.02, -187500.02, -187500.02, -187500.02, -187500.02, 187500.00, 0.000, 0.000, 0.000, 13:46:25.816
232, 52483.57, 87556.90, -187500.02, -187500.02, -187500.02, -187500.02, -187500.02, 187500.00, 0.000, 0.000, 0.000, 13:46:25.816
233, 50439.30, 85766.75, -187500.02, -187500.02, -187500.02, -187500.02, -187500.02, 187500.00, 0.000, 0.000, 0.000, 13:46:25.817
234, 50344.29, 85682.82, -187500.02, -187500.02, -187500.02, -187500.02, -187500.02, 187500.00, 0.308, 0.974, -0.104, 13:46:25.817
235, 51840.27, 87009.17, -187500.02, -187500.02, -187500.02, -187500.02, -187500.02, 187500.00, 0.000, 0.000, 0.000, 13:46:25.817
236, 52730.51, 87759.65, -187500.02, -187500.02, -187500.02, -187500.02, -187500.02, 187500.00, 0.000, 0.000, 0.000, 13:46:25.818
237, 50752.18, 86009.11, -187500.02, -187500.02, -187500.02, -187500.02, -187500.02, 187500.00, 0.000, 0.000, 0.000, 13:46:25.818
238, 50217.64, 85558.67, -187500.02, -187500.02, -187500.02, -187500.02, -187500.02, 187500.00, 0.000, 0.000, 0.000, 13:46:25.819
239, 51531.14, 86729.37, -187500.02, -187500.02, -187500.02, -187500.02, -187500.02, 187500.00, 0.000, 0.000, 0.000, 13:46:25.819
240, 52836.57, 87858.09, -187500.02, -187500.02, -187500.02, -187500.02, -187500.02, 187500.00, 0.000, 0.000, 0.000, 13:46:25.820
241, 51095.82, 86314.39, -187500.02, -187500.02, -187500.02, -187500.02, -187500.02, 187500.00, 0.000, 0.000, 0.000, 13:46:25.822
242, 50134.76, 85481.74, -187500.02, -187500.02, -187500.02, -187500.02, -187500.02, 187500.00, 0.000, 0.000, 0.000, 13:46:25.822
243, 51220.14, 86432.78, -187500.02, -187500.02, -187500.02, -187500.02, -187500.02, 187500.00, 0.000, 0.000, 0.000, 13:46:25.823
244, 52815.38, 87820.49, -187500.02, -187500.02, -187500.02, -187500.02, -187500.02, 187500.00, 0.310, 0.976, -0.104, 13:46:25.823
245, 51515.25, 86655.43, -187500.02, -187500.02, -187500.02, -187500.02, -187500.02, 187500.00, 0.000, 0.000, 0.000, 13:46:25.824
246, 50121.26, 85459.37, -187500.02, -187500.02, -187500.02, -187500.02, -187500.02, 187500.00, 0.000, 0.000, 0.000, 13:46:25.824
247, 50930.08, 86189.44, -187500.02, -187500.02, -187500.02, -187500.02, -187500.02, 187500.00, 0.000, 0.000, 0.000, 13:46:25.824
248, 52662.09, 87715.26, -187500.02, -187500.02, -187500.02, -187500.02, -187500.02, 187500.00, 0.000, 0.000, 0.000, 13:46:25.825
249, 51905.24, 87017.69, -187500.02, -187500.02, -187500.02, -187500.02, -187500.02, 187500.00, 0.000, 0.000, 0.000, 13:46:25.825
250, 50154.47, 85495.29, -187500.02, -187500.02, -187500.02, -187500.02, -187500.02, 187500.00, 0.000, 0.000, 0.000, 13:46:25.825
251, 50661.12, 85967.96, -187500.02, -187500.02, -187500.02, -187500.02, -187500.02, 187500.00, 0.000, 0.000, 0.000, 13:46:25.826
252, 52397.25, 87511.21, -187500.02, -187500.02, -187500.02, -187500.02, -187500.02, 187500.00, 0.000, 0.000, 0.000, 13:46:25.826
253, 52245.73, 87347.46, -187500.02, -187500.02, -187500.02, -187500.02, -187500.02, 187500.00, 0.000, 0.000, 0.000, 13:46:25.826
254, 50306.53, 85609.77, -187500.02, -187500.02, -187500.02, -187500.02, -187500.02, 187500.00, 0.304, 0.968, -0.112, 13:46:25.827
255, 50497.86, 85801.70, -187500.02, -187500.02, -187500.02, -187500.02, -187500.02, 187500.00, 0.000, 0.000, 0.000, 13:46:25.828
0, 52115.23, 87265.39, -187500.02, -187500.02, -187500.02, -187500.02, -187500.02, 187500.00, 0.000, 0.000, 0.000, 13:46:25.829
1, 52571.26, 87629.81, -187500.02, -187500.02, -187500.02, -187500.02, -187500.02, 187500.00, 0.000, 0.000, 0.000, 13:46:25.829
2, 50525.76, 85810.83, -187500.02, -187500.02, -187500.02, -187500.02, -187500.02, 187500.00, 0.000, 0.000, 0.000, 13:46:25.830
3, 50309.46, 85651.81, -187500.02, -187500.02, -187500.02, -187500.02, -187500.02, 187500.00, 0.000, 0.000, 0.000, 13:46:25.830
4, 51788.92, 86965.47, -187500.02, -187500.02, -187500.02, -187500.02, -187500.02, 187500.00, 0.000, 0.000, 0.000, 13:46:25.830
5, 52769.92, 87800.76, -187500.02, -187500.02, -187500.02, -187500.02, -187500.02, 187500.00, 0.000, 0.000, 0.000, 13:46:25.831
6, 50813.63, 86066.88, -187500.02, -187500.02, -187500.02, -187500.02, -187500.02, 187500.00, 0.000, 0.000, 0.000, 13:46:25.831
7, 50201.21, 85542.49, -187500.02, -187500.02, -187500.02, -187500.02, -187500.02, 187500.00, 0.000, 0.000, 0.000, 13:46:25.832
8, 51455.88, 86665.24, -187500.02, -187500.02, -187500.02, -187500.02, -187500.02, 187500.00, 0.302, 0.964, -0.114, 13:46:25.833
9, 52821.30, 87854.89, -187500.02, -187500.02, -187500.02, -187500.02, -187500.02, 187500.00, 0.000, 0.000, 0.000, 13:46:25.834
10, 51166.11, 86383.27, -187500.02, -187500.02, -187500.02, -187500.02, -187500.02, 187500.00, 0.000, 0.000, 0.000, 13:46:25.834
11, 50113.35, 85474.90, -187500.02, -187500.02, -187500.02, -187500.02, -187500.02, 187500.00, 0.000, 0.000, 0.000, 13:46:25.835
12, 51134.71, 86385.82, -187500.02, -187500.02, -187500.02, -187500.02, -187500.02, 187500.00, 0.000, 0.000, 0.000, 13:46:25.835
13, 52781.43, 87835.54, -187500.02, -187500.02, -187500.02, -187500.02, -187500.02, 187500.00, 0.000, 0.000, 0.000, 13:46:25.835
14, 51587.73, 86749.93, -187500.02, -187500.02, -187500.02, -187500.02, -187500.02, 187500.00, 0.000, 0.000, 0.000, 13:46:25.836
15, 50123.85, 85469.02, -187500.02, -187500.02, -187500.02, -187500.02, -187500.02, 187500.00, 0.000, 0.000, 0.000, 13:46:25.836
16, 50863.16, 86147.38, -187500.02, -187500.02, -187500.02, -187500.02, -187500.02, 187500.00, 0.000, 0.000, 0.000, 13:46:25.837
17, 52618.44, 87695.03, -187500.02, -187500.02, -187500.02, -187500.02, -187500.02, 187500.00, 0.302, 0.968, -0.116, 13:46:25.837
18, 51994.96, 87098.71, -187500.02, -187500.02, -187500.02, -187500.02, -187500.02, 187500.00, 0.000, 0.000, 0.000, 13:46:25.837
19, 50194.62, 85510.20, -187500.02, -187500.02, -187500.02, -187500.02, -187500.02, 187500.00, 0.000, 0.000, 0.000, 13:46:25.838
20, 50628.91, 85915.72, -187500.02, -187500.02, -187500.02, -187500.02, -187500.02, 187500.00, 0.000, 0.000, 0.000, 13:46:25.838
21, 52357.57, 87456.98, -187500.02, -187500.02, -187500.02, -187500.02, -187500.02, 187500.00, 0.000, 0.000, 0.000, 13:46:25.838
22, 52339.29, 87414.70, -187500.02, -187500.02, -187500.02, -187500.02, -187500.02, 187500.00, 0.000, 0.000, 0.000, 13:46:25.839
23, 50335.10, 85639.77, -187500.02, -187500.02, -187500.02, -187500.02, -187500.02, 187500.00, 0.000, 0.000, 0.000, 13:46:25.839
24, 50447.30, 85759.69, -187500.02, -187500.02, -187500.02, -187500.02, -187500.02, 187500.00, 0.000, 0.000, 0.000, 13:46:25.839
25, 52072.28, 87204.95, -187500.02, -187500.02, -187500.02, -187500.02, -187500.02, 187500.00, 0.000, 0.000, 0.000, 13:46:25.840
26, 52621.41, 87672.93, -187500.02, -187500.02, -187500.02, -187500.02, -187500.02, 187500.00, 0.000, 0.000, 0.000, 13:46:25.840
27, 50569.39, 85848.58, -187500.02, -187500.02, -187500.02, -187500.02, -187500.02, 187500.00, 0.306, 0.972, -0.112, 13:46:25.840
28, 50314.31, 85614.64, -187500.02, -187500.02, -187500.02, -187500.02, -187500.02, 187500.00, 0.000, 0.000, 0.000, 13:46:25.841
29, 51745.70, 86892.70, -187500.02, -187500.02, -187500.02, -187500.02, -187500.02, 187500.00, 0.000, 0.000, 0.000, 13:46:25.841
30, 52792.34, 87824.18, -187500.02, -187500.02, -187500.02, -187500.02, -187500.02, 187500.00, 0.000, 0.000, 0.000, 13:46:25.841
31, 50881.71, 86118.88, -187500.02, -187500.02, -187500.02, -187500.02, -187500.02, 187500.00, 0.000, 0.000, 0.000, 13:46:25.842
32, 50191.82, 85508.65, -187500.02, -187500.02, -187500.02, -187500.02, -187500.02, 187500.00, 0.000, 0.000, 0.000, 13:46:25.842
33, 51416.39, 86615.82, -187500.02, -187500.02, -187500.02, -187500.02, -187500.02, 187500.00, 0.000, 0.000, 0.000, 13:46:25.842
34, 52866.41, 87880.17, -187500.02, -187500.02, -187500.02, -187500.02, -187500.02, 187500.00, 0.000, 0.000, 0.000, 13:46:25.843
35, 51282.07, 86441.86, -187500.02, -187500.02, -187500.02, -187500.02, -187500.02, 187500.00, 0.000, 0.000, 0.000, 13:46:25.843
36, 50149.80, 85453.20, -187500.02, -187500.02, -187500.02, -187500.02, -187500.02, 187500.00, 0.000, 0.000, 0.000, 13:46:25.843
37, 51107.15, 86335.76, -187500.02, -187500.02, -187500.02, -187500.02, -187500.02, 187500.00, 0.306, 0.968, -0.108, 13:46:25.844
38, 52765.23, 87806.57, -187500.02, -187500.02, -187500.02, -187500.02, -187500.02, 187500.00, 0.000, 0.000, 0.000, 13:46:25.845
39, 51670.88, 86818.89, -187500.02, -187500.02, -187500.02, -187500.02, -187500.02, 187500.00, 0.000, 0.000, 0.000, 13:46:25.845
40, 50140.97, 85476.64, -187500.02, -187500.02, -187500.02, -187500.02, -187500.02, 187500.00, 0.000, 0.000, 0.000, 13:46:25.845
41, 50841.57, 86107.95, -187500.02, -187500.02, -187500.02, -187500.02, -187500.02, 187500.00, 0.000, 0.000, 0.000, 13:46:25.847
42, 52590.43, 87657.52, -187500.02, -187500.02, -187500.02, -187500.02, -187500.02, 187500.00, 0.000, 0.000, 0.000, 13:46:25.847
43, 52078.51, 87169.01, -187500.02, -187500.02, -187500.02, -187500.02, -187500.02, 187500.00, 0.000, 0.000, 0.000, 13:46:25.848
44, 50230.16, 85542.07, -187500.02, -187500.02, -187500.02, -187500.02, -187500.02, 187500.00, 0.000, 0.000, 0.000, 13:46:25.848
45, 50616.71, 85907.01, -187500.02, -187500.02, -187500.02, -187500.02, -187500.02, 187500.00, 0.000, 0.000, 0.000, 13:46:25.849
46, 52330.84, 87429.18, -187500.02, -187500.02, -187500.02, -187500.02, -187500.02, 187500.00, 0.000, 0.000, 0.000, 13:46:25.849
47, 52425.05, 87476.41, -187500.02, -187500.02, -187500.02, -187500.02, -187500.02, 187500.00, 0.308, 0.970, -0.110, 13:46:25.850
48, 50400.43, 85679.80, -187500.02, -187500.02, -187500.02, -187500.02, -187500.02, 187500.00, 0.000, 0.000, 0.000, 13:46:25.850
49, 50427.07, 85723.66, -187500.02, -187500.02, -187500.02, -187500.02, -187500.02, 187500.00, 0.000, 0.000, 0.000, 13:46:25.850
50, 51997.31, 87144.11, -187500.02, -187500.02, -187500.02, -187500.02, -187500.02, 187500.00, 0.000, 0.000, 0.000, 13:46:25.851
51, 52667.77, 87717.67, -187500.02, -187500.02, -187500.02, -187500.02, -187500.02, 187500.00, 0.000, 0.000, 0.000, 13:46:25.851
52, 50644.60, 85909.51, -187500.02, -187500.02, -187500.02, -187500.02, -187500.02, 187500.00, 0.000, 0.000, 0.000, 13:46:25.852
53, 50262.81, 85606.98, -187500.02, -187500.02, -187500.02, -187500.02, -187500.02, 187500.00, 0.000, 0.000, 0.000, 13:46:25.852
54, 51661.54, 86852.04, -187500.02, -187500.02, -187500.02, -187500.02, -187500.02, 187500.00, 0.000, 0.000, 0.000, 13:46:25.852
55, 52850.54, 87851.02, -187500.02, -187500.02, -187500.02, -187500.02, -187500.02, 187500.00, 0.000, 0.000, 0.000, 13:46:25.853
56, 50994.50, 86196.52, -187500.02, -187500.02, -187500.02, -187500.02, -187500.02, 187500.00, 0.000, 0.000, 0.000, 13:46:25.853
57, 50183.15, 85516.01, -187500.02, -187500.02, -187500.02, -187500.02, -187500.02, 187500.00, 0.308, 0.970, -0.110, 13:46:25.853
58, 51335.94, 86559.59, -187500.02, -187500.02, -187500.02, -187500.02, -187500.02, 187500.00, 0.000, 0.000, 0.000, 13:46:25.854
59, 52840.62, 87872.51, -187500.02, -187500.02, -187500.02, -187500.02, -187500.02, 187500.00, 0.000, 0.000, 0.000, 13:46:25.854
60, 51355.75, 86526.53, -187500.02, -187500.02, -187500.02, -187500.02, -187500.02, 187500.00, 0.000, 0.000, 0.000, 13:46:25.854
61, 50135.52, 85462.74, -187500.02, -187500.02, -187500.02, -187500.02, -187500.02, 187500.00, 0.000, 0.000, 0.000, 13:46:25.854
62, 51034.06, 86286.05, -187500.02, -187500.02, -187500.02, -187500.02, -187500.02, 187500.00, 0.000, 0.000, 0.000, 13:46:25.855
63, 52723.88, 87788.46, -187500.02, -187500.02, -187500.02, -187500.02, -187500.02, 187500.00, 0.000, 0.000, 0.000, 13:46:25.855
64, 51768.63, 86895.94, -187500.02, -187500.02, -187500.02, -187500.02, -187500.02, 187500.00, 0.000, 0.000, 0.000, 13:46:25.857
65, 50167.75, 85470.34, -187500.02, -187500.02, -187500.02, -187500.02, -187500.02, 187500.00, 0.000, 0.000, 0.000, 13:46:25.857
66, 50792.10, 86052.72, -187500.02, -187500.02, -187500.02, -187500.02, -187500.02, 187500.00, 0.000, 0.000, 0.000, 13:46:25.858
67, 52534.15, 87614.95, -187500.02, -187500.02, -187500.02, -187500.02, -187500.02, 187500.00, 0.304, 0.970, -0.112, 13:46:25.858
68, 52150.71, 87245.36, -187500.02, -187500.02, -187500.02, -187500.02, -187500.02, 187500.00, 0.000, 0.000, 0.000, 13:46:25.858
69, 50247.43, 85551.01, -187500.02, -187500.02, -187500.02, -187500.02, -187500.02, 187500.00, 0.000, 0.000, 0.000, 13:46:25.858
70, 50552.29, 85848.66, -187500.02, -187500.02, -187500.02, -187500.02, -187500.02, 187500.00, 0.000, 0.000, 0.000, 13:46:25.859
71, 52272.48, 87381.37, -187500.02, -187500.02, -187500.02, -187500.02, -187500.02, 187500.00, 0.000, 0.000, 0.000, 13:46:25.859
72, 52502.55, 87548.90, -187500.02, -187500.02, -187500.02, -187500.02, -187500.02, 187500.00, 0.000, 0.000, 0.000, 13:46:25.860
73, 50436.80, 85720.57, -187500.02, -187500.02, -187500.02, -187500.02, -187500.02, 187500.00, 0.000, 0.000, 0.000, 13:46:25.860
74, 50376.74, 85699.23, -187500.02, -187500.02, -187500.02, -187500.02, -187500.02, 187500.00, 0.000, 0.000, 0.000, 13:46:26.285
75, 51939.73, 87097.13, -187500.02, -187500.02, -187500.02, -187500.02, -187500.02, 187500.00, 0.000, 0.000, 0.000, 13:46:26.285
76, 52725.33, 87760.57, -187500.02, -187500.02, -187500.02, -187500.02, -187500.02, 187500.00, 0.000, 0.000, 0.000, 13:46:26.285
77, 50707.46, 85945.83, -187500.02, -187500.02, -187500.02, -187500.02, -187500.02, 187500.00, 0.306, 0.974, -0.108, 13:46:26.285
78, 50250.48, 85575.41, -187500.02, -187500.02, -187500.02, -187500.02, -187500.02, 187500.00, 0.000, 0.000, 0.000, 13:46:26.286
79, 51596.86, 86798.26, -187500.02, -187500.02, -187500.02, -187500.02, -187500.02, 187500.00, 0.000, 0.000, 0.000, 13:46:26.286
80, 52853.74, 87876.06, -187500.02, -187500.02, -187500.02, -187500.02, -187500.02, 187500.00, 0.000, 0.000, 0.000, 13:46:26.286
81, 51074.74, 86259.20, -187500.02, -187500.02, -187500.02, -187500.02, -187500.02, 187500.00, 0.000, 0.000, 0.000, 13:46:26.287
82, 50191.69, 85496.58, -187500.02, -187500.02, -187500.02, -187500.02, -187500.02, 187500.00, 0.000, 0.000, 0.000, 13:46:26.287
83, 51282.48, 86507.82, -187500.02, -187500.02, -187500.02, -187500.02, -187500.02, 187500.00, 0.000, 0.000, 0.000, 13:46:26.287
84, 52826.47, 87872.82, -187500.02, -187500.02, -187500.02, -187500.02, -187500.02, 187500.00, 0.000, 0.000, 0.000, 13:46:26.287
85, 51437.73, 86599.15, -187500.02, -187500.02, -187500.02, -187500.02, -187500.02, 187500.00, 0.000, 0.000, 0.000, 13:46:26.288
86, 50145.24, 85465.22, -187500.02, -187500.02, -187500.02, -187500.02, -187500.02, 187500.00, 0.306, 0.968, -0.104, 13:46:26.288
87, 51005.98, 86251.76, -187500.02, -187500.02, -187500.02, -187500.02, -187500.02, 187500.00, 0.000, 0.000, 0.000, 13:46:26.288
88, 52717.06, 87775.70, -187500.02, -187500.02, -187500.02, -187500.02, -187500.02, 187500.00, 0.000, 0.000, 0.000, 13:46:26.289
89, 51840.69, 86972.04, -187500.02, -187500.02, -187500.02, -187500.02, -187500.02, 187500.00, 0.000, 0.000, 0.000, 13:46:26.289
90, 50162.59, 85487.51, -187500.02, -187500.02, -187500.02, -187500.02, -187500.02, 187500.00, 0.000, 0.000, 0.000, 13:46:26.289
91, 50732.71, 86016.35, -187500.02, -187500.02, -187500.02, -187500.02, -187500.02, 187500.00, 0.000, 0.000, 0.000, 13:46:26.289
92, 52471.68, 87583.56, -187500.02, -187500.02, -187500.02, -187500.02, -187500.02, 187500.00, 0.000, 0.000, 0.000, 13:46:26.290
93, 52208.15, 87316.30, -187500.02, -187500.02, -187500.02, -187500.02, -187500.02, 187500.00, 0.000, 0.000, 0.000, 13:46:26.290
94, 50286.30, 85594.04, -187500.02, -187500.02, -187500.02, -187500.02, -187500.02, 187500.00, 0.000, 0.000, 0.000, 13:46:26.290
95, 50527.64, 85831.92, -187500.02, -187500.02, -187500.02, -187500.02, -187500.02, 187500.00, 0.000, 0.000, 0.000, 13:46:26.290
96, 52197.45, 87330.19, -187500.02, -187500.02, -187500.02, -187500.02, -187500.02, 187500.00, 0.304, 0.970, -0.100, 13:46:26.291
97, 52536.61, 87598.16, -187500.02, -187500.02, -187500.02, -187500.02, -187500.02, 187500.00, 0.000, 0.000, 0.000, 13:46:26.291
98, 50474.42, 85752.58, -187500.02, -187500.02, -187500.02, -187500.02, -187500.02, 187500.00, 0.000, 0.000, 0.000, 13:46:26.291
99, 50353.83, 85662.63, -187500.02, -187500.02, -187500.02, -187500.02, -187500.02, 187500.00, 0.000, 0.000, 0.000, 13:46:26.292
100, 51857.79, 87029.91, -187500.02, -187500.02, -187500.02, -187500.02, -187500.02, 187500.00, 0.000, 0.000, 0.000, 13:46:26.292
101, 52744.95, 87802.48, -187500.02, -187500.02, -187500.02, -187500.02, -187500.02, 187500.00, 0.000, 0.000, 0.000, 13:46:26.292
102, 50764.25, 86008.28, -187500.02, -187500.02, -187500.02, -187500.02, -187500.02, 187500.00, 0.000, 0.000, 0.000, 13:46:26.292
103, 50248.66, 85548.13, -187500.02, -187500.02, -187500.02, -187500.02, -187500.02, 187500.00, 0.000, 0.000, 0.000, 13:46:26.293
104, 51556.71, 86734.82, -187500.02, -187500.02, -187500.02, -187500.02, -187500.02, 187500.00, 0.000, 0.000, 0.000, 13:46:26.293
105, 52849.98, 87894.12, -187500.02, -187500.02, -187500.02, -187500.02, -187500.02, 187500.00, 0.000, 0.000, 0.000, 13:46:26.293
106, 51111.31, 86305.85, -187500.02, -187500.02, -187500.02, -187500.02, -187500.02, 187500.00, 0.302, 0.970, -0.108, 13:46:26.294
107, 50148.24, 85461.35, -187500.02, -187500.02, -187500.02, -187500.02, -187500.02, 187500.00, 0.000, 0.000, 0.000, 13:46:26.294
108, 51240.10, 86448.81, -187500.02, -187500.02, -187500.02, -187500.02, -187500.02, 187500.00, 0.000, 0.000, 0.000, 13:46:26.295
109, 52854.83, 87875.14, -187500.02, -187500.02, -187500.02, -187500.02, -187500.02, 187500.00, 0.000, 0.000, 0.000, 13:46:26.295
110, 51535.90, 86670.54, -187500.02, -187500.02, -187500.02, -187500.02, -187500.02, 187500.00, 0.000, 0.000, 0.000, 13:46:26.295
111, 50140.84, 85441.69, -187500.02, -187500.02, -187500.02, -187500.02, -187500.02, 187500.00, 0.000, 0.000, 0.000, 13:46:26.296
112, 50947.36, 86193.76, -187500.02, -187500.02, -187500.02, -187500.02, -187500.02, 187500.00, 0.000, 0.000, 0.000, 13:46:26.296
113, 52680.15, 87750.91, -187500.02, -187500.02, -187500.02, -187500.02, -187500.02, 187500.00, 0.000, 0.000, 0.000, 13:46:26.297
114, 51923.91, 87042.02, -187500.02, -187500.02, -187500.02, -187500.02, -187500.02, 187500.00, 0.000, 0.000, 0.000, 13:46:26.297
115, 50175.15, 85487.95, -187500.02, -187500.02, -187500.02, -187500.02, -187500.02, 187500.00, 0.000, 0.000, 0.000, 13:46:26.297
116, 50689.64, 85966.91, -187500.02, -187500.02, -187500.02, -187500.02, -187500.02, 187500.00, 0.306, 0.970, -0.116, 13:46:26.298
117, 52433.70, 87533.02, -187500.02, -187500.02, -187500.02, -187500.02, -187500.02, 187500.00, 0.000, 0.000, 0.000, 13:46:26.298
118, 52284.15, 87362.75, -187500.02, -187500.02, -187500.02, -187500.02, -187500.02, 187500.00, 0.000, 0.000, 0.000, 13:46:26.299
119, 50306.31, 85583.62, -187500.02, -187500.02, -187500.02, -187500.02, -187500.02, 187500.00, 0.000, 0.000, 0.000, 13:46:26.299
120, 50486.62, 85764.96, -187500.02, -187500.02, -187500.02, -187500.02, -187500.02, 187500.00, 0.000, 0.000, 0.000, 13:46:26.299
121, 52136.78, 87254.19, -187500.02, -187500.02, -187500.02, -187500.02, -187500.02, 187500.00, 0.000, 0.000, 0.000, 13:46:26.300
122, 52593.88, 87632.91, -187500.02, -187500.02, -187500.02, -187500.02, -187500.02, 187500.00, 0.000, 0.000, 0.000, 13:46:26.300
123, 50522.68, 85777.14, -187500.02, -187500.02, -187500.02, -187500.02, -187500.02, 187500.00, 0.000, 0.000, 0.000, 13:46:26.300
124, 50325.04, 85611.34, -187500.02, -187500.02, -187500.02, -187500.02, -187500.02, 187500.00, 0.000, 0.000, 0.000, 13:46:26.301
125, 51803.09, 86945.71, -187500.02, -187500.02, -187500.02, -187500.02, -187500.02, 187500.00, 0.000, 0.000, 0.000, 13:46:26.301
126, 52781.34, 87806.79, -187500.02, -187500.02, -187500.02, -187500.02, -187500.02, 187500.00, 0.308, 0.972, -0.104, 13:46:26.301
127, 50830.75, 86042.26, -187500.02, -187500.02, -187500.02, -187500.02, -187500.02, 187500.00, 0.000, 0.000, 0.000, 13:46:26.302
128, 50209.71, 85499.09, -187500.02, -187500.02, -187500.02, -187500.02, -187500.02, 187500.00, 0.000, 0.000, 0.000, 13:46:26.302
129, 51477.90, 86654.65, -187500.02, -187500.02, -187500.02, -187500.02, -187500.02, 187500.00, 0.000, 0.000, 0.000, 13:46:26.302
130, 52852.55, 87878.25, -187500.02, -187500.02, -187500.02, -187500.02, -187500.02, 187500.00, 0.000, 0.000, 0.000, 13:46:26.302
131, 51192.45, 86368.03, -187500.02, -187500.02, -187500.02, -187500.02, -187500.02, 187500.00, 0.000, 0.000, 0.000, 13:46:26.303
132, 50146.34, 85442.96, -187500.02, -187500.02, -187500.02, -187500.02, -187500.02, 187500.00, 0.000, 0.000, 0.000, 13:46:26.303
133, 51162.92, 86388.69, -187500.02, -187500.02, -187500.02, -187500.02, -187500.02, 187500.00, 0.000, 0.000, 0.000, 13:46:26.303
134, 52791.69, 87847.90, -187500.02, -187500.02, -187500.02, -187500.02, -187500.02, 187500.00, 0.000, 0.000, 0.000, 13:46:26.304
135, 51586.15, 86723.67, -187500.02, -187500.02, -187500.02, -187500.02, -187500.02, 187500.00, 0.000, 0.000, 0.000, 13:46:26.304
136, 50155.03, 85435.88, -187500.02, -187500.02, -187500.02, -187500.02, -187500.02, 187500.00, 0.304, 0.970, -0.106, 13:46:26.304
137, 50919.02, 86139.71, -187500.02, -187500.02, -187500.02, -187500.02, -187500.02, 187500.00, 0.000, 0.000, 0.000, 13:46:26.305
138, 52664.87, 87712.69, -187500.02, -187500.02, -187500.02, -187500.02, -187500.02, 187500.00, 0.000, 0.000, 0.000, 13:46:26.305
139, 52027.44, 87106.55, -187500.02, -187500.02, -187500.02, -187500.02, -187500.02, 187500.00, 0.000, 0.000, 0.000, 13:46:26.305
140, 50221.42, 85487.17, -187500.02, -187500.02, -187500.02, -187500.02, -187500.02, 187500.00, 0.000, 0.000, 0.000, 13:46:26.306
141, 50656.88, 85915.72, -187500.02, -187500.02, -187500.02, -187500.02, -187500.02, 187500.00, 0.000, 0.000, 0.000, 13:46:26.306
142, 52377.38, 87485.48, -187500.02, -187500.02, -187500.02, -187500.02, -187500.02, 187500.00, 0.000, 0.000, 0.000, 13:46:26.306
143, 52358.58, 87433.30, -187500.02, -187500.02, -187500.02, -187500.02, -187500.02, 187500.00, 0.000, 0.000, 0.000, 13:46:26.306
144, 50358.12, 85613.68, -187500.02, -187500.02, -187500.02, -187500.02, -187500.02, 187500.00, 0.000, 0.000, 0.000, 13:46:26.307
145, 50464.45, 85717.57, -187500.02, -187500.02, -187500.02, -187500.02, -187500.02, 187500.00, 0.308, 0.976, -0.106, 13:46:26.307
146, 52085.48, 87198.35, -187500.02, -187500.02, -187500.02, -187500.02, -187500.02, 187500.00, 0.000, 0.000, 0.000, 13:46:26.307
147, 52641.55, 87689.51, -187500.02, -187500.02, -187500.02, -187500.02, -187500.02, 187500.00, 0.000, 0.000, 0.000, 13:46:26.308
148, 50580.68, 85830.30, -187500.02, -187500.02, -187500.02, -187500.02, -187500.02, 187500.00, 0.000, 0.000, 0.000, 13:46:26.308
149, 50305.37, 85595.42, -187500.02, -187500.02, -187500.02, -187500.02, -187500.02, 187500.00, 0.000, 0.000, 0.000, 13:46:26.308
150, 51755.95, 86913.82, -187500.02, -187500.02, -187500.02, -187500.02, -187500.02, 187500.00, 0.000, 0.000, 0.000, 13:46:26.308
151, 52817.19, 87859.09, -187500.02, -187500.02, -187500.02, -187500.02, -187500.02, 187500.00, 0.000, 0.000, 0.000, 13:46:26.309
152, 50889.20, 86109.35, -187500.02, -187500.02, -187500.02, -187500.02, -187500.02, 187500.00, 0.000, 0.000, 0.000, 13:46:26.309
153, 50211.20, 85493.88, -187500.02, -187500.02, -187500.02, -187500.02, -187500.02, 187500.00, 0.000, 0.000, 0.000, 13:46:26.309
154, 51453.58, 86622.64, -187500.02, -187500.02, -187500.02, -187500.02, -187500.02, 187500.00, 0.000, 0.000, 0.000, 13:46:26.310
155, 52881.34, 87903.22, -187500.02, -187500.02, -187500.02, -187500.02, -187500.02, 187500.00, 0.306, 0.972, -0.106, 13:46:26.310
