%OpenBCI Raw EEG Data
%
%Sample Rate = 250.0 Hz
%First Column = SampleIndex
%Last Column = Timestamp 
%Other Columns = EEG data in microvolts followed by Accel Data (in G) interleaved with Aux Data
0, -21155.99, -97785.75, -187500.02, -178923.00, -169824.92, 11565.53, -110441.62, -187500.02, -0.300, -0.062, -0.968, 13:03:51.971
1, -21159.05, -97819.01, -187500.02, -179007.14, -169913.17, 11572.30, -110436.86, -187500.02, 0.000, 0.000, 0.000, 13:03:52.450
2, -21017.54, -97844.06, -187500.02, -179075.27, -169982.64, 11593.49, -110407.29, -187500.02, 0.000, 0.000, 0.000, 13:03:52.450
3, -20997.52, -97929.90, -187500.02, -179203.97, -170114.36, 11552.01, -110439.70, -187500.02, 0.000, 0.000, 0.000, 13:03:52.450
4, -21141.15, -97999.55, -187500.02, -179329.67, -170243.03, 11517.88, -110475.20, -187500.02, 0.000, 0.000, 0.000, 13:03:52.450
5, -21170.54, -98009.60, -187500.02, -179395.70, -170307.20, 11545.93, -110448.99, -187500.02, 0.000, 0.000, 0.000, 13:03:52.450
6, -21066.54, -97998.05, -187500.02, -179429.27, -170342.34, 11601.09, -110387.48, -187500.02, 0.000, 0.000, 0.000, 13:03:52.451
7, -20984.09, -98067.94, -187500.02, -179542.17, -170461.14, 11574.54, -110405.55, -187500.02, -0.308, -0.064, -0.970, 13:03:52.451
8, -21134.56, -98109.11, -187500.02, -179634.61, -170560.55, 11568.75, -110411.65, -187500.02, 0.000, 0.000, 0.000, 13:03:52.451
9, -21176.22, -98151.78, -187500.02, -179730.06, -170660.80, 11562.09, -110420.72, -187500.02, 0.000, 0.000, 0.000, 13:03:52.451
10, -21067.68, -98175.77, -187500.02, -179802.33, -170733.89, 11581.69, -110396.76, -187500.02, 0.000, 0.000, 0.000, 13:03:52.451
11, -20990.23, -98239.69, -187500.02, -179912.38, -170846.05, 11562.04, -110409.43, -187500.02, 0.000, 0.000, 0.000, 13:03:52.452
12, -21102.30, -98306.08, -187500.02, -180033.27, -170971.08, 11533.21, -110442.34, -187500.02, 0.000, 0.000, 0.000, 13:03:52.452
13, -21188.69, -98336.18, -187500.02, -180118.08, -171059.38, 11538.80, -110441.66, -187500.02, 0.000, 0.000, 0.000, 13:03:52.452
14, -21088.85, -98300.51, -187500.02, -180128.05, -171072.89, 11616.45, -110359.14, -187500.02, 0.000, 0.000, 0.000, 13:03:52.452
15, -20984.76, -98330.82, -187500.02, -180199.20, -171149.36, 11631.00, -110332.70, -187500.02, 0.000, 0.000, 0.000, 13:03:52.452
16, -21074.77, -98410.59, -187500.02, -180329.08, -171286.47, 11587.41, -110371.93, -187500.02, 0.000, 0.000, 0.000, 13:03:52.452
17, -21181.05, -98443.98, -187500.02, -180414.61, -171379.27, 11588.42, -110373.76, -187500.02, -0.308, -0.066, -0.964, 13:03:52.453
18, -21117.99, -98463.88, -187500.02, -180481.61, -171449.97, 11609.52, -110353.27, -187500.02, 0.000, 0.000, 0.000, 13:03:52.453
19, -20989.61, -98488.17, -187500.02, -180546.70, -171516.63, 11631.51, -110323.65, -187500.02, 0.000, 0.000, 0.000, 13:03:52.453
20, -21035.88, -98566.14, -187500.02, -180671.47, -171644.50, 11593.07, -110355.14, -187500.02, 0.000, 0.000, 0.000, 13:03:52.453
21, -21170.54, -98608.49, -187500.02, -180765.97, -171745.14, 11585.00, -110364.55, -187500.02, 0.000, 0.000, 0.000, 13:03:52.453
22, -21138.20, -98616.59, -187500.02, -180819.55, -171805.20, 11618.19, -110331.29, -187500.02, 0.000, 0.000, 0.000, 13:03:52.453
23, -21026.67, -98624.77, -187500.02, -180867.14, -171860.67, 11653.33, -110286.43, -187500.02, 0.000, 0.000, 0.000, 13:03:52.453
24, -21022.71, -98699.80, -187500.02, -180986.00, -171986.14, 11617.18, -110312.31, -187500.02, 0.000, 0.000, 0.000, 13:03:52.453
25, -21163.32, -98758.97, -187500.02, -181100.44, -172104.42, 11592.06, -110339.30, -187500.02, 0.000, 0.000, 0.000, 13:03:52.453
26, -21139.90, -98757.31, -187500.02, -181149.30, -172157.88, 11629.99, -110300.55, -187500.02, 0.000, 0.000, 0.000, 13:03:52.454
27, -21038.29, -98769.77, -187500.02, -181200.89, -172216.03, 11662.54, -110258.29, -187500.02, -0.306, -0.064, -0.958, 13:03:52.454
28, -21034.58, -98844.24, -187500.02, -181314.86, -172335.86, 11632.81, -110278.07, -187500.02, 0.000, 0.000, 0.000, 13:03:52.454
29, -21124.59, -98922.52, -187500.02, -181447.92, -172473.08, 11588.78, -110325.99, -187500.02, 0.000, 0.000, 0.000, 13:03:52.454
30, -21146.58, -98948.13, -187500.02, -181526.20, -172557.05, 11598.72, -110320.36, -187500.02, 0.000, 0.000, 0.000, 13:03:52.454
31, -21081.05, -98960.60, -187500.02, -181582.33, -172616.61, 11630.48, -110283.52, -187500.02, 0.000, 0.000, 0.000, 13:03:52.454
32, -20999.64, -99012.44, -187500.02, -181674.77, -172713.44, 11623.60, -110281.76, -187500.02, 0.000, 0.000, 0.000, 13:03:52.454
33, -21108.81, -99091.02, -187500.02, -181804.72, -172850.44, 11581.22, -110328.03, -187500.02, 0.000, 0.000, 0.000, 13:03:52.454
34, -21169.45, -99095.92, -187500.02, -181862.70, -172915.39, 11611.55, -110302.88, -187500.02, 0.000, 0.000, 0.000, 13:03:52.454
35, -21111.78, -99102.70, -187500.02, -181912.48, -172969.81, 11646.51, -110262.45, -187500.02, 0.000, 0.000, 0.000, 13:03:52.454
36, -21050.29, -99161.08, -187500.02, -182011.08, -173071.14, 11633.26, -110265.20, -187500.02, -0.310, -0.064, -0.962, 13:03:52.454
37, -21077.89, -99245.97, -187500.02, -182148.05, -173212.77, 11586.47, -110312.88, -187500.02, 0.000, 0.000, 0.000, 13:03:52.454
38, -21110.73, -99272.85, -187500.02, -182229.91, -173300.59, 11592.75, -110312.07, -187500.02, 0.000, 0.000, 0.000, 13:03:52.454
39, -21070.38, -99291.01, -187500.02, -182294.19, -173372.39, 11613.97, -110287.80, -187500.02, 0.000, 0.000, 0.000, 13:03:52.455
40, -21024.16, -99303.79, -187500.02, -182346.48, -173429.61, 11646.31, -110245.35, -187500.02, 0.000, 0.000, 0.000, 13:03:52.455
41, -21117.64, -99365.84, -187500.02, -182458.58, -173544.80, 11621.52, -110268.26, -187500.02, 0.000, 0.000, 0.000, 13:03:52.455
42, -21169.72, -99392.08, -187500.02, -182540.41, -173633.58, 11626.53, -110269.00, -187500.02, 0.000, 0.000, 0.000, 13:03:52.455
43, -21092.56, -99437.56, -187500.02, -182632.88, -173731.08, 11619.67, -110276.26, -187500.02, 0.000, 0.000, 0.000, 13:03:52.455
44, -21007.09, -99458.84, -187500.02, -182692.67, -173792.56, 11643.87, -110241.68, -187500.02, 0.000, 0.000, 0.000, 13:03:52.455
45, -21059.30, -99524.80, -187500.02, -182803.44, -173908.69, 11617.79, -110261.89, -187500.02, 0.000, 0.000, 0.000, 13:03:52.455
46, -21154.85, -99549.23, -187500.02, -182882.06, -173996.95, 11625.32, -110257.30, -187500.02, -0.308, -0.062, -0.966, 13:03:52.455
47, -21131.47, -99552.37, -187500.02, -182931.91, -174054.59, 11659.52, -110219.94, -187500.02, 0.000, 0.000, 0.000, 13:03:52.455
48, -21047.86, -99563.02, -187500.02, -182979.91, -174106.41, 11694.63, -110172.88, -187500.02, 0.000, 0.000, 0.000, 13:03:52.455
49, -21032.01, -99631.73, -187500.02, -183088.88, -174220.11, 11668.93, -110190.84, -187500.02, 0.000, 0.000, 0.000, 13:03:52.455
50, -21146.63, -99705.70, -187500.02, -183216.61, -174355.14, 11626.71, -110235.49, -187500.02, 0.000, 0.000, 0.000, 13:03:52.455
51, -21125.19, -99744.25, -187500.02, -183310.00, -174451.30, 11623.62, -110242.24, -187500.02, 0.000, 0.000, 0.000, 13:03:52.455
52, -21035.79, -99725.86, -187500.02, -183333.00, -174477.06, 11684.13, -110174.13, -187500.02, 0.000, 0.000, 0.000, 13:03:52.456
53, -21040.37, -99760.77, -187500.02, -183406.77, -174557.39, 11690.25, -110156.23, -187500.02, 0.000, 0.000, 0.000, 13:03:52.456
54, -21134.60, -99828.30, -187500.02, -183524.67, -174682.05, 11655.67, -110191.77, -187500.02, 0.000, 0.000, 0.000, 13:03:52.456
55, -21148.84, -99864.51, -187500.02, -183613.25, -174776.31, 11651.38, -110199.46, -187500.02, 0.000, 0.000, 0.000, 13:03:52.456
56, -21052.64, -99897.05, -187500.02, -183690.63, -174855.56, 11660.03, -110185.18, -187500.02, -0.312, -0.066, -0.968, 13:03:52.456
57, -21012.29, -99941.40, -187500.02, -183774.30, -174944.06, 11660.14, -110173.96, -187500.02, 0.000, 0.000, 0.000, 13:03:52.456
58, -21104.54, -100007.63, -187500.02, -183891.48, -175068.64, 11625.95, -110206.21, -187500.02, 0.000, 0.000, 0.000, 13:03:52.456
59, -21158.41, -100046.27, -187500.02, -183984.52, -175167.17, 11618.91, -110217.01, -187500.02, 0.000, 0.000, 0.000, 13:03:52.456
60, -21098.15, -100051.41, -187500.02, -184035.03, -175219.70, 11654.78, -110178.77, -187500.02, 0.000, 0.000, 0.000, 13:03:52.456
61, -21000.00, -100098.57, -187500.02, -184118.17, -175307.59, 11653.37, -110171.30, -187500.02, 0.000, 0.000, 0.000, 13:03:52.456
62, -21092.27, -100182.48, -187500.02, -184250.86, -175447.22, 11606.03, -110221.73, -187500.02, 0.000, 0.000, 0.000, 13:03:52.456
63, -21159.90, -100202.84, -187500.02, -184326.52, -175529.88, 11616.54, -110216.34, -187500.02, 0.000, 0.000, 0.000, 13:03:52.457
64, -21099.96, -100218.11, -187500.02, -184387.27, -175598.22, 11639.29, -110189.91, -187500.02, 0.000, 0.000, 0.000, 13:03:52.457
65, -21014.57, -100270.30, -187500.02, -184477.28, -175694.42, 11633.03, -110189.49, -187500.02, 0.000, 0.000, 0.000, 13:03:52.457
66, -21076.78, -100318.47, -187500.02, -184571.56, -175794.52, 11622.04, -110198.03, -187500.02, -0.310, -0.062, -0.962, 13:03:52.457
67, -21177.18, -100314.88, -187500.02, -184619.69, -175850.48, 11655.63, -110168.46, -187500.02, 0.000, 0.000, 0.000, 13:03:52.457
68, -21117.68, -100348.09, -187500.02, -184700.19, -175938.06, 11656.84, -110166.13, -187500.02, 0.000, 0.000, 0.000, 13:03:52.457
69, -21014.37, -100371.53, -187500.02, -184764.36, -176006.14, 11675.28, -110137.21, -187500.02, 0.000, 0.000, 0.000, 13:03:52.457
70, -21049.15, -100419.14, -187500.02, -184854.75, -176102.13, 11666.92, -110138.46, -187500.02, 0.000, 0.000, 0.000, 13:03:52.457
71, -21161.20, -100436.48, -187500.02, -184923.39, -176177.67, 11680.60, -110127.06, -187500.02, 0.000, 0.000, 0.000, 13:03:52.457
72, -21146.40, -100458.88, -187500.02, -184993.22, -176253.69, 11694.25, -110115.44, -187500.02, 0.000, 0.000, 0.000, 13:03:52.458
73, -21063.84, -100496.48, -187500.02, -185070.36, -176336.97, 11699.04, -110101.91, -187500.02, 0.000, 0.000, 0.000, 13:03:52.458
74, -21029.28, -100601.09, -187500.02, -185217.52, -176489.72, 11635.13, -110160.55, -187500.02, 0.000, 0.000, 0.000, 13:03:52.458
75, -21151.92, -100641.50, -187500.02, -185309.56, -176589.28, 11627.56, -110173.64, -187500.02, 0.000, 0.000, 0.000, 13:03:52.458
76, -21176.67, -100644.13, -187500.02, -185360.94, -176649.16, 11658.94, -110146.42, -187500.02, -0.302, -0.064, -0.960, 13:03:52.458
77, -21058.92, -100657.21, -187500.02, -185413.44, -176706.89, 11688.17, -110112.55, -187500.02, 0.000, 0.000, 0.000, 13:03:52.458
78, -21008.11, -100745.27, -187500.02, -185543.39, -176840.64, 11640.99, -110154.73, -187500.02, 0.000, 0.000, 0.000, 13:03:52.458
79, -21123.92, -100760.27, -187500.02, -185611.27, -176912.28, 11657.42, -110143.11, -187500.02, 0.000, 0.000, 0.000, 13:03:52.458
80, -21144.24, -100755.00, -187500.02, -185655.64, -176965.39, 11690.81, -110108.63, -187500.02, 0.000, 0.000, 0.000, 13:03:52.458
81, -21068.33, -100758.62, -187500.02, -185701.17, -177015.73, 11723.89, -110068.08, -187500.02, 0.000, 0.000, 0.000, 13:03:52.458
82, -21001.18, -100856.55, -187500.02, -185837.58, -177157.73, 11667.54, -110118.30, -187500.02, 0.000, 0.000, 0.000, 13:03:52.458
83, -21101.41, -100943.63, -187500.02, -185974.98, -177301.34, 11614.39, -110175.97, -187500.02, 0.000, 0.000, 0.000, 13:03:52.458
84, -21181.38, -100936.30, -187500.02, -186020.75, -177352.56, 11651.32, -110143.02, -187500.02, 0.000, 0.000, 0.000, 13:03:52.459
85, -21118.93, -100914.45, -187500.02, -186044.78, -177380.00, 11710.06, -110079.77, -187500.02, 0.000, 0.000, 0.000, 13:03:52.459
86, -20999.17, -100946.02, -187500.02, -186113.67, -177455.28, 11720.03, -110058.13, -187500.02, -0.300, -0.064, -0.964, 13:03:52.459
87, -21068.17, -101012.98, -187500.02, -186226.25, -177575.58, 11688.91, -110086.27, -187500.02, 0.000, 0.000, 0.000, 13:03:52.459
88, -21153.11, -101080.22, -187500.02, -186347.66, -177703.45, 11651.09, -110128.05, -187500.02, 0.000, 0.000, 0.000, 13:03:52.459
89, -21111.02, -101111.02, -187500.02, -186428.39, -177785.70, 11656.08, -110123.06, -187500.02, 0.000, 0.000, 0.000, 13:03:52.459
90, -21034.38, -101166.72, -187500.02, -186526.00, -177886.73, 11642.20, -110131.38, -187500.02, 0.000, 0.000, 0.000, 13:03:52.459
91, -21073.02, -101262.36, -187500.02, -186669.81, -178036.25, 11583.70, -110190.03, -187500.02, 0.000, 0.000, 0.000, 13:03:52.460
92, -21158.54, -101262.49, -187500.02, -186724.39, -178098.36, 11613.27, -110165.84, -187500.02, 0.000, 0.000, 0.000, 13:03:52.460
93, -21103.22, -101274.25, -187500.02, -186779.55, -178164.94, 11635.85, -110142.30, -187500.02, 0.000, 0.000, 0.000, 13:03:52.460
94, -21023.87, -101298.08, -187500.02, -186841.11, -178234.34, 11653.60, -110117.34, -187500.02, 0.000, 0.000, 0.000, 13:03:52.460
95, -21070.77, -101354.90, -187500.02, -186939.81, -178339.95, 11637.44, -110130.41, -187500.02, 0.000, 0.000, 0.000, 13:03:52.460
96, -21181.76, -101356.91, -187500.02, -186994.16, -178401.05, 11666.89, -110104.66, -187500.02, -0.308, -0.062, -0.964, 13:03:52.460
97, -21176.02, -101365.88, -187500.02, -187047.84, -178464.39, 11690.12, -110077.91, -187500.02, 0.000, 0.000, 0.000, 13:03:52.460
98, -21061.53, -101367.86, -187500.02, -187084.56, -178507.80, 11728.90, -110027.40, -187500.02, 0.000, 0.000, 0.000, 13:03:52.460
99, -21017.05, -101442.38, -187500.02, -187199.31, -178628.11, 11693.27, -110053.28, -187500.02, 0.000, 0.000, 0.000, 13:03:52.461
100, -21134.63, -101514.47, -187500.02, -187324.88, -178758.92, 11651.05, -110099.23, -187500.02, 0.000, 0.000, 0.000, 13:03:52.461
101, -21157.74, -101540.30, -187500.02, -187398.69, -178840.66, 11659.76, -110094.95, -187500.02, 0.000, 0.000, 0.000, 13:03:52.461
102, -21088.58, -101547.93, -187500.02, -187446.64, -178895.47, 11692.15, -110055.72, -187500.02, 0.000, 0.000, 0.000, 13:03:52.461
103, -21036.39, -101591.96, -187500.02, -187500.02, -178985.36, 11688.24, -110049.08, -187500.02, 0.000, 0.000, 0.000, 13:03:52.461
104, -21135.18, -101643.41, -187500.02, -187500.02, -179095.38, 11666.67, -110071.41, -187500.02, 0.000, 0.000, 0.000, 13:03:52.461
105, -21180.15, -101643.98, -187500.02, -187500.02, -179153.52, 11695.10, -110046.17, -187500.02, 0.000, 0.000, 0.000, 13:03:52.461
106, -21085.63, -101657.38, -187500.02, -187500.02, -179212.86, 11719.78, -110018.08, -187500.02, -0.310, -0.064, -0.968, 13:03:52.461
107, -21016.94, -101730.36, -187500.02, -187500.02, -179327.59, 11690.97, -110040.88, -187500.02, 0.000, 0.000, 0.000, 13:03:52.461
108, -21115.54, -101807.79, -187500.02, -187500.02, -179461.03, 11647.09, -110085.20, -187500.02, 0.000, 0.000, 0.000, 13:03:52.461
109, -21154.05, -101802.91, -187500.02, -187500.02, -179513.20, 11682.85, -110052.30, -187500.02, 0.000, 0.000, 0.000, 13:03:52.461
110, -21096.51, -101818.32, -187500.02, -187500.02, -179577.42, 11705.74, -110026.19, -187500.02, 0.000, 0.000, 0.000, 13:03:52.461
111, -21023.29, -101881.46, -187500.02, -187500.02, -179683.80, 11686.74, -110038.17, -187500.02, 0.000, 0.000, 0.000, 13:03:52.462
112, -21088.24, -101942.01, -187500.02, -187500.02, -179795.22, 11662.51, -110060.61, -187500.02, 0.000, 0.000, 0.000, 13:03:52.462
113, -21169.31, -102000.35, -187500.02, -187500.02, -179910.95, 11633.97, -110094.84, -187500.02, 0.000, 0.000, 0.000, 13:03:52.462
114, -21105.81, -102044.36, -187500.02, -187500.02, -180005.05, 11629.37, -110103.46, -187500.02, 0.000, 0.000, 0.000, 13:03:52.462
115, -21036.97, -102050.87, -187500.02, -187500.02, -180054.22, 11664.79, -110060.37, -187500.02, 0.000, 0.000, 0.000, 13:03:52.462
116, -21086.41, -102116.45, -187500.02, -187500.02, -180170.52, 11635.00, -110086.63, -187500.02, -0.300, -0.066, -0.968, 13:03:52.462
117, -21145.17, -102109.05, -187500.02, -187500.02, -180221.63, 11672.84, -110054.38, -187500.02, 0.000, 0.000, 0.000, 13:03:52.462
118, -21133.13, -102111.52, -187500.02, -187500.02, -180275.44, 11705.90, -110023.48, -187500.02, 0.000, 0.000, 0.000, 13:03:52.462
119, -21012.36, -102136.94, -187500.02, -187500.02, -180345.98, 11719.73, -110002.12, -187500.02, 0.000, 0.000, 0.000, 13:03:52.462
120, -21021.46, -102240.48, -187500.02, -187500.02, -180500.88, 11652.39, -110066.71, -187500.02, 0.000, 0.000, 0.000, 13:03:52.462
121, -21147.59, -102299.66, -187500.02, -187500.02, -180619.44, 11622.24, -110103.46, -187500.02, 0.000, 0.000, 0.000, 13:03:52.930
122, -21168.71, -102330.15, -187500.02, -187500.02, -180705.95, 11623.85, -110106.19, -187500.02, 0.000, 0.000, 0.000, 13:03:52.930
123, -21092.42, -102334.82, -187500.02, -187500.02, -180756.50, 11660.21, -110065.51, -187500.02, 0.000, 0.000, 0.000, 13:03:52.930
124, -21032.01, -102374.54, -187500.02, -187500.02, -180842.08, 11659.63, -110058.80, -187500.02, 0.000, 0.000, 0.000, 13:03:52.930
125, -21131.16, -102394.27, -187500.02, -187500.02, -180917.81, 11669.40, -110049.16, -187500.02, 0.000, 0.000, 0.000, 13:03:52.931
126, -21156.93, -102422.24, -187500.02, -187500.02, -181000.94, 11674.03, -110046.48, -187500.02, -0.298, -0.062, -0.964, 13:03:52.931
127, -21092.71, -102460.37, -187500.02, -187500.02, -181084.63, 11676.57, -110040.43, -187500.02, 0.000, 0.000, 0.000, 13:03:52.931
128, -21031.05, -102470.27, -187500.02, -187500.02, -181137.69, 11708.11, -109999.48, -187500.02, 0.000, 0.000, 0.000, 13:03:52.931
129, -21119.02, -102489.95, -187500.02, -187500.02, -181213.56, 11717.52, -109986.85, -187500.02, 0.000, 0.000, 0.000, 13:03:52.931
130, -21161.74, -102505.30, -187500.02, -187500.02, -181286.88, 11730.04, -109975.02, -187500.02, 0.000, 0.000, 0.000, 13:03:52.931
131, -21076.69, -102521.68, -187500.02, -187500.02, -181350.25, 11749.66, -109949.37, -187500.02, 0.000, 0.000, 0.000, 13:03:52.931
132, -21018.84, -102565.60, -187500.02, -187500.02, -181438.89, 11743.49, -109943.78, -187500.02, 0.000, 0.000, 0.000, 13:03:52.931
133, -21111.47, -102643.99, -187500.02, -187500.02, -181574.19, 11695.73, -109990.70, -187500.02, 0.000, 0.000, 0.000, 13:03:52.931
134, -21187.60, -102642.45, -187500.02, -187500.02, -181629.20, 11725.68, -109962.66, -187500.02, 0.000, 0.000, 0.000, 13:03:52.932
135, -21123.69, -102643.14, -187500.02, -187500.02, -181678.14, 11760.06, -109924.38, -187500.02, 0.000, 0.000, 0.000, 13:03:52.932
136, -21026.31, -102705.88, -187500.02, -187500.02, -181782.03, 11738.20, -109938.91, -187500.02, -0.302, -0.068, -0.964, 13:03:52.932
137, -21068.44, -102792.88, -187500.02, -187500.02, -181920.44, 11685.11, -109993.20, -187500.02, 0.000, 0.000, 0.000, 13:03:52.932
138, -21181.56, -102823.84, -187500.02, -187500.02, -182010.63, 11684.13, -110002.56, -187500.02, 0.000, 0.000, 0.000, 13:03:52.932
139, -21141.26, -102816.59, -187500.02, -187500.02, -182055.22, 11724.38, -109961.68, -187500.02, 0.000, 0.000, 0.000, 13:03:52.932
140, -21014.82, -102845.23, -187500.02, -187500.02, -182127.47, 11735.92, -109943.00, -187500.02, 0.000, 0.000, 0.000, 13:03:52.932
141, -21067.23, -102932.26, -187500.02, -187500.02, -182263.06, 11685.58, -109992.53, -187500.02, 0.000, 0.000, 0.000, 13:03:52.932
142, -21169.31, -102961.97, -187500.02, -187500.02, -182351.20, 11684.44, -109998.09, -187500.02, 0.000, 0.000, 0.000, 13:03:52.933
143, -21148.35, -102992.86, -187500.02, -187500.02, -182437.02, 11685.47, -109999.14, -187500.02, 0.000, 0.000, 0.000, 13:03:52.933
144, -21053.31, -102993.28, -187500.02, -187500.02, -182480.59, 11724.92, -109953.91, -187500.02, 0.000, 0.000, 0.000, 13:03:52.933
145, -21034.69, -103021.20, -187500.02, -187500.02, -182555.03, 11733.77, -109940.05, -187500.02, 0.000, 0.000, 0.000, 13:03:52.933
146, -21136.39, -103043.86, -187500.02, -187500.02, -182635.19, 11736.10, -109938.57, -187500.02, -0.308, -0.062, -0.962, 13:03:52.933
147, -21140.86, -103130.38, -187500.02, -187500.02, -182777.56, 11678.92, -109999.73, -187500.02, 0.000, 0.000, 0.000, 13:03:52.933
148, -21062.41, -103171.45, -187500.02, -187500.02, -182862.19, 11678.09, -109997.58, -187500.02, 0.000, 0.000, 0.000, 13:03:52.934
149, -21044.90, -103197.55, -187500.02, -187500.02, -182932.48, 11691.21, -109978.54, -187500.02, 0.000, 0.000, 0.000, 13:03:52.934
150, -21161.27, -103214.63, -187500.02, -187500.02, -183004.44, 11704.80, -109967.94, -187500.02, 0.000, 0.000, 0.000, 13:03:52.934
151, -21182.17, -103223.57, -187500.02, -187500.02, -183067.06, 11726.98, -109948.30, -187500.02, 0.000, 0.000, 0.000, 13:03:52.934
152, -21082.97, -103250.55, -187500.02, -187500.02, -183141.78, 11735.43, -109935.48, -187500.02, 0.000, 0.000, 0.000, 13:03:52.934
153, -21052.91, -103269.62, -187500.02, -187500.02, -183206.47, 11751.76, -109908.11, -187500.02, 0.000, 0.000, 0.000, 13:03:52.934
154, -21127.45, -103331.87, -187500.02, -187500.02, -183324.31, 11717.79, -109942.33, -187500.02, 0.000, 0.000, 0.000, 13:03:52.935
155, -21136.30, -103356.63, -187500.02, -187500.02, -183405.27, 11722.10, -109941.16, -187500.02, -0.312, -0.064, -0.966, 13:03:52.935
156, -21074.65, -103379.16, -187500.02, -187500.02, -183475.42, 11736.19, -109924.34, -187500.02, 0.000, 0.000, 0.000, 13:03:52.935
157, -21009.05, -103424.31, -187500.02, -187500.02, -183563.98, 11728.29, -109923.48, -187500.02, 0.000, 0.000, 0.000, 13:03:52.935
158, -21097.27, -103489.35, -187500.02, -187500.02, -183682.97, 11694.16, -109957.05, -187500.02, 0.000, 0.000, 0.000, 13:03:52.935
159, -21177.41, -103519.77, -187500.02, -187500.02, -183771.83, 11690.52, -109964.63, -187500.02, 0.000, 0.000, 0.000, 13:03:52.935
160, -21124.41, -103549.46, -187500.02, -187500.02, -183851.88, 11694.07, -109959.88, -187500.02, 0.000, 0.000, 0.000, 13:03:52.936
161, -21011.80, -103569.80, -187500.02, -187500.02, -183915.25, 11712.25, -109932.94, -187500.02, 0.000, 0.000, 0.000, 13:03:52.936
162, -21074.32, -103630.75, -187500.02, -187500.02, -184027.09, 11682.90, -109959.00, -187500.02, 0.000, 0.000, 0.000, 13:03:52.936
163, -21160.87, -103688.42, -187500.02, -187500.02, -184142.27, 11654.07, -109995.30, -187500.02, 0.000, 0.000, 0.000, 13:03:52.936
164, -21132.39, -103681.89, -187500.02, -187500.02, -184186.03, 11693.76, -109956.70, -187500.02, 0.000, 0.000, 0.000, 13:03:52.936
165, -21033.59, -103711.35, -187500.02, -187500.02, -184258.25, 11701.83, -109939.17, -187500.02, -0.306, -0.060, -0.972, 13:03:52.936
166, -21065.54, -103790.48, -187500.02, -187500.02, -184386.86, 11657.71, -109978.54, -187500.02, 0.000, 0.000, 0.000, 13:03:52.937
167, -21167.44, -103813.66, -187500.02, -187500.02, -184468.97, 11662.36, -109977.51, -187500.02, 0.000, 0.000, 0.000, 13:03:52.937
168, -21136.48, -103814.57, -187500.02, -187500.02, -184523.45, 11692.31, -109947.16, -187500.02, 0.000, 0.000, 0.000, 13:03:52.937
169, -21045.02, -103820.83, -187500.02, -187500.02, -184575.36, 11721.10, -109910.09, -187500.02, 0.000, 0.000, 0.000, 13:03:52.937
170, -21037.19, -103913.68, -187500.02, -187500.02, -184717.36, 11662.71, -109964.97, -187500.02, 0.000, 0.000, 0.000, 13:03:52.937
171, -21144.35, -103949.11, -187500.02, -187500.02, -184811.23, 11654.24, -109978.71, -187500.02, 0.000, 0.000, 0.000, 13:03:52.937
172, -21156.42, -103954.65, -187500.02, -187500.02, -184868.86, 11679.39, -109955.36, -187500.02, 0.000, 0.000, 0.000, 13:03:52.938
173, -21072.73, -103944.19, -187500.02, -187500.02, -184902.41, 11724.81, -109900.91, -187500.02, 0.000, 0.000, 0.000, 13:03:52.938
174, -21004.18, -103996.05, -187500.02, -187500.02, -184998.92, 11708.45, -109907.08, -187500.02, 0.000, 0.000, 0.000, 13:03:52.938
175, -21139.16, -104047.59, -187500.02, -187500.02, -185105.00, 11686.07, -109929.95, -187500.02, -0.308, -0.064, -0.972, 13:03:52.938
176, -21168.69, -104095.02, -187500.02, -187500.02, -185208.67, 11669.89, -109951.91, -187500.02, 0.000, 0.000, 0.000, 13:03:52.938
177, -21052.44, -104073.59, -187500.02, -187500.02, -185233.27, 11727.98, -109890.25, -187500.02, 0.000, 0.000, 0.000, 13:03:52.938
178, -20990.84, -104122.34, -187500.02, -187500.02, -185329.08, 11714.62, -109894.72, -187500.02, 0.000, 0.000, 0.000, 13:03:52.939
179, -21108.52, -104160.69, -187500.02, -187500.02, -185425.03, 11701.99, -109904.57, -187500.02, 0.000, 0.000, 0.000, 13:03:52.939
180, -21137.24, -104172.83, -187500.02, -187500.02, -185495.73, 11713.79, -109893.58, -187500.02, 0.000, 0.000, 0.000, 13:03:52.939
181, -21073.16, -104197.37, -187500.02, -187500.02, -185569.86, 11720.74, -109883.05, -187500.02, 0.000, 0.000, 0.000, 13:03:52.939
182, -20983.97, -104260.80, -187500.02, -187500.02, -185679.16, 11693.40, -109904.30, -187500.02, 0.000, 0.000, 0.000, 13:03:52.939
183, -21079.42, -104336.29, -187500.02, -187500.02, -185809.95, 11647.87, -109951.52, -187500.02, 0.000, 0.000, 0.000, 13:03:52.939
184, -21160.60, -104340.31, -187500.02, -187500.02, -185873.86, 11669.60, -109934.30, -187500.02, 0.000, 0.000, 0.000, 13:03:52.940
185, -21101.52, -104346.91, -187500.02, -187500.02, -185929.94, 11695.01, -109905.87, -187500.02, -0.308, -0.060, -0.972, 13:03:52.940
186, -21009.95, -104406.65, -187500.02, -187500.02, -186031.69, 11674.14, -109920.42, -187500.02, 0.000, 0.000, 0.000, 13:03:52.940
187, -21053.53, -104490.09, -187500.02, -187500.02, -186164.81, 11624.52, -109970.84, -187500.02, 0.000, 0.000, 0.000, 13:03:52.940
188, -21160.57, -104552.25, -187500.02, -187500.02, -186287.45, 11587.08, -110015.98, -187500.02, 0.000, 0.000, 0.000, 13:03:52.940
189, -21110.42, -104579.92, -187500.02, -187500.02, -186368.81, 11589.89, -110017.20, -187500.02, 0.000, 0.000, 0.000, 13:03:52.941
190, -21009.54, -104547.51, -187500.02, -187500.02, -186382.34, 11659.76, -109941.88, -187500.02, 0.000, 0.000, 0.000, 13:03:52.941
191, -21034.38, -104588.70, -187500.02, -187500.02, -186473.83, 11652.59, -109944.09, -187500.02, 0.000, 0.000, 0.000, 13:03:52.941
192, -21146.54, -104612.82, -187500.02, -187500.02, -186555.59, 11654.74, -109944.41, -187500.02, 0.000, 0.000, 0.000, 13:03:52.941
193, -21140.41, -104614.07, -187500.02, -187500.02, -186609.09, 11684.15, -109916.29, -187500.02, 0.000, 0.000, 0.000, 13:03:52.941
194, -21066.76, -104610.27, -187500.02, -187500.02, -186647.45, 11725.81, -109870.27, -187500.02, 0.000, 0.000, 0.000, 13:03:52.941
195, -21039.94, -104664.38, -187500.02, -187500.02, -186746.98, 11706.32, -109883.79, -187500.02, -0.308, -0.062, -0.970, 13:03:52.942
196, -21117.64, -104713.92, -187500.02, -187500.02, -186853.33, 11682.43, -109908.91, -187500.02, 0.000, 0.000, 0.000, 13:03:52.942
197, -21131.94, -104764.66, -187500.02, -187500.02, -186960.58, 11659.88, -109933.95, -187500.02, 0.000, 0.000, 0.000, 13:03:52.942
198, -21049.49, -104798.88, -187500.02, -187500.02, -187038.94, 11663.09, -109927.53, -187500.02, 0.000, 0.000, 0.000, 13:03:52.942
199, -20978.34, -104854.35, -187500.02, -187500.02, -187137.78, 11647.07, -109937.95, -187500.02, 0.000, 0.000, 0.000, 13:03:52.942
200, -21112.38, -104919.20, -187500.02, -187500.02, -187256.56, 11612.69, -109978.23, -187500.02, 0.000, 0.000, 0.000, 13:03:52.942
201, -21155.88, -104934.93, -187500.02, -187500.02, -187326.20, 11625.16, -109970.63, -187500.02, 0.000, 0.000, 0.000, 13:03:52.943
202, -21073.92, -104931.42, -187500.02, -187500.02, -187367.56, 11664.37, -109927.84, -187500.02, 0.000, 0.000, 0.000, 13:03:52.943
203, -20997.88, -104957.91, -187500.02, -187500.02, -187437.08, 11675.23, -109908.84, -187500.02, 0.000, 0.000, 0.000, 13:03:52.943
204, -21100.65, -104992.60, -187500.02, -187500.02, -187500.02, 11667.83, -109915.08, -187500.02, 0.000, 0.000, 0.000, 13:03:52.943
205, -21189.65, -105027.65, -187500.02, -187500.02, -187500.02, 11657.10, -109927.89, -187500.02, -0.306, -0.064, -0.976, 13:03:52.943
206, -21100.20, -105040.77, -187500.02, -187500.02, -187500.02, 11677.38, -109905.91, -187500.02, 0.000, 0.000, 0.000, 13:03:52.944
207, -20988.62, -105121.32, -187500.02, -187500.02, -187500.02, 11635.54, -109942.13, -187500.02, 0.000, 0.000, 0.000, 13:03:52.944
208, -21069.80, -105191.04, -187500.02, -187500.02, -187500.02, 11599.79, -109981.22, -187500.02, 0.000, 0.000, 0.000, 13:03:52.944
209, -21136.90, -105184.45, -187500.02, -187500.02, -187500.02, 11633.21, -109952.07, -187500.02, 0.000, 0.000, 0.000, 13:03:52.944
210, -21107.20, -105208.18, -187500.02, -187500.02, -187500.02, 11641.19, -109943.42, -187500.02, 0.000, 0.000, 0.000, 13:03:52.944
211, -21022.55, -105207.60, -187500.02, -187500.02, -187500.02, 11679.26, -109897.06, -187500.02, 0.000, 0.000, 0.000, 13:03:52.945
212, -21063.41, -105286.03, -187500.02, -187500.02, -187500.02, 11631.36, -109941.79, -187500.02, 0.000, 0.000, 0.000, 13:03:52.945
213, -21168.38, -105286.15, -187500.02, -187500.02, -187500.02, 11658.40, -109919.15, -187500.02, 0.000, 0.000, 0.000, 13:03:52.945
214, -21127.40, -105268.45, -187500.02, -187500.02, -187500.02, 11706.75, -109870.63, -187500.02, 0.000, 0.000, 0.000, 13:03:52.945
215, -21019.71, -105278.59, -187500.02, -187500.02, -187500.02, 11732.27, -109835.66, -187500.02, -0.306, -0.064, -0.974, 13:03:52.945
216, -21033.08, -105334.58, -187500.02, -187500.02, -187500.02, 11710.91, -109850.64, -187500.02, 0.000, 0.000, 0.000, 13:03:52.945
217, -21148.08, -105344.80, -187500.02, -187500.02, -187500.02, 11725.41, -109838.79, -187500.02, 0.000, 0.000, 0.000, 13:03:52.946
218, -21131.16, -105359.86, -187500.02, -187500.02, -187500.02, 11736.70, -109828.13, -187500.02, 0.000, 0.000, 0.000, 13:03:52.946
219, -21041.62, -105406.66, -187500.02, -187500.02, -187500.02, 11725.14, -109833.59, -187500.02, 0.000, 0.000, 0.000, 13:03:52.946
220, -21033.17, -105463.57, -187500.02, -187500.02, -187500.02, 11702.90, -109848.43, -187500.02, 0.000, 0.000, 0.000, 13:03:52.946
221, -21132.75, -105494.89, -187500.02, -187500.02, -187500.02, 11696.24, -109856.38, -187500.02, 0.000, 0.000, 0.000, 13:03:52.946
222, -21158.16, -105509.93, -187500.02, -187500.02, -187500.02, 11709.77, -109847.42, -187500.02, 0.000, 0.000, 0.000, 13:03:52.946
223, -21069.85, -105516.99, -187500.02, -187500.02, -187500.02, 11738.69, -109815.81, -187500.02, 0.000, 0.000, 0.000, 13:03:52.947
224, -20998.05, -105567.62, -187500.02, -187500.02, -187500.02, 11724.07, -109824.35, -187500.02, 0.000, 0.000, 0.000, 13:03:52.947
225, -21108.85, -105613.80, -187500.02, -187500.02, -187500.02, 11704.36, -109846.39, -187500.02, -0.296, -0.070, -0.968, 13:03:52.947
226, -21149.51, -105620.05, -187500.02, -187500.02, -187500.02, 11723.69, -109830.08, -187500.02, 0.000, 0.000, 0.000, 13:03:52.947
227, -21070.12, -105625.31, -187500.02, -187500.02, -187500.02, 11752.97, -109797.15, -187500.02, 0.000, 0.000, 0.000, 13:03:52.947
228, -20992.36, -105667.35, -187500.02, -187500.02, -187500.02, 11747.32, -109793.38, -187500.02, 0.000, 0.000, 0.000, 13:03:52.947
229, -21102.17, -105726.36, -187500.02, -187500.02, -187500.02, 11716.65, -109824.09, -187500.02, 0.000, 0.000, 0.000, 13:03:52.947
230, -21162.03, -105739.04, -187500.02, -187500.02, -187500.02, 11727.98, -109817.76, -187500.02, 0.000, 0.000, 0.000, 13:03:52.947
231, -21099.76, -105719.88, -187500.02, -187500.02, -187500.02, 11778.83, -109761.57, -187500.02, 0.000, 0.000, 0.000, 13:03:52.948
232, -21001.23, -105777.34, -187500.02, -187500.02, -187500.02, 11759.19, -109770.22, -187500.02, 0.000, 0.000, 0.000, 13:03:52.948
233, -21061.80, -105828.60, -187500.02, -187500.02, -187500.02, 11738.31, -109788.50, -187500.02, 0.000, 0.000, 0.000, 13:03:52.948
234, -21148.01, -105859.18, -187500.02, -187500.02, -187500.02, 11730.37, -109800.98, -187500.02, 0.000, 0.000, 0.000, 13:03:52.948
235, -21109.63, -105865.88, -187500.02, -187500.02, -187500.02, 11750.89, -109778.24, -187500.02, -0.300, -0.066, -0.968, 13:03:52.948
236, -21026.44, -105854.86, -187500.02, -187500.02, -187500.02, 11796.98, -109721.49, -187500.02, 0.000, 0.000, 0.000, 13:03:52.948
237, -21047.86, -105916.76, -187500.02, -187500.02, -187500.02, 11764.97, -109749.09, -187500.02, 0.000, 0.000, 0.000, 13:03:52.948
238, -21149.49, -105902.38, -187500.02, -187500.02, -187500.02, 11800.58, -109714.30, -187500.02, 0.000, 0.000, 0.000, 13:03:52.948
239, -21145.06, -105942.41, -187500.02, -187500.02, -187500.02, 11786.39, -109728.29, -187500.02, 0.000, 0.000, 0.000, 13:03:52.948
240, -21048.30, -105920.29, -187500.02, -187500.02, -187500.02, 11841.80, -109662.05, -187500.02, 0.000, 0.000, 0.000, 13:03:52.949
241, -21037.37, -105990.11, -187500.02, -187500.02, -187500.02, 11802.28, -109692.57, -187500.02, 0.000, 0.000, 0.000, 13:03:53.410
242, -21135.47, -106040.12, -187500.02, -187500.02, -187500.02, 11774.97, -109723.41, -187500.02, 0.000, 0.000, 0.000, 13:03:53.411
243, -21138.36, -106034.39, -187500.02, -187500.02, -187500.02, 11807.62, -109691.45, -187500.02, 0.000, 0.000, 0.000, 13:03:53.411
244, -21057.53, -106053.81, -187500.02, -187500.02, -187500.02, 11822.40, -109669.75, -187500.02, 0.000, 0.000, 0.000, 13:03:53.411
245, -21004.25, -106129.79, -187500.02, -187500.02, -187500.02, 11778.16, -109705.95, -187500.02, -0.308, -0.056, -0.970, 13:03:53.411
246, -21133.82, -106152.50, -187500.02, -187500.02, -187500.02, 11780.60, -109706.59, -187500.02, 0.000, 0.000, 0.000, 13:03:53.411
247, -21158.05, -106130.13, -187500.02, -187500.02, -187500.02, 11827.02, -109661.03, -187500.02, 0.000, 0.000, 0.000, 13:03:53.411
248, -21051.07, -106121.63, -187500.02, -187500.02, -187500.02, 11866.58, -109613.89, -187500.02, 0.000, 0.000, 0.000, 13:03:53.411
249, -21019.78, -106164.91, -187500.02, -187500.02, -187500.02, 11855.66, -109614.05, -187500.02, 0.000, 0.000, 0.000, 13:03:53.411
250, -21124.01, -106200.38, -187500.02, -187500.02, -187500.02, 11845.15, -109621.91, -187500.02, 0.000, 0.000, 0.000, 13:03:53.411
251, -21153.56, -106188.41, -187500.02, -187500.02, -187500.02, 11878.59, -109588.34, -187500.02, 0.000, 0.000, 0.000, 13:03:53.412
252, -21083.21, -106199.08, -187500.02, -187500.02, -187500.02, 11894.06, -109564.78, -187500.02, 0.000, 0.000, 0.000, 13:03:53.412
253, -21005.36, -106254.73, -187500.02, -187500.02, -187500.02, 11870.85, -109576.67, -187500.02, 0.000, 0.000, 0.000, 13:03:53.412
254, -21090.32, -106312.25, -187500.02, -187500.02, -187500.02, 11839.79, -109604.88, -187500.02, 0.000, 0.000, 0.000, 13:03:53.412
255, -21150.38, -106343.13, -187500.02, -187500.02, -187500.02, 11831.09, -109613.94, -187500.02, -0.308, -0.064, -0.976, 13:03:53.412
0, -21088.22, -106366.78, -187500.02, -187500.02, -187500.02, 11837.21, -109604.68, -187500.02, 0.000, 0.000, 0.000, 13:03:53.412
1, -21005.92, -106387.84, -187500.02, -187500.02, -187500.02, 11848.82, -109582.93, -187500.02, 0.000, 0.000, 0.000, 13:03:53.412
2, -21065.45, -106431.78, -187500.02, -187500.02, -187500.02, 11830.15, -109596.30, -187500.02, 0.000, 0.000, 0.000, 13:03:53.412
3, -21174.95, -106441.28, -187500.02, -187500.02, -187500.02, 11840.43, -109587.05, -187500.02, 0.000, 0.000, 0.000, 13:03:53.412
4, -21133.69, -106418.88, -187500.02, -187500.02, -187500.02, 11885.83, -109534.85, -187500.02, 0.000, 0.000, 0.000, 13:03:53.412
5, -21038.58, -106429.41, -187500.02, -187500.02, -187500.02, 11903.49, -109502.80, -187500.02, 0.000, 0.000, 0.000, 13:03:53.412
6, -21056.93, -106516.88, -187500.02, -187500.02, -187500.02, 11843.45, -109555.80, -187500.02, 0.000, 0.000, 0.000, 13:03:53.412
7, -21154.99, -106553.73, -187500.02, -187500.02, -187500.02, 11831.18, -109571.76, -187500.02, 0.000, 0.000, 0.000, 13:03:53.413
8, -21135.34, -106568.29, -187500.02, -187500.02, -187500.02, 11843.65, -109559.44, -187500.02, -0.310, -0.062, -0.968, 13:03:53.413
9, -21051.41, -106544.23, -187500.02, -187500.02, -187500.02, 11899.42, -109494.58, -187500.02, 0.000, 0.000, 0.000, 13:03:53.413
10, -21030.13, -106606.10, -187500.02, -187500.02, -187500.02, 11866.45, -109516.48, -187500.02, 0.000, 0.000, 0.000, 13:03:53.413
11, -21132.77, -106656.82, -187500.02, -187500.02, -187500.02, 11834.49, -109545.88, -187500.02, 0.000, 0.000, 0.000, 13:03:53.414
12, -21135.32, -106684.45, -187500.02, -187500.02, -187500.02, 11828.41, -109551.93, -187500.02, 0.000, 0.000, 0.000, 13:03:53.414
13, -21093.36, -106695.02, -187500.02, -187500.02, -187500.02, 11848.75, -109526.16, -187500.02, 0.000, 0.000, 0.000, 13:03:53.414
14, -21040.63, -106734.88, -187500.02, -187500.02, -187500.02, 11839.90, -109528.28, -187500.02, 0.000, 0.000, 0.000, 13:03:53.414
15, -21128.23, -106728.44, -187500.02, -187500.02, -187500.02, 11867.64, -109497.17, -187500.02, 0.000, 0.000, 0.000, 13:03:53.414
16, -21157.87, -106737.65, -187500.02, -187500.02, -187500.02, 11878.30, -109484.65, -187500.02, 0.000, 0.000, 0.000, 13:03:53.415
17, -21083.86, -106742.18, -187500.02, -187500.02, -187500.02, 11901.57, -109453.83, -187500.02, 0.000, 0.000, 0.000, 13:03:53.415
18, -21015.29, -106759.73, -187500.02, -187500.02, -187500.02, 11913.43, -109429.38, -187500.02, -0.304, -0.066, -0.964, 13:03:53.415
19, -21113.14, -106793.26, -187500.02, -187500.02, -187500.02, 11901.50, -109435.88, -187500.02, 0.000, 0.000, 0.000, 13:03:53.415
20, -21166.74, -106817.10, -187500.02, -187500.02, -187500.02, 11898.57, -109440.48, -187500.02, 0.000, 0.000, 0.000, 13:03:53.415
21, -21106.10, -106832.33, -187500.02, -187500.02, -187500.02, 11910.31, -109424.59, -187500.02, 0.000, 0.000, 0.000, 13:03:53.416
22, -21032.34, -106874.73, -187500.02, -187500.02, -187500.02, 11898.35, -109426.42, -187500.02, 0.000, 0.000, 0.000, 13:03:53.416
23, -21085.72, -106925.63, -187500.02, -187500.02, -187500.02, 11871.15, -109449.49, -187500.02, 0.000, 0.000, 0.000, 13:03:53.416
24, -21160.35, -106941.74, -187500.02, -187500.02, -187500.02, 11874.36, -109446.99, -187500.02, 0.000, 0.000, 0.000, 13:03:53.416
25, -21106.93, -106950.27, -187500.02, -187500.02, -187500.02, 11892.40, -109426.27, -187500.02, 0.000, 0.000, 0.000, 13:03:53.416
26, -21032.28, -106952.78, -187500.02, -187500.02, -187500.02, 11919.04, -109388.00, -187500.02, 0.000, 0.000, 0.000, 13:03:53.417
27, -21099.53, -106996.88, -187500.02, -187500.02, -187500.02, 11898.75, -109400.77, -187500.02, 0.000, 0.000, 0.000, 13:03:53.417
28, -21183.02, -106989.70, -187500.02, -187500.02, -187500.02, 11925.21, -109372.54, -187500.02, -0.306, -0.064, -0.966, 13:03:53.417
29, -21137.62, -107024.75, -187500.02, -187500.02, -187500.02, 11915.40, -109379.02, -187500.02, 0.000, 0.000, 0.000, 13:03:53.417
30, -21047.07, -107015.88, -187500.02, -187500.02, -187500.02, 11953.24, -109330.70, -187500.02, 0.000, 0.000, 0.000, 13:03:53.417
31, -21041.91, -107069.03, -187500.02, -187500.02, -187500.02, 11926.40, -109348.89, -187500.02, 0.000, 0.000, 0.000, 13:03:53.418
32, -21156.89, -107084.50, -187500.02, -187500.02, -187500.02, 11931.65, -109345.69, -187500.02, 0.000, 0.000, 0.000, 13:03:53.418
33, -21142.60, -107061.08, -187500.02, -187500.02, -187500.02, 11979.15, -109297.16, -187500.02, 0.000, 0.000, 0.000, 13:03:53.418
34, -21037.57, -107102.31, -187500.02, -187500.02, -187500.02, 11968.46, -109301.13, -187500.02, 0.000, 0.000, 0.000, 13:03:53.418
35, -21037.95, -107162.69, -187500.02, -187500.02, -187500.02, 11936.79, -109327.84, -187500.02, 0.000, 0.000, 0.000, 13:03:53.418
36, -21174.86, -107184.52, -187500.02, -187500.02, -187500.02, 11936.37, -109328.97, -187500.02, 0.000, 0.000, 0.000, 13:03:53.419
37, -21150.05, -107193.02, -187500.02, -187500.02, -187500.02, 11946.25, -109315.16, -187500.02, 0.000, 0.000, 0.000, 13:03:53.419
38, -21068.31, -107194.70, -187500.02, -187500.02, -187500.02, 11971.35, -109281.20, -187500.02, -0.306, -0.066, -0.970, 13:03:53.419
39, -21010.06, -107231.24, -187500.02, -187500.02, -187500.02, 11964.69, -109279.33, -187500.02, 0.000, 0.000, 0.000, 13:03:53.419
40, -21125.62, -107281.13, -187500.02, -187500.02, -187500.02, 11938.42, -109306.20, -187500.02, 0.000, 0.000, 0.000, 13:03:53.419
41, -21170.57, -107306.63, -187500.02, -187500.02, -187500.02, 11934.80, -109309.50, -187500.02, 0.000, 0.000, 0.000, 13:03:53.420
42, -21096.94, -107373.69, -187500.02, -187500.02, -187500.02, 11894.44, -109346.48, -187500.02, 0.000, 0.000, 0.000, 13:03:53.420
43, -21043.29, -107419.41, -187500.02, -187500.02, -187500.02, 11879.50, -109354.88, -187500.02, 0.000, 0.000, 0.000, 13:03:53.420
44, -21127.29, -107428.31, -187500.02, -187500.02, -187500.02, 11892.74, -109338.05, -187500.02, 0.000, 0.000, 0.000, 13:03:53.420
45, -21163.79, -107402.45, -187500.02, -187500.02, -187500.02, 11938.20, -109289.32, -187500.02, 0.000, 0.000, 0.000, 13:03:53.420
46, -21115.83, -107381.98, -187500.02, -187500.02, -187500.02, 11984.58, -109234.29, -187500.02, 0.000, 0.000, 0.000, 13:03:53.421
47, -21016.38, -107428.98, -187500.02, -187500.02, -187500.02, 11965.87, -109238.72, -187500.02, 0.000, 0.000, 0.000, 13:03:53.421
48, -21088.02, -107500.87, -187500.02, -187500.02, -187500.02, 11917.12, -109281.79, -187500.02, -0.306, -0.062, -0.968, 13:03:53.421
49, -21178.41, -107515.22, -187500.02, -187500.02, -187500.02, 11922.44, -109277.45, -187500.02, 0.000, 0.000, 0.000, 13:03:53.421
50, -21130.00, -107525.41, -187500.02, -187500.02, -187500.02, 11937.80, -109256.91, -187500.02, 0.000, 0.000, 0.000, 13:03:53.421
51, -21029.26, -107542.11, -187500.02, -187500.02, -187500.02, 11951.59, -109231.32, -187500.02, 0.000, 0.000, 0.000, 13:03:53.422
52, -21055.86, -107575.41, -187500.02, -187500.02, -187500.02, 11942.25, -109233.89, -187500.02, 0.000, 0.000, 0.000, 13:03:53.422
53, -21165.96, -107583.08, -187500.02, -187500.02, -187500.02, 11951.79, -109223.78, -187500.02, 0.000, 0.000, 0.000, 13:03:53.422
54, -21142.38, -107609.63, -187500.02, -187500.02, -187500.02, 11947.01, -109225.35, -187500.02, 0.000, 0.000, 0.000, 13:03:53.422
55, -21043.76, -107595.80, -187500.02, -187500.02, -187500.02, 11987.08, -109174.12, -187500.02, 0.000, 0.000, 0.000, 13:03:53.422
56, -21056.55, -107641.73, -187500.02, -187500.02, -187500.02, 11964.62, -109184.83, -187500.02, 0.000, 0.000, 0.000, 13:03:53.423
57, -21169.16, -107691.23, -187500.02, -187500.02, -187500.02, 11933.69, -109214.95, -187500.02, 0.000, 0.000, 0.000, 13:03:53.423
58, -21148.01, -107708.96, -187500.02, -187500.02, -187500.02, 11939.65, -109209.62, -187500.02, -0.306, -0.058, -0.964, 13:03:53.423
59, -21055.39, -107667.81, -187500.02, -187500.02, -187500.02, 12008.68, -109130.53, -187500.02, 0.000, 0.000, 0.000, 13:03:53.423
60, -21022.15, -107736.43, -187500.02, -187500.02, -187500.02, 11963.64, -109164.15, -187500.02, 0.000, 0.000, 0.000, 13:03:53.423
61, -21143.99, -107773.45, -187500.02, -187500.02, -187500.02, 11945.98, -109180.58, -187500.02, 0.000, 0.000, 0.000, 13:03:53.424
62, -21181.45, -107797.23, -187500.02, -187500.02, -187500.02, 11943.99, -109183.48, -187500.02, 0.000, 0.000, 0.000, 13:03:53.424
63, -21075.77, -107794.66, -187500.02, -187500.02, -187500.02, 11972.93, -109145.60, -187500.02, 0.000, 0.000, 0.000, 13:03:53.424
64, -21026.20, -107856.41, -187500.02, -187500.02, -187500.02, 11939.38, -109169.49, -187500.02, 0.000, 0.000, 0.000, 13:03:53.424
65, -21121.55, -107903.47, -187500.02, -187500.02, -187500.02, 11915.13, -109193.68, -187500.02, 0.000, 0.000, 0.000, 13:03:53.424
66, -21163.10, -107915.23, -187500.02, -187500.02, -187500.02, 11924.54, -109185.23, -187500.02, 0.000, 0.000, 0.000, 13:03:53.425
67, -21099.06, -107920.45, -187500.02, -187500.02, -187500.02, 11945.60, -109159.41, -187500.02, 0.000, 0.000, 0.000, 13:03:53.425
68, -21019.71, -107934.60, -187500.02, -187500.02, -187500.02, 11960.51, -109134.69, -187500.02, -0.302, -0.058, -0.968, 13:03:53.425
69, -21113.84, -108005.70, -187500.02, -187500.02, -187500.02, 11913.39, -109179.02, -187500.02, 0.000, 0.000, 0.000, 13:03:53.425
70, -21167.64, -108007.76, -187500.02, -187500.02, -187500.02, 11925.30, -109161.65, -187500.02, 0.000, 0.000, 0.000, 13:03:53.426
71, -21104.96, -108013.51, -187500.02, -187500.02, -187500.02, 11928.79, -109137.09, -187500.02, 0.000, 0.000, 0.000, 13:03:53.426
72, -21024.70, -108016.39, -187500.02, -187500.02, -187500.02, 11951.54, -109097.99, -187500.02, 0.000, 0.000, 0.000, 13:03:53.426
73, -21069.20, -108068.13, -187500.02, -187500.02, -187500.02, 11923.20, -109120.36, -187500.02, 0.000, 0.000, 0.000, 13:03:53.426
74, -21172.00, -108119.45, -187500.02, -187500.02, -187500.02, 11883.80, -109155.59, -187500.02, 0.000, 0.000, 0.000, 13:03:53.427
75, -21135.43, -108054.23, -187500.02, -187500.02, -187500.02, 11962.54, -109062.07, -187500.02, 0.000, 0.000, 0.000, 13:03:53.427
76, -21011.29, -108074.64, -187500.02, -187500.02, -187500.02, 11967.41, -109041.26, -187500.02, 0.000, 0.000, 0.000, 13:03:53.427
77, -21074.88, -108178.33, -187500.02, -187500.02, -187500.02, 11877.47, -109114.55, -187500.02, 0.000, 0.000, 0.000, 13:03:53.428
78, -21190.93, -108150.45, -187500.02, -187500.02, -187500.02, 11908.36, -109068.73, -187500.02, -0.302, -0.056, -0.966, 13:03:53.428
79, -21137.69, -108152.00, -187500.02, -187500.02, -187500.02, 11926.20, -109046.36, -187500.02, 0.000, 0.000, 0.000, 13:03:53.428
80, -21052.79, -108167.71, -187500.02, -187500.02, -187500.02, 11935.41, -109024.85, -187500.02, 0.000, 0.000, 0.000, 13:03:53.428
81, -21060.69, -108230.41, -187500.02, -187500.02, -187500.02, 11884.85, -109055.03, -187500.02, 0.000, 0.000, 0.000, 13:03:53.428
82, -21180.67, -108229.13, -187500.02, -187500.02, -187500.02, 11894.66, -109032.52, -187500.02, 0.000, 0.000, 0.000, 13:03:53.429
83, -21169.16, -108222.31, -187500.02, -187500.02, -187500.02, 11919.87, -108999.87, -187500.02, 0.000, 0.000, 0.000, 13:03:53.429
84, -21092.58, -108205.95, -187500.02, -187500.02, -187500.02, 11961.56, -108946.04, -187500.02, 0.000, 0.000, 0.000, 13:03:53.429
85, -21061.51, -108269.99, -187500.02, -187500.02, -187500.02, 11924.19, -108973.02, -187500.02, 0.000, 0.000, 0.000, 13:03:53.429
86, -21133.04, -108311.09, -187500.02, -187500.02, -187500.02, 11887.80, -108994.61, -187500.02, 0.000, 0.000, 0.000, 13:03:53.430
87, -21180.40, -108324.48, -187500.02, -187500.02, -187500.02, 11877.83, -108987.52, -187500.02, 0.000, 0.000, 0.000, 13:03:53.430
88, -21150.38, -108284.14, -187500.02, -187500.02, -187500.02, 11942.22, -108909.92, -187500.02, -0.298, -0.058, -0.962, 13:03:53.430
89, -21048.95, -108355.35, -187500.02, -187500.02, -187500.02, 11897.90, -108943.29, -187500.02, 0.000, 0.000, 0.000, 13:03:53.430
90, -21119.11, -108395.81, -187500.02, -187500.02, -187500.02, 11864.98, -108964.80, -187500.02, 0.000, 0.000, 0.000, 13:03:53.430
91, -21170.14, -108347.38, -187500.02, -187500.02, -187500.02, 11923.96, -108900.29, -187500.02, 0.000, 0.000, 0.000, 13:03:53.431
92, -21111.69, -108371.70, -187500.02, -187500.02, -187500.02, 11924.41, -108893.90, -187500.02, 0.000, 0.000, 0.000, 13:03:53.431
93, -21025.26, -108395.12, -187500.02, -187500.02, -187500.02, 11932.08, -108876.38, -187500.02, 0.000, 0.000, 0.000, 13:03:53.431
94, -21107.62, -108452.38, -187500.02, -187500.02, -187500.02, 11896.36, -108909.79, -187500.02, 0.000, 0.000, 0.000, 13:03:53.434
95, -21184.22, -108478.45, -187500.02, -187500.02, -187500.02, 11874.79, -108921.70, -187500.02, 0.000, 0.000, 0.000, 13:03:53.434
96, -21139.34, -108483.25, -187500.02, -187500.02, -187500.02, 11874.39, -108898.79, -187500.02, 0.000, 0.000, 0.000, 13:03:53.434
97, -21047.70, -108483.79, -187500.02, -187500.02, -187500.02, 11896.22, -108857.84, -187500.02, 0.000, 0.000, 0.000, 13:03:53.434
98, -21119.02, -108529.20, -187500.02, -187500.02, -187500.02, 11875.59, -108872.93, -187500.02, -0.300, -0.056, -0.966, 13:03:53.435
99, -21199.00, -108525.20, -187500.02, -187500.02, -187500.02, 11897.18, -108854.04, -187500.02, 0.000, 0.000, 0.000, 13:03:53.435
100, -21145.78, -108536.16, -187500.02, -187500.02, -187500.02, 11898.46, -108842.66, -187500.02, 0.000, 0.000, 0.000, 13:03:53.435
101, -21032.07, -108535.06, -187500.02, -187500.02, -187500.02, 11912.63, -108804.49, -187500.02, 0.000, 0.000, 0.000, 13:03:53.435
102, -21074.70, -108563.60, -187500.02, -187500.02, -187500.02, 11906.42, -108800.30, -187500.02, 0.000, 0.000, 0.000, 13:03:53.435
103, -21200.27, -108570.63, -187500.02, -187500.02, -187500.02, 11917.06, -108789.09, -187500.02, 0.000, 0.000, 0.000, 13:03:53.436
104, -21173.43, -108600.55, -187500.02, -187500.02, -187500.02, 11899.60, -108798.38, -187500.02, 0.000, 0.000, 0.000, 13:03:53.436
105, -21068.78, -108581.69, -187500.02, -187500.02, -187500.02, 11930.49, -108745.46, -187500.02, 0.000, 0.000, 0.000, 13:03:53.436
106, -21031.74, -108579.98, -187500.02, -187500.02, -187500.02, 11952.73, -108708.95, -187500.02, 0.000, 0.000, 0.000, 13:03:53.890
107, -21155.68, -108627.66, -187500.02, -187500.02, -187500.02, 11917.57, -108739.49, -187500.02, 0.000, 0.000, 0.000, 13:03:53.890
108, -21176.60, -108630.86, -187500.02, -187500.02, -187500.02, 11920.48, -108722.32, -187500.02, -0.300, -0.056, -0.968, 13:03:53.890
109, -21078.01, -108610.81, -187500.02, -187500.02, -187500.02, 11962.83, -108668.08, -187500.02, 0.000, 0.000, 0.000, 13:03:53.891
110, -21044.99, -108711.75, -187500.02, -187500.02, -187500.02, 11886.05, -108732.78, -187500.02, 0.000, 0.000, 0.000, 13:03:53.891
111, -21161.42, -108708.66, -187500.02, -187500.02, -187500.02, 11893.45, -108710.23, -187500.02, 0.000, 0.000, 0.000, 13:03:53.891
112, -21170.32, -108679.92, -187500.02, -187500.02, -187500.02, 11932.72, -108662.27, -187500.02, 0.000, 0.000, 0.000, 13:03:53.891
113, -21086.34, -108690.25, -187500.02, -187500.02, -187500.02, 11947.43, -108640.29, -187500.02, 0.000, 0.000, 0.000, 13:03:53.891
114, -21011.76, -108766.65, -187500.02, -187500.02, -187500.02, 11892.02, -108679.77, -187500.02, 0.000, 0.000, 0.000, 13:03:53.892
115, -21135.18, -108807.30, -187500.02, -187500.02, -187500.02, 11856.73, -108698.61, -187500.02, 0.000, 0.000, 0.000, 13:03:53.892
116, -21185.52, -108749.93, -187500.02, -187500.02, -187500.02, 11925.19, -108624.65, -187500.02, 0.000, 0.000, 0.000, 13:03:53.893
117, -21125.08, -108729.45, -187500.02, -187500.02, -187500.02, 11969.85, -108573.20, -187500.02, -0.298, -0.062, -0.968, 13:03:53.893
118, -21038.51, -108752.27, -187500.02, -187500.02, -187500.02, 11973.70, -108557.37, -187500.02, 0.000, 0.000, 0.000, 13:03:53.894
119, -21117.23, -108796.15, -187500.02, -187500.02, -187500.02, 11947.66, -108575.31, -187500.02, 0.000, 0.000, 0.000, 13:03:53.894
120, -21191.31, -108843.65, -187500.02, -187500.02, -187500.02, 11902.15, -108606.61, -187500.02, 0.000, 0.000, 0.000, 13:03:53.894
121, -21154.38, -108822.17, -187500.02, -187500.02, -187500.02, 11931.61, -108555.34, -187500.02, 0.000, 0.000, 0.000, 13:03:53.895
122, -21057.94, -108837.77, -187500.02, -187500.02, -187500.02, 11939.14, -108533.18, -187500.02, 0.000, 0.000, 0.000, 13:03:53.895
123, -21093.01, -108895.04, -187500.02, -187500.02, -187500.02, 11904.34, -108565.34, -187500.02, 0.000, 0.000, 0.000, 13:03:53.895
124, -21161.83, -108927.02, -187500.02, -187500.02, -187500.02, 11880.91, -108584.75, -187500.02, 0.000, 0.000, 0.000, 13:03:53.896
125, -21129.53, -108909.56, -187500.02, -187500.02, -187500.02, 11905.99, -108543.02, -187500.02, 0.000, 0.000, 0.000, 13:03:53.896
126, -21049.06, -108909.36, -187500.02, -187500.02, -187500.02, 11930.44, -108502.43, -187500.02, 0.000, 0.000, 0.000, 13:03:53.896
127, -21054.43, -109007.04, -187500.02, -187500.02, -187500.02, 11859.81, -108569.44, -187500.02, -0.302, -0.058, -0.970, 13:03:53.897
128, -21165.02, -109054.52, -187500.02, -187500.02, -187500.02, 11821.48, -108600.82, -187500.02, 0.000, 0.000, 0.000, 13:03:53.897
129, -21154.70, -109048.99, -187500.02, -187500.02, -187500.02, 11834.64, -108573.44, -187500.02, 0.000, 0.000, 0.000, 13:03:53.897
130, -21048.12, -109033.59, -187500.02, -187500.02, -187500.02, 11876.51, -108523.17, -187500.02, 0.000, 0.000, 0.000, 13:03:53.898
131, -21033.46, -109076.27, -187500.02, -187500.02, -187500.02, 11861.33, -108530.39, -187500.02, 0.000, 0.000, 0.000, 13:03:53.898
132, -21161.94, -109107.29, -187500.02, -187500.02, -187500.02, 11836.79, -108543.29, -187500.02, 0.000, 0.000, 0.000, 13:03:53.898
133, -21165.89, -109083.26, -187500.02, -187500.02, -187500.02, 11868.98, -108498.29, -187500.02, 0.000, 0.000, 0.000, 13:03:53.899
134, -21057.69, -109081.23, -187500.02, -187500.02, -187500.02, 11897.36, -108464.30, -187500.02, 0.000, 0.000, 0.000, 13:03:53.899
135, -21014.91, -109134.53, -187500.02, -187500.02, -187500.02, 11868.82, -108481.95, -187500.02, 0.000, 0.000, 0.000, 13:03:53.899
136, -21144.82, -109145.29, -187500.02, -187500.02, -187500.02, 11864.42, -108472.68, -187500.02, 0.000, 0.000, 0.000, 13:03:53.899
137, -21170.14, -109130.16, -187500.02, -187500.02, -187500.02, 11888.45, -108441.07, -187500.02, -0.304, -0.064, -0.970, 13:03:53.900
138, -21088.74, -109157.34, -187500.02, -187500.02, -187500.02, 11883.44, -108440.73, -187500.02, 0.000, 0.000, 0.000, 13:03:53.900
139, -21033.28, -109202.70, -187500.02, -187500.02, -187500.02, 11864.60, -108451.24, -187500.02, 0.000, 0.000, 0.000, 13:03:53.900
140, -21103.94, -109240.98, -187500.02, -187500.02, -187500.02, 11839.61, -108465.88, -187500.02, 0.000, 0.000, 0.000, 13:03:53.901
141, -21174.57, -109242.25, -187500.02, -187500.02, -187500.02, 11838.91, -108449.86, -187500.02, 0.000, 0.000, 0.000, 13:03:53.901
142, -21130.94, -109203.58, -187500.02, -187500.02, -187500.02, 11893.65, -108379.90, -187500.02, 0.000, 0.000, 0.000, 13:03:53.901
143, -21034.67, -109235.36, -187500.02, -187500.02, -187500.02, 11892.78, -108370.53, -187500.02, 0.000, 0.000, 0.000, 13:03:53.902
144, -21110.60, -109258.25, -187500.02, -187500.02, -187500.02, 11893.74, -108367.29, -187500.02, 0.000, 0.000, 0.000, 13:03:53.902
145, -21187.08, -109250.63, -187500.02, -187500.02, -187500.02, 11912.79, -108344.20, -187500.02, 0.000, 0.000, 0.000, 13:03:53.902
146, -21129.97, -109241.58, -187500.02, -187500.02, -187500.02, 11928.03, -108310.90, -187500.02, 0.000, 0.000, 0.000, 13:03:53.903
147, -21065.65, -109278.44, -187500.02, -187500.02, -187500.02, 11911.42, -108312.95, -187500.02, -0.306, -0.066, -0.974, 13:03:53.903
148, -21116.23, -109358.25, -187500.02, -187500.02, -187500.02, 11844.14, -108368.90, -187500.02, 0.000, 0.000, 0.000, 13:03:53.903
149, -21210.73, -109317.66, -187500.02, -187500.02, -187500.02, 11886.79, -108314.00, -187500.02, 0.000, 0.000, 0.000, 13:03:53.904
150, -21135.90, -109302.64, -187500.02, -187500.02, -187500.02, 11919.72, -108277.75, -187500.02, 0.000, 0.000, 0.000, 13:03:53.904
151, -21037.93, -109342.36, -187500.02, -187500.02, -187500.02, 11906.06, -108284.70, -187500.02, 0.000, 0.000, 0.000, 13:03:53.904
152, -21047.77, -109380.25, -187500.02, -187500.02, -187500.02, 11883.33, -108295.00, -187500.02, 0.000, 0.000, 0.000, 13:03:53.905
153, -21153.44, -109380.23, -187500.02, -187500.02, -187500.02, 11889.21, -108281.57, -187500.02, 0.000, 0.000, 0.000, 13:03:53.905
154, -21153.73, -109411.36, -187500.02, -187500.02, -187500.02, 11876.98, -108295.45, -187500.02, 0.000, 0.000, 0.000, 13:03:53.905
155, -21052.15, -109436.08, -187500.02, -187500.02, -187500.02, 11872.42, -108288.81, -187500.02, 0.000, 0.000, 0.000, 13:03:53.906
156, -21049.31, -109417.87, -187500.02, -187500.02, -187500.02, 11907.09, -108236.27, -187500.02, 0.000, 0.000, 0.000, 13:03:53.906
157, -21155.63, -109469.23, -187500.02, -187500.02, -187500.02, 11871.19, -108270.21, -187500.02, -0.302, -0.064, -0.970, 13:03:53.906
158, -21172.71, -109512.86, -187500.02, -187500.02, -187500.02, 11839.65, -108298.20, -187500.02, 0.000, 0.000, 0.000, 13:03:53.907
159, -21087.84, -109510.85, -187500.02, -187500.02, -187500.02, 11856.57, -108265.48, -187500.02, 0.000, 0.000, 0.000, 13:03:53.907
160, -21028.97, -109564.38, -187500.02, -187500.02, -187500.02, 11828.72, -108283.52, -187500.02, 0.000, 0.000, 0.000, 13:03:53.908
161, -21134.04, -109601.80, -187500.02, -187500.02, -187500.02, 11800.25, -108304.05, -187500.02, 0.000, 0.000, 0.000, 13:03:53.908
162, -21184.04, -109544.38, -187500.02, -187500.02, -187500.02, 11867.10, -108231.26, -187500.02, 0.000, 0.000, 0.000, 13:03:53.908
163, -21089.00, -109537.05, -187500.02, -187500.02, -187500.02, 11898.86, -108195.00, -187500.02, 0.000, 0.000, 0.000, 13:03:53.909
164, -21035.47, -109592.09, -187500.02, -187500.02, -187500.02, 11871.30, -108216.05, -187500.02, 0.000, 0.000, 0.000, 13:03:53.909
165, -21120.16, -109642.81, -187500.02, -187500.02, -187500.02, 11833.26, -108247.86, -187500.02, 0.000, 0.000, 0.000, 13:03:53.910
166, -21191.44, -109629.34, -187500.02, -187500.02, -187500.02, 11853.20, -108221.78, -187500.02, 0.000, 0.000, 0.000, 13:03:53.910
167, -21133.22, -109646.57, -187500.02, -187500.02, -187500.02, 11850.42, -108217.15, -187500.02, -0.298, -0.066, -0.962, 13:03:53.910
168, -21044.93, -109636.91, -187500.02, -187500.02, -187500.02, 11885.88, -108171.98, -187500.02, 0.000, 0.000, 0.000, 13:03:53.911
169, -21123.34, -109692.59, -187500.02, -187500.02, -187500.02, 11845.06, -108203.88, -187500.02, 0.000, 0.000, 0.000, 13:03:53.911
170, -21153.51, -109687.54, -187500.02, -187500.02, -187500.02, 11851.59, -108185.41, -187500.02, 0.000, 0.000, 0.000, 13:03:53.911
171, -21112.67, -109665.41, -187500.02, -187500.02, -187500.02, 11889.27, -108140.30, -187500.02, 0.000, 0.000, 0.000, 13:03:53.912
172, -21055.99, -109654.84, -187500.02, -187500.02, -187500.02, 11924.83, -108094.64, -187500.02, 0.000, 0.000, 0.000, 13:03:53.912
173, -21065.49, -109717.76, -187500.02, -187500.02, -187500.02, 11881.72, -108131.39, -187500.02, 0.000, 0.000, 0.000, 13:03:53.913
174, -21145.44, -109736.13, -187500.02, -187500.02, -187500.02, 11867.86, -108135.05, -187500.02, 0.000, 0.000, 0.000, 13:03:53.913
175, -21131.56, -109708.55, -187500.02, -187500.02, -187500.02, 11906.39, -108085.30, -187500.02, 0.000, 0.000, 0.000, 13:03:53.913
176, -21049.17, -109727.41, -187500.02, -187500.02, -187500.02, 11910.35, -108073.12, -187500.02, 0.000, 0.000, 0.000, 13:03:53.913
177, -21028.50, -109819.39, -187500.02, -187500.02, -187500.02, 11835.72, -108140.40, -187500.02, -0.302, -0.066, -0.964, 13:03:53.914
178, -21154.36, -109805.76, -187500.02, -187500.02, -187500.02, 11850.85, -108114.63, -187500.02, 0.000, 0.000, 0.000, 13:03:53.914
179, -21155.61, -109799.59, -187500.02, -187500.02, -187500.02, 11869.13, -108091.73, -187500.02, 0.000, 0.000, 0.000, 13:03:53.914
180, -21059.84, -109808.39, -187500.02, -187500.02, -187500.02, 11879.97, -108071.06, -187500.02, 0.000, 0.000, 0.000, 13:03:53.915
181, -21027.20, -109871.98, -187500.02, -187500.02, -187500.02, 11837.71, -108105.51, -187500.02, 0.000, 0.000, 0.000, 13:03:53.915
182, -21165.11, -109908.42, -187500.02, -187500.02, -187500.02, 11807.64, -108128.48, -187500.02, 0.000, 0.000, 0.000, 13:03:53.915
183, -21169.54, -109868.52, -187500.02, -187500.02, -187500.02, 11854.43, -108072.83, -187500.02, 0.000, 0.000, 0.000, 13:03:53.916
184, -21067.05, -109853.10, -187500.02, -187500.02, -187500.02, 11893.76, -108027.77, -187500.02, 0.000, 0.000, 0.000, 13:03:53.916
185, -21031.18, -109907.86, -187500.02, -187500.02, -187500.02, 11865.33, -108049.89, -187500.02, 0.000, 0.000, 0.000, 13:03:53.916
186, -21117.21, -109981.84, -187500.02, -187500.02, -187500.02, 11803.84, -108108.84, -187500.02, 0.000, 0.000, 0.000, 13:03:53.917
187, -21155.37, -109979.32, -187500.02, -187500.02, -187500.02, 11805.81, -108095.76, -187500.02, -0.306, -0.062, -0.972, 13:03:53.917
188, -21091.13, -109936.98, -187500.02, -187500.02, -187500.02, 11862.18, -108028.01, -187500.02, 0.000, 0.000, 0.000, 13:03:53.917
189, -21027.60, -109951.36, -187500.02, -187500.02, -187500.02, 11873.29, -108009.26, -187500.02, 0.000, 0.000, 0.000, 13:03:53.918
190, -21109.90, -110021.90, -187500.02, -187500.02, -187500.02, 11818.04, -108060.11, -187500.02, 0.000, 0.000, 0.000, 13:03:53.918
191, -21192.65, -110035.78, -187500.02, -187500.02, -187500.02, 11806.97, -108061.74, -187500.02, 0.000, 0.000, 0.000, 13:03:53.918
192, -21095.08, -109989.82, -187500.02, -187500.02, -187500.02, 11869.29, -107990.52, -187500.02, 0.000, 0.000, 0.000, 13:03:53.918
193, -20991.84, -110028.25, -187500.02, -187500.02, -187500.02, 11858.38, -107995.24, -187500.02, 0.000, 0.000, 0.000, 13:03:53.919
194, -21075.15, -110093.34, -187500.02, -187500.02, -187500.02, 11813.21, -108037.65, -187500.02, 0.000, 0.000, 0.000, 13:03:53.919
195, -21177.79, -110098.48, -187500.02, -187500.02, -187500.02, 11811.09, -108029.24, -187500.02, 0.000, 0.000, 0.000, 13:03:53.919
196, -21148.01, -110076.39, -187500.02, -187500.02, -187500.02, 11845.37, -107984.76, -187500.02, 0.000, 0.000, 0.000, 13:03:53.920
197, -21066.79, -110060.16, -187500.02, -187500.02, -187500.02, 11888.40, -107932.97, -187500.02, -0.304, -0.062, -0.972, 13:03:53.920
198, -21038.94, -110150.80, -187500.02, -187500.02, -187500.02, 11814.68, -107997.97, -187500.02, 0.000, 0.000, 0.000, 13:03:53.920
199, -21140.53, -110180.44, -187500.02, -187500.02, -187500.02, 11793.50, -108017.84, -187500.02, 0.000, 0.000, 0.000, 13:03:53.921
200, -21131.79, -110214.39, -187500.02, -187500.02, -187500.02, 11770.05, -108034.96, -187500.02, 0.000, 0.000, 0.000, 13:03:53.921
201, -21059.46, -110128.36, -187500.02, -187500.02, -187500.02, 11872.98, -107914.04, -187500.02, 0.000, 0.000, 0.000, 13:03:53.921
202, -21044.52, -110158.49, -187500.02, -187500.02, -187500.02, 11866.07, -107913.73, -187500.02, 0.000, 0.000, 0.000, 13:03:53.922
203, -21154.70, -110222.98, -187500.02, -187500.02, -187500.02, 11817.43, -107969.25, -187500.02, 0.000, 0.000, 0.000, 13:03:53.922
204, -21165.96, -110205.56, -187500.02, -187500.02, -187500.02, 11848.75, -107935.99, -187500.02, 0.000, 0.000, 0.000, 13:03:53.922
205, -21071.41, -110204.87, -187500.02, -187500.02, -187500.02, 11871.35, -107902.80, -187500.02, 0.000, 0.000, 0.000, 13:03:53.922
206, -21014.82, -110274.95, -187500.02, -187500.02, -187500.02, 11816.67, -107942.31, -187500.02, 0.000, 0.000, 0.000, 13:03:53.922
207, -21156.15, -110298.39, -187500.02, -187500.02, -187500.02, 11792.40, -107950.83, -187500.02, -0.308, -0.060, -0.972, 13:03:53.922
208, -21204.45, -110281.70, -187500.02, -187500.02, -187500.02, 11822.06, -107919.90, -187500.02, 0.000, 0.000, 0.000, 13:03:53.922
209, -21096.85, -110257.06, -187500.02, -187500.02, -187500.02, 11870.70, -107870.23, -187500.02, 0.000, 0.000, 0.000, 13:03:53.922
210, -21024.50, -110278.16, -187500.02, -187500.02, -187500.02, 11876.49, -107857.52, -187500.02, 0.000, 0.000, 0.000, 13:03:53.923
211, -21106.35, -110359.95, -187500.02, -187500.02, -187500.02, 11806.10, -107921.10, -187500.02, 0.000, 0.000, 0.000, 13:03:53.923
212, -21170.41, -110365.58, -187500.02, -187500.02, -187500.02, 11799.78, -107915.20, -187500.02, 0.000, 0.000, 0.000, 13:03:53.923
213, -21124.01, -110268.35, -187500.02, -187500.02, -187500.02, 11914.91, -107788.06, -187500.02, 0.000, 0.000, 0.000, 13:03:53.923
214, -21029.15, -110320.25, -187500.02, -187500.02, -187500.02, 11890.26, -107805.19, -187500.02, 0.000, 0.000, 0.000, 13:03:53.923
215, -21112.72, -110426.15, -187500.02, -187500.02, -187500.02, 11800.74, -107893.84, -187500.02, 0.000, 0.000, 0.000, 13:03:53.923
216, -21191.82, -110412.92, -187500.02, -187500.02, -187500.02, 11822.96, -107869.20, -187500.02, 0.000, 0.000, 0.000, 13:03:53.923
217, -21161.60, -110396.24, -187500.02, -187500.02, -187500.02, 11860.84, -107828.88, -187500.02, -0.304, -0.062, -0.962, 13:03:53.923
218, -21040.97, -110443.01, -187500.02, -187500.02, -187500.02, 11837.75, -107844.03, -187500.02, 0.000, 0.000, 0.000, 13:03:53.923
219, -21066.76, -110513.03, -187500.02, -187500.02, -187500.02, 11775.59, -107891.80, -187500.02, 0.000, 0.000, 0.000, 13:03:53.924
220, -21178.25, -110487.26, -187500.02, -187500.02, -187500.02, 11804.47, -107853.09, -187500.02, 0.000, 0.000, 0.000, 13:03:53.924
221, -21134.60, -110476.65, -187500.02, -187500.02, -187500.02, 11834.31, -107822.11, -187500.02, 0.000, 0.000, 0.000, 13:03:53.924
222, -21041.98, -110485.09, -187500.02, -187500.02, -187500.02, 11851.63, -107797.92, -187500.02, 0.000, 0.000, 0.000, 13:03:53.924
223, -21064.78, -110540.70, -187500.02, -187500.02, -187500.02, 11812.38, -107827.85, -187500.02, 0.000, 0.000, 0.000, 13:03:53.924
224, -21186.79, -110544.59, -187500.02, -187500.02, -187500.02, 11809.16, -107819.63, -187500.02, 0.000, 0.000, 0.000, 13:03:53.924
225, -21147.77, -110521.59, -187500.02, -187500.02, -187500.02, 11843.47, -107777.41, -187500.02, 0.000, 0.000, 0.000, 13:03:53.924
226, -21044.99, -110524.12, -187500.02, -187500.02, -187500.02, 11866.85, -107750.23, -187500.02, -0.300, -0.064, -0.964, 13:03:54.371
227, -21035.05, -110590.44, -187500.02, -187500.02, -187500.02, 11818.51, -107788.71, -187500.02, 0.000, 0.000, 0.000, 13:03:54.371
228, -21165.07, -110595.53, -187500.02, -187500.02, -187500.02, 11814.86, -107781.54, -187500.02, 0.000, 0.000, 0.000, 13:03:54.371
229, -21176.98, -110585.43, -187500.02, -187500.02, -187500.02, 11840.03, -107756.21, -187500.02, 0.000, 0.000, 0.000, 13:03:54.372
230, -21090.84, -110622.76, -187500.02, -187500.02, -187500.02, 11821.81, -107767.16, -187500.02, 0.000, 0.000, 0.000, 13:03:54.372
231, -21053.15, -110633.35, -187500.02, -187500.02, -187500.02, 11828.61, -107747.07, -187500.02, 0.000, 0.000, 0.000, 13:03:54.372
232, -21147.59, -110660.98, -187500.02, -187500.02, -187500.02, 11815.67, -107761.94, -187500.02, 0.000, 0.000, 0.000, 13:03:54.372
233, -21175.66, -110708.59, -187500.02, -187500.02, -187500.02, 11771.66, -107800.91, -187500.02, 0.000, 0.000, 0.000, 13:03:54.373
234, -21125.06, -110675.98, -187500.02, -187500.02, -187500.02, 11816.88, -107742.47, -187500.02, 0.000, 0.000, 0.000, 13:03:54.373
235, -21043.36, -110685.63, -187500.02, -187500.02, -187500.02, 11833.73, -107718.95, -187500.02, 0.000, 0.000, 0.000, 13:03:54.373
236, -21138.78, -110724.05, -187500.02, -187500.02, -187500.02, 11815.56, -107738.49, -187500.02, -0.306, -0.068, -0.972, 13:03:54.373
237, -21194.55, -110787.76, -187500.02, -187500.02, -187500.02, 11763.45, -107791.89, -187500.02, 0.000, 0.000, 0.000, 13:03:54.373
238, -21119.16, -110785.37, -187500.02, -187500.02, -187500.02, 11778.45, -107767.44, -187500.02, 0.000, 0.000, 0.000, 13:03:54.374
239, -21032.70, -110768.58, -187500.02, -187500.02, -187500.02, 11821.30, -107716.80, -187500.02, 0.000, 0.000, 0.000, 13:03:54.374
240, -21116.94, -110834.97, -187500.02, -187500.02, -187500.02, 11769.04, -107762.31, -187500.02, 0.000, 0.000, 0.000, 13:03:54.374
241, -21213.26, -110812.39, -187500.02, -187500.02, -187500.02, 11796.31, -107729.10, -187500.02, 0.000, 0.000, 0.000, 13:03:54.374
242, -21143.86, -110799.00, -187500.02, -187500.02, -187500.02, 11830.69, -107693.77, -187500.02, 0.000, 0.000, 0.000, 13:03:54.374
243, -21029.32, -110813.73, -187500.02, -187500.02, -187500.02, 11841.42, -107675.66, -187500.02, 0.000, 0.000, 0.000, 13:03:54.374
244, -21082.86, -110876.43, -187500.02, -187500.02, -187500.02, 11788.98, -107715.16, -187500.02, 0.000, 0.000, 0.000, 13:03:54.374
245, -21187.08, -110851.70, -187500.02, -187500.02, -187500.02, 11817.72, -107677.40, -187500.02, 0.000, 0.000, 0.000, 13:03:54.374
246, -21146.36, -110868.41, -187500.02, -187500.02, -187500.02, 11816.50, -107676.51, -187500.02, -0.304, -0.068, -0.968, 13:03:54.374
247, -21049.67, -110855.20, -187500.02, -187500.02, -187500.02, 11847.16, -107631.67, -187500.02, 0.000, 0.000, 0.000, 13:03:54.375
248, -21055.19, -110895.12, -187500.02, -187500.02, -187500.02, 11829.44, -107645.38, -187500.02, 0.000, 0.000, 0.000, 13:03:54.375
249, -21161.27, -110919.39, -187500.02, -187500.02, -187500.02, 11817.01, -107659.38, -187500.02, 0.000, 0.000, 0.000, 13:03:54.375
250, -21156.04, -110948.84, -187500.02, -187500.02, -187500.02, 11791.86, -107674.45, -187500.02, 0.000, 0.000, 0.000, 13:03:54.375
251, -21076.96, -110889.99, -187500.02, -187500.02, -187500.02, 11868.87, -107585.98, -187500.02, 0.000, 0.000, 0.000, 13:03:54.375
252, -21049.82, -110959.95, -187500.02, -187500.02, -187500.02, 11819.87, -107628.59, -187500.02, 0.000, 0.000, 0.000, 13:03:54.375
253, -21170.83, -110942.25, -187500.02, -187500.02, -187500.02, 11846.27, -107597.30, -187500.02, 0.000, 0.000, 0.000, 13:03:54.376
254, -21177.99, -110936.30, -187500.02, -187500.02, -187500.02, 11868.06, -107576.28, -187500.02, 0.000, 0.000, 0.000, 13:03:54.376
255, -21092.36, -110952.40, -187500.02, -187500.02, -187500.02, 11871.70, -107564.57, -187500.02, 0.000, 0.000, 0.000, 13:03:54.376
0, -21040.34, -111011.14, -187500.02, -187500.02, -187500.02, 11826.62, -107593.09, -187500.02, -0.304, -0.068, -0.974, 13:03:54.376
1, -21139.65, -111050.08, -187500.02, -187500.02, -187500.02, 11790.59, -107620.77, -187500.02, 0.000, 0.000, 0.000, 13:03:54.376
2, -21184.13, -110993.71, -187500.02, -187500.02, -187500.02, 11853.04, -107551.92, -187500.02, 0.000, 0.000, 0.000, 13:03:54.376
3, -21108.47, -111029.85, -187500.02, -187500.02, -187500.02, 11839.36, -107563.90, -187500.02, 0.000, 0.000, 0.000, 13:03:54.377
4, -21045.66, -111102.80, -187500.02, -187500.02, -187500.02, 11788.62, -107606.37, -187500.02, 0.000, 0.000, 0.000, 13:03:54.377
5, -21124.16, -111113.47, -187500.02, -187500.02, -187500.02, 11785.45, -107597.20, -187500.02, 0.000, 0.000, 0.000, 13:03:54.377
6, -21183.87, -111120.51, -187500.02, -187500.02, -187500.02, 11789.02, -107593.76, -187500.02, 0.000, 0.000, 0.000, 13:03:54.377
7, -21137.57, -111128.09, -187500.02, -187500.02, -187500.02, 11800.49, -107581.40, -187500.02, 0.000, 0.000, 0.000, 13:03:54.377
8, -21051.56, -111094.05, -187500.02, -187500.02, -187500.02, 11853.71, -107514.28, -187500.02, 0.000, 0.000, 0.000, 13:03:54.377
9, -21106.37, -111126.55, -187500.02, -187500.02, -187500.02, 11835.18, -107523.31, -187500.02, 0.000, 0.000, 0.000, 13:03:54.377
10, -21196.18, -111161.86, -187500.02, -187500.02, -187500.02, 11800.74, -107548.39, -187500.02, -0.308, -0.072, -0.976, 13:03:54.378
11, -21192.34, -111126.68, -187500.02, -187500.02, -187500.02, 11852.01, -107491.66, -187500.02, 0.000, 0.000, 0.000, 13:03:54.378
12, -21054.22, -111108.64, -187500.02, -187500.02, -187500.02, 11897.36, -107438.82, -187500.02, 0.000, 0.000, 0.000, 13:03:54.378
13, -21039.58, -111202.95, -187500.02, -187500.02, -187500.02, 11823.45, -107512.00, -187500.02, 0.000, 0.000, 0.000, 13:03:54.378
14, -21157.69, -111223.48, -187500.02, -187500.02, -187500.02, 11804.31, -107527.73, -187500.02, 0.000, 0.000, 0.000, 13:03:54.378
15, -21153.91, -111203.01, -187500.02, -187500.02, -187500.02, 11833.15, -107491.03, -187500.02, 0.000, 0.000, 0.000, 13:03:54.378
16, -21066.21, -111213.88, -187500.02, -187500.02, -187500.02, 11848.79, -107471.12, -187500.02, 0.000, 0.000, 0.000, 13:03:54.379
17, -21059.57, -111270.38, -187500.02, -187500.02, -187500.02, 11815.04, -107502.52, -187500.02, 0.000, 0.000, 0.000, 13:03:54.379
18, -21199.56, -111308.80, -187500.02, -187500.02, -187500.02, 11780.46, -107532.43, -187500.02, 0.000, 0.000, 0.000, 13:03:54.379
19, -21185.36, -111293.66, -187500.02, -187500.02, -187500.02, 11800.49, -107502.19, -187500.02, 0.000, 0.000, 0.000, 13:03:54.379
20, -21078.19, -111273.17, -187500.02, -187500.02, -187500.02, 11844.43, -107453.73, -187500.02, -0.308, -0.068, -0.972, 13:03:54.379
21, -21045.75, -111360.34, -187500.02, -187500.02, -187500.02, 11775.37, -107516.45, -187500.02, 0.000, 0.000, 0.000, 13:03:54.379
22, -21159.93, -111387.03, -187500.02, -187500.02, -187500.02, 11750.22, -107535.78, -187500.02, 0.000, 0.000, 0.000, 13:03:54.379
23, -21185.07, -111362.40, -187500.02, -187500.02, -187500.02, 11788.33, -107498.72, -187500.02, 0.000, 0.000, 0.000, 13:03:54.379
24, -21101.52, -111354.46, -187500.02, -187500.02, -187500.02, 11822.24, -107462.91, -187500.02, 0.000, 0.000, 0.000, 13:03:54.380
25, -21048.57, -111409.45, -187500.02, -187500.02, -187500.02, 11790.97, -107487.91, -187500.02, 0.000, 0.000, 0.000, 13:03:54.380
26, -21162.68, -111442.87, -187500.02, -187500.02, -187500.02, 11762.58, -107508.52, -187500.02, 0.000, 0.000, 0.000, 13:03:54.380
27, -21210.60, -111427.38, -187500.02, -187500.02, -187500.02, 11784.80, -107482.77, -187500.02, 0.000, 0.000, 0.000, 13:03:54.380
28, -21148.86, -111440.92, -187500.02, -187500.02, -187500.02, 11784.80, -107474.72, -187500.02, 0.000, 0.000, 0.000, 13:03:54.380
29, -21071.08, -111464.48, -187500.02, -187500.02, -187500.02, 11780.00, -107468.77, -187500.02, 0.000, 0.000, 0.000, 13:03:54.380
30, -21159.44, -111479.70, -187500.02, -187500.02, -187500.02, 11782.59, -107467.70, -187500.02, -0.306, -0.058, -0.966, 13:03:54.380
31, -21230.07, -111487.46, -187500.02, -187500.02, -187500.02, 11787.42, -107466.20, -187500.02, 0.000, 0.000, 0.000, 13:03:54.380
32, -21159.64, -111497.56, -187500.02, -187500.02, -187500.02, 11789.74, -107455.09, -187500.02, 0.000, 0.000, 0.000, 13:03:54.381
33, -21057.20, -111504.49, -187500.02, -187500.02, -187500.02, 11801.30, -107429.38, -187500.02, 0.000, 0.000, 0.000, 13:03:54.381
34, -21089.18, -111546.40, -187500.02, -187500.02, -187500.02, 11775.59, -107450.40, -187500.02, 0.000, 0.000, 0.000, 13:03:54.381
35, -21201.21, -111527.40, -187500.02, -187500.02, -187500.02, 11794.52, -107421.72, -187500.02, 0.000, 0.000, 0.000, 13:03:54.381
36, -21183.37, -111478.14, -187500.02, -187500.02, -187500.02, 11856.08, -107349.13, -187500.02, 0.000, 0.000, 0.000, 13:03:54.381
37, -21093.68, -111488.53, -187500.02, -187500.02, -187500.02, 11871.17, -107327.30, -187500.02, 0.000, 0.000, 0.000, 13:03:54.381
38, -21074.39, -111572.30, -187500.02, -187500.02, -187500.02, 11800.25, -107390.45, -187500.02, 0.000, 0.000, 0.000, 13:03:54.381
39, -21174.97, -111555.97, -187500.02, -187500.02, -187500.02, 11821.10, -107365.35, -187500.02, 0.000, 0.000, 0.000, 13:03:54.381
40, -21170.99, -111558.20, -187500.02, -187500.02, -187500.02, 11835.00, -107352.99, -187500.02, -0.306, -0.060, -0.974, 13:03:54.381
41, -21047.70, -111576.20, -187500.02, -187500.02, -187500.02, 11839.58, -107344.12, -187500.02, 0.000, 0.000, 0.000, 13:03:54.382
42, -21040.17, -111664.70, -187500.02, -187500.02, -187500.02, 11762.85, -107410.27, -187500.02, 0.000, 0.000, 0.000, 13:03:54.382
43, -21171.66, -111663.09, -187500.02, -187500.02, -187500.02, 11761.35, -107399.88, -187500.02, 0.000, 0.000, 0.000, 13:03:54.382
44, -21199.85, -111667.68, -187500.02, -187500.02, -187500.02, 11768.64, -107393.52, -187500.02, 0.000, 0.000, 0.000, 13:03:54.382
45, -21102.66, -111665.38, -187500.02, -187500.02, -187500.02, 11798.23, -107365.38, -187500.02, 0.000, 0.000, 0.000, 13:03:54.382
46, -21055.77, -111668.48, -187500.02, -187500.02, -187500.02, 11819.13, -107336.94, -187500.02, 0.000, 0.000, 0.000, 13:03:54.382
47, -21171.08, -111687.80, -187500.02, -187500.02, -187500.02, 11804.38, -107344.18, -187500.02, 0.000, 0.000, 0.000, 13:03:54.382
48, -21201.61, -111680.33, -187500.02, -187500.02, -187500.02, 11819.89, -107325.09, -187500.02, 0.000, 0.000, 0.000, 13:03:54.382
49, -21116.65, -111687.30, -187500.02, -187500.02, -187500.02, 11837.33, -107307.15, -187500.02, 0.000, 0.000, 0.000, 13:03:54.383
50, -21040.79, -111737.75, -187500.02, -187500.02, -187500.02, 11806.64, -107326.19, -187500.02, -0.298, -0.060, -0.974, 13:03:54.383
51, -21163.95, -111788.71, -187500.02, -187500.02, -187500.02, 11756.35, -107363.05, -187500.02, 0.000, 0.000, 0.000, 13:03:54.383
52, -21231.25, -111760.51, -187500.02, -187500.02, -187500.02, 11790.57, -107327.91, -187500.02, 0.000, 0.000, 0.000, 13:03:54.383
53, -21149.80, -111738.69, -187500.02, -187500.02, -187500.02, 11834.82, -107284.93, -187500.02, 0.000, 0.000, 0.000, 13:03:54.383
54, -21038.67, -111766.74, -187500.02, -187500.02, -187500.02, 11830.91, -107282.38, -187500.02, 0.000, 0.000, 0.000, 13:03:54.383
55, -21112.74, -111820.74, -187500.02, -187500.02, -187500.02, 11786.70, -107317.13, -187500.02, 0.000, 0.000, 0.000, 13:03:54.383
56, -21199.89, -111805.77, -187500.02, -187500.02, -187500.02, 11808.25, -107289.24, -187500.02, 0.000, 0.000, 0.000, 13:03:54.383
57, -21167.71, -111829.08, -187500.02, -187500.02, -187500.02, 11806.08, -107293.47, -187500.02, 0.000, 0.000, 0.000, 13:03:54.384
58, -21084.67, -111841.13, -187500.02, -187500.02, -187500.02, 11816.36, -107277.46, -187500.02, 0.000, 0.000, 0.000, 13:03:54.384
59, -21104.38, -111904.74, -187500.02, -187500.02, -187500.02, 11758.76, -107321.31, -187500.02, 0.000, 0.000, 0.000, 13:03:54.384
60, -21179.04, -111872.06, -187500.02, -187500.02, -187500.02, 11793.63, -107277.88, -187500.02, -0.302, -0.060, -0.972, 13:03:54.384
61, -21157.02, -111855.93, -187500.02, -187500.02, -187500.02, 11826.58, -107243.15, -187500.02, 0.000, 0.000, 0.000, 13:03:54.384
62, -21065.63, -111859.23, -187500.02, -187500.02, -187500.02, 11845.84, -107218.09, -187500.02, 0.000, 0.000, 0.000, 13:03:54.384
63, -21098.10, -111914.42, -187500.02, -187500.02, -187500.02, 11801.59, -107251.24, -187500.02, 0.000, 0.000, 0.000, 13:03:54.384
64, -21194.37, -111898.57, -187500.02, -187500.02, -187500.02, 11823.16, -107225.00, -187500.02, 0.000, 0.000, 0.000, 13:03:54.384
65, -21146.29, -111901.41, -187500.02, -187500.02, -187500.02, 11839.36, -107212.98, -187500.02, 0.000, 0.000, 0.000, 13:03:54.384
66, -21052.55, -111881.14, -187500.02, -187500.02, -187500.02, 11875.30, -107164.48, -187500.02, 0.000, 0.000, 0.000, 13:03:54.385
67, -21041.64, -111926.00, -187500.02, -187500.02, -187500.02, 11846.27, -107184.10, -187500.02, 0.000, 0.000, 0.000, 13:03:54.385
68, -21168.38, -111916.99, -187500.02, -187500.02, -187500.02, 11859.37, -107166.58, -187500.02, 0.000, 0.000, 0.000, 13:03:54.385
69, -21202.10, -111909.57, -187500.02, -187500.02, -187500.02, 11871.86, -107148.18, -187500.02, 0.000, 0.000, 0.000, 13:03:54.385
70, -21116.86, -111910.33, -187500.02, -187500.02, -187500.02, 11887.77, -107121.98, -187500.02, -0.312, -0.062, -0.968, 13:03:54.385
71, -21022.31, -111960.69, -187500.02, -187500.02, -187500.02, 11860.84, -107143.80, -187500.02, 0.000, 0.000, 0.000, 13:03:54.385
72, -21145.40, -112010.76, -187500.02, -187500.02, -187500.02, 11815.87, -107183.48, -187500.02, 0.000, 0.000, 0.000, 13:03:54.385
73, -21193.16, -111981.77, -187500.02, -187500.02, -187500.02, 11843.61, -107144.09, -187500.02, 0.000, 0.000, 0.000, 13:03:54.385
74, -21118.02, -111966.01, -187500.02, -187500.02, -187500.02, 11877.00, -107102.78, -187500.02, 0.000, 0.000, 0.000, 13:03:54.385
75, -21035.61, -112047.99, -187500.02, -187500.02, -187500.02, 11822.02, -107155.35, -187500.02, 0.000, 0.000, 0.000, 13:03:54.386
76, -21131.70, -112117.48, -187500.02, -187500.02, -187500.02, 11762.45, -107212.13, -187500.02, 0.000, 0.000, 0.000, 13:03:54.386
77, -21197.48, -112081.70, -187500.02, -187500.02, -187500.02, 11797.38, -107166.62, -187500.02, 0.000, 0.000, 0.000, 13:03:54.386
78, -21127.87, -112051.95, -187500.02, -187500.02, -187500.02, 11844.30, -107113.18, -187500.02, 0.000, 0.000, 0.000, 13:03:54.386
79, -21037.62, -112070.44, -187500.02, -187500.02, -187500.02, 11850.60, -107099.88, -187500.02, -0.312, -0.062, -0.968, 13:03:54.386
80, -21105.54, -112170.13, -187500.02, -187500.02, -187500.02, 11763.37, -107183.31, -187500.02, 0.000, 0.000, 0.000, 13:03:54.386
81, -21185.45, -112155.22, -187500.02, -187500.02, -187500.02, 11779.86, -107162.46, -187500.02, 0.000, 0.000, 0.000, 13:03:54.386
82, -21138.45, -112153.09, -187500.02, -187500.02, -187500.02, 11800.89, -107144.42, -187500.02, 0.000, 0.000, 0.000, 13:03:54.386
83, -21052.53, -112167.11, -187500.02, -187500.02, -187500.02, 11811.91, -107128.20, -187500.02, 0.000, 0.000, 0.000, 13:03:54.386
84, -21092.71, -112231.84, -187500.02, -187500.02, -187500.02, 11753.75, -107172.99, -187500.02, 0.000, 0.000, 0.000, 13:03:54.387
85, -21174.30, -112218.25, -187500.02, -187500.02, -187500.02, 11762.43, -107153.37, -187500.02, 0.000, 0.000, 0.000, 13:03:54.387
86, -21160.66, -112202.00, -187500.02, -187500.02, -187500.02, 11788.89, -107122.84, -187500.02, 0.000, 0.000, 0.000, 13:03:54.387
87, -21069.71, -112196.05, -187500.02, -187500.02, -187500.02, 11821.17, -107086.24, -187500.02, 0.000, 0.000, 0.000, 13:03:54.387
88, -21083.01, -112231.05, -187500.02, -187500.02, -187500.02, 11809.45, -107093.22, -187500.02, 0.000, 0.000, 0.000, 13:03:54.387
89, -21201.68, -112250.88, -187500.02, -187500.02, -187500.02, 11791.73, -107102.88, -187500.02, -0.310, -0.064, -0.968, 13:03:54.387
90, -21158.54, -112228.48, -187500.02, -187500.02, -187500.02, 11818.91, -107067.00, -187500.02, 0.000, 0.000, 0.000, 13:03:54.850
91, -21075.73, -112225.11, -187500.02, -187500.02, -187500.02, 11844.28, -107035.37, -187500.02, 0.000, 0.000, 0.000, 13:03:54.850
92, -21066.68, -112292.52, -187500.02, -187500.02, -187500.02, 11800.56, -107073.41, -187500.02, 0.000, 0.000, 0.000, 13:03:54.850
93, -21158.29, -112330.95, -187500.02, -187500.02, -187500.02, 11768.66, -107101.30, -187500.02, 0.000, 0.000, 0.000, 13:03:54.850
94, -21158.29, -112315.55, -187500.02, -187500.02, -187500.02, 11791.57, -107073.99, -187500.02, 0.000, 0.000, 0.000, 13:03:54.851
95, -21094.10, -112287.41, -187500.02, -187500.02, -187500.02, 11832.66, -107020.48, -187500.02, 0.000, 0.000, 0.000, 13:03:54.851
96, -21040.23, -112306.47, -187500.02, -187500.02, -187500.02, 11833.48, -107010.02, -187500.02, 0.000, 0.000, 0.000, 13:03:54.851
97, -21165.40, -112342.81, -187500.02, -187500.02, -187500.02, 11803.78, -107033.90, -187500.02, 0.000, 0.000, 0.000, 13:03:54.851
98, -21199.00, -112333.49, -187500.02, -187500.02, -187500.02, 11820.85, -107014.31, -187500.02, 0.000, 0.000, 0.000, 13:03:54.851
99, -21140.41, -112329.07, -187500.02, -187500.02, -187500.02, 11841.13, -106987.72, -187500.02, -0.308, -0.068, -0.972, 13:03:54.852
100, -21064.22, -112307.99, -187500.02, -187500.02, -187500.02, 11875.46, -106936.09, -187500.02, 0.000, 0.000, 0.000, 13:03:54.852
101, -21111.11, -112337.30, -187500.02, -187500.02, -187500.02, 11852.68, -106950.23, -187500.02, 0.000, 0.000, 0.000, 13:03:54.852
102, -21165.36, -112354.30, -187500.02, -187500.02, -187500.02, 11845.78, -106957.27, -187500.02, 0.000, 0.000, 0.000, 13:03:54.852
103, -21118.78, -112357.84, -187500.02, -187500.02, -187500.02, 11859.75, -106940.15, -187500.02, 0.000, 0.000, 0.000, 13:03:54.853
104, -21044.81, -112408.48, -187500.02, -187500.02, -187500.02, 11830.87, -106961.90, -187500.02, 0.000, 0.000, 0.000, 13:03:54.853
105, -21123.34, -112461.10, -187500.02, -187500.02, -187500.02, 11783.10, -106997.23, -187500.02, 0.000, 0.000, 0.000, 13:03:54.853
106, -21192.67, -112429.83, -187500.02, -187500.02, -187500.02, 11820.59, -106957.34, -187500.02, 0.000, 0.000, 0.000, 13:03:54.853
107, -21140.79, -112436.52, -187500.02, -187500.02, -187500.02, 11829.68, -106950.50, -187500.02, 0.000, 0.000, 0.000, 13:03:54.853
108, -21052.12, -112434.05, -187500.02, -187500.02, -187500.02, 11849.75, -106922.27, -187500.02, 0.000, 0.000, 0.000, 13:03:54.853
109, -21070.12, -112510.01, -187500.02, -187500.02, -187500.02, 11786.77, -106977.81, -187500.02, -0.310, -0.068, -0.976, 13:03:54.854
110, -21187.73, -112503.08, -187500.02, -187500.02, -187500.02, 11791.91, -106963.51, -187500.02, 0.000, 0.000, 0.000, 13:03:54.854
111, -21168.80, -112468.03, -187500.02, -187500.02, -187500.02, 11836.66, -106912.10, -187500.02, 0.000, 0.000, 0.000, 13:03:54.854
112, -21082.59, -112452.13, -187500.02, -187500.02, -187500.02, 11875.73, -106867.06, -187500.02, 0.000, 0.000, 0.000, 13:03:54.854
113, -21074.39, -112505.84, -187500.02, -187500.02, -187500.02, 11842.27, -106896.86, -187500.02, 0.000, 0.000, 0.000, 13:03:54.854
114, -21181.27, -112544.07, -187500.02, -187500.02, -187500.02, 11808.05, -106928.26, -187500.02, 0.000, 0.000, 0.000, 13:03:54.854
115, -21182.19, -112587.90, -187500.02, -187500.02, -187500.02, 11767.75, -106962.99, -187500.02, 0.000, 0.000, 0.000, 13:03:54.854
116, -21120.16, -112547.45, -187500.02, -187500.02, -187500.02, 11817.50, -106898.09, -187500.02, 0.000, 0.000, 0.000, 13:03:54.855
117, -21057.60, -112560.30, -187500.02, -187500.02, -187500.02, 11824.03, -106884.63, -187500.02, 0.000, 0.000, 0.000, 13:03:54.855
118, -21147.03, -112612.16, -187500.02, -187500.02, -187500.02, 11785.87, -106928.51, -187500.02, 0.000, 0.000, 0.000, 13:03:54.855
119, -21199.38, -112587.95, -187500.02, -187500.02, -187500.02, 11812.20, -106893.73, -187500.02, -0.310, -0.070, -0.976, 13:03:54.855
120, -21111.20, -112581.44, -187500.02, -187500.02, -187500.02, 11833.57, -106861.52, -187500.02, 0.000, 0.000, 0.000, 13:03:54.855
121, -21022.24, -112639.22, -187500.02, -187500.02, -187500.02, 11799.91, -106891.47, -187500.02, 0.000, 0.000, 0.000, 13:03:54.855
122, -21131.52, -112690.56, -187500.02, -187500.02, -187500.02, 11755.92, -106932.89, -187500.02, 0.000, 0.000, 0.000, 13:03:54.855
123, -21196.56, -112643.94, -187500.02, -187500.02, -187500.02, 11804.81, -106877.37, -187500.02, 0.000, 0.000, 0.000, 13:03:54.856
124, -21121.77, -112640.59, -187500.02, -187500.02, -187500.02, 11826.55, -106852.06, -187500.02, 0.000, 0.000, 0.000, 13:03:54.856
125, -21029.84, -112700.04, -187500.02, -187500.02, -187500.02, 11786.50, -106882.02, -187500.02, 0.000, 0.000, 0.000, 13:03:54.856
126, -21120.83, -112739.78, -187500.02, -187500.02, -187500.02, 11748.79, -106909.10, -187500.02, 0.000, 0.000, 0.000, 13:03:54.856
127, -21197.72, -112713.38, -187500.02, -187500.02, -187500.02, 11784.69, -106876.27, -187500.02, 0.000, 0.000, 0.000, 13:03:54.856
128, -21133.22, -112706.23, -187500.02, -187500.02, -187500.02, 11815.11, -106851.46, -187500.02, 0.000, 0.000, 0.000, 13:03:54.856
129, -21046.76, -112731.47, -187500.02, -187500.02, -187500.02, 11817.75, -106849.27, -187500.02, -0.304, -0.076, -0.968, 13:03:54.857
130, -21107.33, -112786.43, -187500.02, -187500.02, -187500.02, 11776.78, -106887.87, -187500.02, 0.000, 0.000, 0.000, 13:03:54.857
131, -21194.66, -112748.09, -187500.02, -187500.02, -187500.02, 11814.10, -106843.52, -187500.02, 0.000, 0.000, 0.000, 13:03:54.857
132, -21150.58, -112733.08, -187500.02, -187500.02, -187500.02, 11843.18, -106813.71, -187500.02, 0.000, 0.000, 0.000, 13:03:54.857
133, -21060.08, -112796.04, -187500.02, -187500.02, -187500.02, 11798.73, -106849.96, -187500.02, 0.000, 0.000, 0.000, 13:03:54.857
134, -21062.52, -112844.61, -187500.02, -187500.02, -187500.02, 11758.04, -106877.50, -187500.02, 0.000, 0.000, 0.000, 13:03:54.857
135, -21185.43, -112817.68, -187500.02, -187500.02, -187500.02, 11794.70, -106841.24, -187500.02, 0.000, 0.000, 0.000, 13:03:54.857
136, -21166.34, -112806.10, -187500.02, -187500.02, -187500.02, 11819.58, -106813.77, -187500.02, 0.000, 0.000, 0.000, 13:03:54.858
137, -21065.98, -112784.38, -187500.02, -187500.02, -187500.02, 11859.25, -106762.34, -187500.02, 0.000, 0.000, 0.000, 13:03:54.858
138, -21054.27, -112833.26, -187500.02, -187500.02, -187500.02, 11830.00, -106785.43, -187500.02, 0.000, 0.000, 0.000, 13:03:54.858
139, -21181.25, -112857.15, -187500.02, -187500.02, -187500.02, 11807.44, -106801.48, -187500.02, -0.308, -0.072, -0.964, 13:03:54.858
140, -21192.87, -112835.38, -187500.02, -187500.02, -187500.02, 11833.75, -106768.38, -187500.02, 0.000, 0.000, 0.000, 13:03:54.858
141, -21099.13, -112828.79, -187500.02, -187500.02, -187500.02, 11860.30, -106734.96, -187500.02, 0.000, 0.000, 0.000, 13:03:54.859
142, -21055.28, -112874.43, -187500.02, -187500.02, -187500.02, 11834.98, -106752.51, -187500.02, 0.000, 0.000, 0.000, 13:03:54.859
143, -21152.64, -112896.66, -187500.02, -187500.02, -187500.02, 11816.83, -106763.02, -187500.02, 0.000, 0.000, 0.000, 13:03:54.859
144, -21170.21, -112860.44, -187500.02, -187500.02, -187500.02, 11861.82, -106716.10, -187500.02, 0.000, 0.000, 0.000, 13:03:54.859
145, -21113.90, -112846.66, -187500.02, -187500.02, -187500.02, 11897.34, -106677.45, -187500.02, 0.000, 0.000, 0.000, 13:03:54.860
146, -21036.54, -112930.20, -187500.02, -187500.02, -187500.02, 11828.97, -106735.01, -187500.02, 0.000, 0.000, 0.000, 13:03:54.860
147, -21139.81, -112966.02, -187500.02, -187500.02, -187500.02, 11789.99, -106760.06, -187500.02, 0.000, 0.000, 0.000, 13:03:54.860
148, -21178.54, -112942.63, -187500.02, -187500.02, -187500.02, 11816.00, -106730.36, -187500.02, 0.000, 0.000, 0.000, 13:03:54.860
149, -21117.50, -112944.75, -187500.02, -187500.02, -187500.02, 11833.77, -106712.74, -187500.02, -0.304, -0.062, -0.966, 13:03:54.860
150, -21043.70, -112981.80, -187500.02, -187500.02, -187500.02, 11820.88, -106721.84, -187500.02, 0.000, 0.000, 0.000, 13:03:54.861
151, -21090.70, -113025.48, -187500.02, -187500.02, -187500.02, 11787.33, -106749.54, -187500.02, 0.000, 0.000, 0.000, 13:03:54.861
152, -21170.77, -113005.43, -187500.02, -187500.02, -187500.02, 11816.43, -106723.01, -187500.02, 0.000, 0.000, 0.000, 13:03:54.861
153, -21131.88, -112980.73, -187500.02, -187500.02, -187500.02, 11852.86, -106681.54, -187500.02, 0.000, 0.000, 0.000, 13:03:54.861
154, -21038.00, -112973.52, -187500.02, -187500.02, -187500.02, 11879.97, -106645.09, -187500.02, 0.000, 0.000, 0.000, 13:03:54.861
155, -21086.23, -113039.12, -187500.02, -187500.02, -187500.02, 11826.87, -106692.92, -187500.02, 0.000, 0.000, 0.000, 13:03:54.861
156, -21201.50, -113048.57, -187500.02, -187500.02, -187500.02, 11812.54, -106698.09, -187500.02, 0.000, 0.000, 0.000, 13:03:54.862
157, -21165.83, -113020.61, -187500.02, -187500.02, -187500.02, 11845.28, -106655.97, -187500.02, 0.000, 0.000, 0.000, 13:03:54.862
158, -21058.99, -112985.92, -187500.02, -187500.02, -187500.02, 11900.11, -106593.70, -187500.02, 0.000, 0.000, 0.000, 13:03:54.862
159, -21054.29, -113050.11, -187500.02, -187500.02, -187500.02, 11856.04, -106636.23, -187500.02, -0.304, -0.058, -0.964, 13:03:54.862
160, -21177.92, -113093.07, -187500.02, -187500.02, -187500.02, 11823.16, -106676.70, -187500.02, 0.000, 0.000, 0.000, 13:03:54.862
161, -21182.39, -113082.91, -187500.02, -187500.02, -187500.02, 11834.06, -106657.20, -187500.02, 0.000, 0.000, 0.000, 13:03:54.862
162, -21069.74, -113058.25, -187500.02, -187500.02, -187500.02, 11868.84, -106605.52, -187500.02, 0.000, 0.000, 0.000, 13:03:54.863
163, -21027.22, -113092.29, -187500.02, -187500.02, -187500.02, 11856.77, -106613.81, -187500.02, 0.000, 0.000, 0.000, 13:03:54.863
164, -21146.18, -113126.96, -187500.02, -187500.02, -187500.02, 11836.10, -106639.72, -187500.02, 0.000, 0.000, 0.000, 13:03:54.863
165, -21175.68, -113160.73, -187500.02, -187500.02, -187500.02, 11808.56, -106663.80, -187500.02, 0.000, 0.000, 0.000, 13:03:54.863
166, -21080.71, -113131.09, -187500.02, -187500.02, -187500.02, 11849.20, -106610.30, -187500.02, 0.000, 0.000, 0.000, 13:03:54.863
167, -21034.38, -113180.27, -187500.02, -187500.02, -187500.02, 11822.15, -106633.48, -187500.02, 0.000, 0.000, 0.000, 13:03:54.863
168, -21147.03, -113215.65, -187500.02, -187500.02, -187500.02, 11795.53, -106658.48, -187500.02, 0.000, 0.000, 0.000, 13:03:54.863
169, -21184.18, -113201.28, -187500.02, -187500.02, -187500.02, 11812.16, -106635.23, -187500.02, -0.302, -0.062, -0.966, 13:03:54.864
170, -21115.83, -113168.09, -187500.02, -187500.02, -187500.02, 11864.62, -106580.27, -187500.02, 0.000, 0.000, 0.000, 13:03:54.864
171, -21039.50, -113194.08, -187500.02, -187500.02, -187500.02, 11863.59, -106577.38, -187500.02, 0.000, 0.000, 0.000, 13:03:54.864
172, -21119.02, -113230.07, -187500.02, -187500.02, -187500.02, 11844.70, -106599.35, -187500.02, 0.000, 0.000, 0.000, 13:03:54.864
173, -21177.41, -113234.00, -187500.02, -187500.02, -187500.02, 11844.12, -106597.63, -187500.02, 0.000, 0.000, 0.000, 13:03:54.864
174, -21122.20, -113169.76, -187500.02, -187500.02, -187500.02, 11917.30, -106513.10, -187500.02, 0.000, 0.000, 0.000, 13:03:54.864
175, -21048.93, -113227.77, -187500.02, -187500.02, -187500.02, 11879.97, -106546.34, -187500.02, 0.000, 0.000, 0.000, 13:03:54.864
176, -21112.65, -113315.80, -187500.02, -187500.02, -187500.02, 11805.36, -106621.91, -187500.02, 0.000, 0.000, 0.000, 13:03:54.865
177, -21191.49, -113306.66, -187500.02, -187500.02, -187500.02, 11814.37, -106608.25, -187500.02, 0.000, 0.000, 0.000, 13:03:54.865
178, -21121.57, -113252.80, -187500.02, -187500.02, -187500.02, 11881.05, -106538.06, -187500.02, 0.000, 0.000, 0.000, 13:03:54.865
179, -21033.86, -113268.27, -187500.02, -187500.02, -187500.02, 11889.05, -106526.13, -187500.02, -0.306, -0.066, -0.970, 13:03:54.865
180, -21084.67, -113347.91, -187500.02, -187500.02, -187500.02, 11823.51, -106589.19, -187500.02, 0.000, 0.000, 0.000, 13:03:54.865
181, -21201.88, -113338.47, -187500.02, -187500.02, -187500.02, 11831.05, -106575.48, -187500.02, 0.000, 0.000, 0.000, 13:03:54.865
182, -21171.42, -113309.20, -187500.02, -187500.02, -187500.02, 11870.92, -106532.23, -187500.02, 0.000, 0.000, 0.000, 13:03:54.865
183, -21056.73, -113306.55, -187500.02, -187500.02, -187500.02, 11891.89, -106505.43, -187500.02, 0.000, 0.000, 0.000, 13:03:54.866
184, -21063.81, -113405.17, -187500.02, -187500.02, -187500.02, 11803.46, -106586.97, -187500.02, 0.000, 0.000, 0.000, 13:03:54.866
185, -21164.82, -113424.91, -187500.02, -187500.02, -187500.02, 11781.11, -106602.53, -187500.02, 0.000, 0.000, 0.000, 13:03:54.866
186, -21166.41, -113429.04, -187500.02, -187500.02, -187500.02, 11785.94, -106596.56, -187500.02, 0.000, 0.000, 0.000, 13:03:54.866
187, -21061.91, -113397.55, -187500.02, -187500.02, -187500.02, 11838.00, -106542.88, -187500.02, 0.000, 0.000, 0.000, 13:03:54.866
188, -21043.14, -113446.81, -187500.02, -187500.02, -187500.02, 11805.32, -106573.36, -187500.02, 0.000, 0.000, 0.000, 13:03:54.866
189, -21158.32, -113428.23, -187500.02, -187500.02, -187500.02, 11821.68, -106548.75, -187500.02, -0.310, -0.062, -0.974, 13:03:54.867
190, -21171.86, -113419.16, -187500.02, -187500.02, -187500.02, 11836.05, -106532.52, -187500.02, 0.000, 0.000, 0.000, 13:03:54.867
191, -21093.32, -113401.80, -187500.02, -187500.02, -187500.02, 11873.20, -106493.61, -187500.02, 0.000, 0.000, 0.000, 13:03:54.867
192, -21032.63, -113427.86, -187500.02, -187500.02, -187500.02, 11866.99, -106493.25, -187500.02, 0.000, 0.000, 0.000, 13:03:54.867
193, -21143.59, -113467.40, -187500.02, -187500.02, -187500.02, 11828.05, -106524.88, -187500.02, 0.000, 0.000, 0.000, 13:03:54.867
194, -21176.76, -113449.31, -187500.02, -187500.02, -187500.02, 11851.18, -106498.57, -187500.02, 0.000, 0.000, 0.000, 13:03:54.867
195, -21103.00, -113438.66, -187500.02, -187500.02, -187500.02, 11875.24, -106468.10, -187500.02, 0.000, 0.000, 0.000, 13:03:54.867
196, -21030.17, -113455.41, -187500.02, -187500.02, -187500.02, 11880.33, -106457.17, -187500.02, 0.000, 0.000, 0.000, 13:03:54.868
197, -21138.38, -113492.97, -187500.02, -187500.02, -187500.02, 11852.75, -106480.55, -187500.02, 0.000, 0.000, 0.000, 13:03:54.868
198, -21212.72, -113492.50, -187500.02, -187500.02, -187500.02, 11856.19, -106473.56, -187500.02, -0.308, -0.064, -0.964, 13:03:54.868
199, -21121.06, -113475.49, -187500.02, -187500.02, -187500.02, 11887.84, -106440.68, -187500.02, 0.000, 0.000, 0.000, 13:03:54.868
200, -21030.13, -113503.90, -187500.02, -187500.02, -187500.02, 11877.02, -106443.61, -187500.02, 0.000, 0.000, 0.000, 13:03:54.868
201, -21097.79, -113546.39, -187500.02, -187500.02, -187500.02, 11835.67, -106470.38, -187500.02, 0.000, 0.000, 0.000, 13:03:54.868
202, -21187.87, -113539.41, -187500.02, -187500.02, -187500.02, 11844.95, -106460.02, -187500.02, 0.000, 0.000, 0.000, 13:03:54.868
203, -21146.63, -113586.55, -187500.02, -187500.02, -187500.02, 11810.35, -106495.48, -187500.02, 0.000, 0.000, 0.000, 13:03:54.869
204, -21062.03, -113565.27, -187500.02, -187500.02, -187500.02, 11845.17, -106446.49, -187500.02, 0.000, 0.000, 0.000, 13:03:54.869
205, -21072.53, -113590.84, -187500.02, -187500.02, -187500.02, 11836.21, -106451.95, -187500.02, 0.000, 0.000, 0.000, 13:03:54.869
206, -21178.48, -113617.09, -187500.02, -187500.02, -187500.02, 11812.94, -106473.13, -187500.02, 0.000, 0.000, 0.000, 13:03:54.869
207, -21167.23, -113572.80, -187500.02, -187500.02, -187500.02, 11864.39, -106414.88, -187500.02, 0.000, 0.000, 0.000, 13:03:54.869
208, -21074.32, -113589.55, -187500.02, -187500.02, -187500.02, 11869.58, -106405.66, -187500.02, -0.306, -0.060, -0.968, 13:03:54.869
209, -21048.12, -113649.32, -187500.02, -187500.02, -187500.02, 11830.29, -106444.63, -187500.02, 0.000, 0.000, 0.000, 13:03:54.869
210, -21177.54, -113672.45, -187500.02, -187500.02, -187500.02, 11808.16, -106463.44, -187500.02, 0.000, 0.000, 0.000, 13:03:55.331
211, -21183.11, -113623.08, -187500.02, -187500.02, -187500.02, 11856.93, -106403.06, -187500.02, 0.000, 0.000, 0.000, 13:03:55.331
212, -21061.09, -113627.16, -187500.02, -187500.02, -187500.02, 11870.68, -106384.29, -187500.02, 0.000, 0.000, 0.000, 13:03:55.331
213, -21045.75, -113665.77, -187500.02, -187500.02, -187500.02, 11851.77, -106399.71, -187500.02, 0.000, 0.000, 0.000, 13:03:55.331
214, -21157.13, -113730.73, -187500.02, -187500.02, -187500.02, 11789.00, -106459.50, -187500.02, 0.000, 0.000, 0.000, 13:03:55.331
215, -21167.82, -113683.07, -187500.02, -187500.02, -187500.02, 11843.67, -106405.41, -187500.02, 0.000, 0.000, 0.000, 13:03:55.332
216, -21087.66, -113657.84, -187500.02, -187500.02, -187500.02, 11889.63, -106358.13, -187500.02, 0.000, 0.000, 0.000, 13:03:55.332
217, -21026.71, -113687.05, -187500.02, -187500.02, -187500.02, 11879.95, -106360.26, -187500.02, 0.000, 0.000, 0.000, 13:03:55.332
218, -21130.20, -113741.27, -187500.02, -187500.02, -187500.02, 11825.84, -106404.18, -187500.02, -0.304, -0.054, -0.974, 13:03:55.332
219, -21177.21, -113774.55, -187500.02, -187500.02, -187500.02, 11785.94, -106433.98, -187500.02, 0.000, 0.000, 0.000, 13:03:55.332
220, -21112.52, -113721.11, -187500.02, -187500.02, -187500.02, 11847.77, -106362.43, -187500.02, 0.000, 0.000, 0.000, 13:03:55.332
221, -21016.50, -113758.91, -187500.02, -187500.02, -187500.02, 11830.82, -106375.73, -187500.02, 0.000, 0.000, 0.000, 13:03:55.333
222, -21113.44, -113800.51, -187500.02, -187500.02, -187500.02, 11807.96, -106405.16, -187500.02, 0.000, 0.000, 0.000, 13:03:55.333
223, -21193.52, -113815.10, -187500.02, -187500.02, -187500.02, 11803.78, -106415.00, -187500.02, 0.000, 0.000, 0.000, 13:03:55.333
224, -21145.85, -113834.34, -187500.02, -187500.02, -187500.02, 11789.81, -106419.09, -187500.02, 0.000, 0.000, 0.000, 13:03:55.333
225, -21043.88, -113771.42, -187500.02, -187500.02, -187500.02, 11865.04, -106326.15, -187500.02, 0.000, 0.000, 0.000, 13:03:55.334
226, -21085.58, -113842.37, -187500.02, -187500.02, -187500.02, 11808.18, -106381.36, -187500.02, 0.000, 0.000, 0.000, 13:03:55.334
227, -21179.60, -113792.59, -187500.02, -187500.02, -187500.02, 11860.80, -106325.39, -187500.02, 0.000, 0.000, 0.000, 13:03:55.334
228, -21136.61, -113788.57, -187500.02, -187500.02, -187500.02, 11880.38, -106306.21, -187500.02, -0.306, -0.052, -0.972, 13:03:55.335
229, -21035.20, -113858.84, -187500.02, -187500.02, -187500.02, 11831.25, -106351.09, -187500.02, 0.000, 0.000, 0.000, 13:03:55.335
230, -21083.42, -113942.15, -187500.02, -187500.02, -187500.02, 11754.54, -106417.92, -187500.02, 0.000, 0.000, 0.000, 13:03:55.335
231, -21180.63, -113902.48, -187500.02, -187500.02, -187500.02, 11795.53, -106375.30, -187500.02, 0.000, 0.000, 0.000, 13:03:55.335
232, -21171.06, -113899.37, -187500.02, -187500.02, -187500.02, 11811.20, -106362.96, -187500.02, 0.000, 0.000, 0.000, 13:03:55.336
233, -21078.16, -113896.88, -187500.02, -187500.02, -187500.02, 11826.78, -106338.29, -187500.02, 0.000, 0.000, 0.000, 13:03:55.336
234, -21058.18, -113939.22, -187500.02, -187500.02, -187500.02, 11804.51, -106358.41, -187500.02, 0.000, 0.000, 0.000, 13:03:55.336
235, -21169.27, -113965.98, -187500.02, -187500.02, -187500.02, 11787.21, -106378.88, -187500.02, 0.000, 0.000, 0.000, 13:03:55.336
236, -21186.44, -113966.13, -187500.02, -187500.02, -187500.02, 11786.99, -106370.65, -187500.02, 0.000, 0.000, 0.000, 13:03:55.337
237, -21076.38, -113928.94, -187500.02, -187500.02, -187500.02, 11839.65, -106310.59, -187500.02, 0.000, 0.000, 0.000, 13:03:55.337
238, -21027.85, -113972.39, -187500.02, -187500.02, -187500.02, 11818.51, -106327.71, -187500.02, -0.306, -0.056, -0.964, 13:03:55.337
239, -21143.10, -114008.16, -187500.02, -187500.02, -187500.02, 11787.08, -106355.88, -187500.02, 0.000, 0.000, 0.000, 13:03:55.337
240, -21176.80, -113976.81, -187500.02, -187500.02, -187500.02, 11823.42, -106315.98, -187500.02, 0.000, 0.000, 0.000, 13:03:55.338
241, -21100.67, -113995.37, -187500.02, -187500.02, -187500.02, 11825.35, -106315.27, -187500.02, 0.000, 0.000, 0.000, 13:03:55.338
242, -21041.46, -114005.41, -187500.02, -187500.02, -187500.02, 11828.79, -106302.91, -187500.02, 0.000, 0.000, 0.000, 13:03:55.338
243, -21136.75, -114020.65, -187500.02, -187500.02, -187500.02, 11819.04, -106310.64, -187500.02, 0.000, 0.000, 0.000, 13:03:55.338
244, -21186.26, -114013.14, -187500.02, -187500.02, -187500.02, 11836.54, -106298.61, -187500.02, 0.000, 0.000, 0.000, 13:03:55.339
245, -21114.02, -114054.38, -187500.02, -187500.02, -187500.02, 11806.33, -106324.49, -187500.02, 0.000, 0.000, 0.000, 13:03:55.339
246, -21035.16, -114077.04, -187500.02, -187500.02, -187500.02, 11794.12, -106321.68, -187500.02, 0.000, 0.000, 0.000, 13:03:55.339
247, -21127.20, -114104.78, -187500.02, -187500.02, -187500.02, 11773.20, -106337.73, -187500.02, 0.000, 0.000, 0.000, 13:03:55.339
248, -21192.54, -114088.02, -187500.02, -187500.02, -187500.02, 11796.89, -106319.80, -187500.02, -0.302, -0.060, -0.962, 13:03:55.340
249, -21116.86, -114065.13, -187500.02, -187500.02, -187500.02, 11835.56, -106283.41, -187500.02, 0.000, 0.000, 0.000, 13:03:55.340
250, -21043.25, -114046.09, -187500.02, -187500.02, -187500.02, 11870.27, -106237.66, -187500.02, 0.000, 0.000, 0.000, 13:03:55.340
251, -21082.63, -114115.20, -187500.02, -187500.02, -187500.02, 11810.57, -106292.20, -187500.02, 0.000, 0.000, 0.000, 13:03:55.341
252, -21174.46, -114098.34, -187500.02, -187500.02, -187500.02, 11826.53, -106271.68, -187500.02, 0.000, 0.000, 0.000, 13:03:55.341
253, -21161.56, -114099.75, -187500.02, -187500.02, -187500.02, 11838.69, -106260.05, -187500.02, 0.000, 0.000, 0.000, 13:03:55.341
254, -21067.39, -114146.51, -187500.02, -187500.02, -187500.02, 11814.44, -106282.43, -187500.02, 0.000, 0.000, 0.000, 13:03:55.342
255, -21049.73, -114195.41, -187500.02, -187500.02, -187500.02, 11777.42, -106314.19, -187500.02, 0.000, 0.000, 0.000, 13:03:55.342
0, -21154.09, -114176.02, -187500.02, -187500.02, -187500.02, 11797.54, -106291.73, -187500.02, 0.000, 0.000, 0.000, 13:03:55.342
1, -21159.52, -114184.71, -187500.02, -187500.02, -187500.02, 11793.81, -106293.45, -187500.02, 0.000, 0.000, 0.000, 13:03:55.342
2, -21092.04, -114154.60, -187500.02, -187500.02, -187500.02, 11838.65, -106241.55, -187500.02, -0.300, -0.056, -0.962, 13:03:55.343
3, -21055.48, -114196.34, -187500.02, -187500.02, -187500.02, 11812.74, -106262.91, -187500.02, 0.000, 0.000, 0.000, 13:03:55.343
4, -21153.89, -114175.19, -187500.02, -187500.02, -187500.02, 11842.58, -106235.83, -187500.02, 0.000, 0.000, 0.000, 13:03:55.343
5, -21157.36, -114213.21, -187500.02, -187500.02, -187500.02, 11812.23, -106265.11, -187500.02, 0.000, 0.000, 0.000, 13:03:55.344
6, -21077.07, -114198.77, -187500.02, -187500.02, -187500.02, 11840.90, -106228.59, -187500.02, 0.000, 0.000, 0.000, 13:03:55.344
7, -21038.60, -114246.67, -187500.02, -187500.02, -187500.02, 11814.64, -106253.80, -187500.02, 0.000, 0.000, 0.000, 13:03:55.344
8, -21149.85, -114316.45, -187500.02, -187500.02, -187500.02, 11747.99, -106320.63, -187500.02, 0.000, 0.000, 0.000, 13:03:55.345
9, -21194.77, -114278.03, -187500.02, -187500.02, -187500.02, 11782.52, -106278.77, -187500.02, 0.000, 0.000, 0.000, 13:03:55.345
10, -21103.71, -114215.96, -187500.02, -187500.02, -187500.02, 11858.27, -106194.68, -187500.02, 0.000, 0.000, 0.000, 13:03:55.345
11, -21025.32, -114282.21, -187500.02, -187500.02, -187500.02, 11815.60, -106234.48, -187500.02, 0.000, 0.000, 0.000, 13:03:55.345
12, -21111.02, -114331.63, -187500.02, -187500.02, -187500.02, 11779.91, -106273.35, -187500.02, -0.306, -0.064, -0.968, 13:03:55.346
13, -21174.61, -114333.39, -187500.02, -187500.02, -187500.02, 11777.09, -106270.29, -187500.02, 0.000, 0.000, 0.000, 13:03:55.346
14, -21126.06, -114272.95, -187500.02, -187500.02, -187500.02, 11849.80, -106190.52, -187500.02, 0.000, 0.000, 0.000, 13:03:55.346
15, -21040.39, -114314.91, -187500.02, -187500.02, -187500.02, 11826.55, -106208.09, -187500.02, 0.000, 0.000, 0.000, 13:03:55.347
16, -21115.74, -114366.09, -187500.02, -187500.02, -187500.02, 11779.21, -106247.54, -187500.02, 0.000, 0.000, 0.000, 13:03:55.347
17, -21197.99, -114361.55, -187500.02, -187500.02, -187500.02, 11784.20, -106240.27, -187500.02, 0.000, 0.000, 0.000, 13:03:55.347
18, -21112.61, -114356.46, -187500.02, -187500.02, -187500.02, 11805.05, -106223.27, -187500.02, 0.000, 0.000, 0.000, 13:03:55.348
19, -21019.36, -114347.38, -187500.02, -187500.02, -187500.02, 11831.31, -106189.83, -187500.02, 0.000, 0.000, 0.000, 13:03:55.348
20, -21072.38, -114354.13, -187500.02, -187500.02, -187500.02, 11832.77, -106179.08, -187500.02, 0.000, 0.000, 0.000, 13:03:55.348
21, -21189.10, -114332.32, -187500.02, -187500.02, -187500.02, 11863.14, -106153.21, -187500.02, 0.000, 0.000, 0.000, 13:03:55.348
22, -21169.11, -114333.66, -187500.02, -187500.02, -187500.02, 11872.60, -106144.14, -187500.02, -0.302, -0.064, -0.966, 13:03:55.349
23, -21072.69, -114286.01, -187500.02, -187500.02, -187500.02, 11933.89, -106070.67, -187500.02, 0.000, 0.000, 0.000, 13:03:55.349
24, -21056.64, -114365.22, -187500.02, -187500.02, -187500.02, 11868.49, -106131.64, -187500.02, 0.000, 0.000, 0.000, 13:03:55.349
25, -21163.59, -114401.23, -187500.02, -187500.02, -187500.02, 11829.28, -106165.02, -187500.02, 0.000, 0.000, 0.000, 13:03:55.349
26, -21151.92, -114389.05, -187500.02, -187500.02, -187500.02, 11842.40, -106145.34, -187500.02, 0.000, 0.000, 0.000, 13:03:55.350
27, -21060.42, -114396.60, -187500.02, -187500.02, -187500.02, 11854.94, -106133.19, -187500.02, 0.000, 0.000, 0.000, 13:03:55.350
28, -21041.48, -114458.41, -187500.02, -187500.02, -187500.02, 11809.16, -106173.58, -187500.02, 0.000, 0.000, 0.000, 13:03:55.350
29, -21190.71, -114466.03, -187500.02, -187500.02, -187500.02, 11801.01, -106175.05, -187500.02, 0.000, 0.000, 0.000, 13:03:55.350
30, -21170.65, -114413.34, -187500.02, -187500.02, -187500.02, 11858.56, -106113.54, -187500.02, 0.000, 0.000, 0.000, 13:03:55.351
31, -21079.86, -114405.08, -187500.02, -187500.02, -187500.02, 11886.08, -106085.11, -187500.02, 0.000, 0.000, 0.000, 13:03:55.351
32, -21027.18, -114446.00, -187500.02, -187500.02, -187500.02, 11864.37, -106102.66, -187500.02, -0.300, -0.064, -0.960, 13:03:55.351
33, -21134.40, -114471.41, -187500.02, -187500.02, -187500.02, 11841.46, -106119.80, -187500.02, 0.000, 0.000, 0.000, 13:03:55.351
34, -21181.07, -114463.44, -187500.02, -187500.02, -187500.02, 11852.41, -106105.56, -187500.02, 0.000, 0.000, 0.000, 13:03:55.352
35, -21110.02, -114443.23, -187500.02, -187500.02, -187500.02, 11887.37, -106065.39, -187500.02, 0.000, 0.000, 0.000, 13:03:55.352
36, -21036.25, -114482.99, -187500.02, -187500.02, -187500.02, 11864.62, -106079.97, -187500.02, 0.000, 0.000, 0.000, 13:03:55.352
37, -21129.30, -114518.42, -187500.02, -187500.02, -187500.02, 11838.62, -106104.76, -187500.02, 0.000, 0.000, 0.000, 13:03:55.352
38, -21187.93, -114539.81, -187500.02, -187500.02, -187500.02, 11824.36, -106122.15, -187500.02, 0.000, 0.000, 0.000, 13:03:55.353
39, -21121.57, -114503.45, -187500.02, -187500.02, -187500.02, 11867.59, -106067.27, -187500.02, 0.000, 0.000, 0.000, 13:03:55.353
40, -21031.90, -114517.10, -187500.02, -187500.02, -187500.02, 11872.98, -106054.71, -187500.02, 0.000, 0.000, 0.000, 13:03:55.353
41, -21094.28, -114577.02, -187500.02, -187500.02, -187500.02, 11823.76, -106102.77, -187500.02, 0.000, 0.000, 0.000, 13:03:55.353
42, -21175.64, -114533.55, -187500.02, -187500.02, -187500.02, 11871.17, -106057.44, -187500.02, -0.304, -0.062, -0.978, 13:03:55.354
43, -21132.52, -114545.80, -187500.02, -187500.02, -187500.02, 11874.68, -106059.27, -187500.02, 0.000, 0.000, 0.000, 13:03:55.354
44, -21050.78, -114577.88, -187500.02, -187500.02, -187500.02, 11855.19, -106069.40, -187500.02, 0.000, 0.000, 0.000, 13:03:55.354
45, -21083.13, -114639.43, -187500.02, -187500.02, -187500.02, 11791.33, -106116.36, -187500.02, 0.000, 0.000, 0.000, 13:03:55.354
46, -21172.62, -114613.46, -187500.02, -187500.02, -187500.02, 11816.36, -106087.97, -187500.02, 0.000, 0.000, 0.000, 13:03:55.355
47, -21137.73, -114590.93, -187500.02, -187500.02, -187500.02, 11853.49, -106056.90, -187500.02, 0.000, 0.000, 0.000, 13:03:55.355
48, -21062.43, -114614.38, -187500.02, -187500.02, -187500.02, 11851.05, -106058.55, -187500.02, 0.000, 0.000, 0.000, 13:03:55.355
49, -21061.42, -114677.32, -187500.02, -187500.02, -187500.02, 11799.26, -106101.11, -187500.02, 0.000, 0.000, 0.000, 13:03:55.355
50, -21175.46, -114659.77, -187500.02, -187500.02, -187500.02, 11817.93, -106075.36, -187500.02, 0.000, 0.000, 0.000, 13:03:55.356
51, -21165.45, -114621.55, -187500.02, -187500.02, -187500.02, 11868.02, -106026.13, -187500.02, -0.308, -0.062, -0.974, 13:03:55.356
52, -21080.31, -114596.98, -187500.02, -187500.02, -187500.02, 11913.75, -105978.42, -187500.02, 0.000, 0.000, 0.000, 13:03:55.356
53, -21041.19, -114617.26, -187500.02, -187500.02, -187500.02, 11913.14, -105977.24, -187500.02, 0.000, 0.000, 0.000, 13:03:55.356
54, -21133.30, -114682.70, -187500.02, -187500.02, -187500.02, 11847.68, -106040.63, -187500.02, 0.000, 0.000, 0.000, 13:03:55.357
55, -21160.75, -114682.08, -187500.02, -187500.02, -187500.02, 11841.93, -106035.91, -187500.02, 0.000, 0.000, 0.000, 13:03:55.357
56, -21093.07, -114647.28, -187500.02, -187500.02, -187500.02, 11888.85, -105981.42, -187500.02, 0.000, 0.000, 0.000, 13:03:55.357
57, -21043.09, -114712.95, -187500.02, -187500.02, -187500.02, 11837.93, -106025.97, -187500.02, 0.000, 0.000, 0.000, 13:03:55.357
58, -21139.07, -114756.65, -187500.02, -187500.02, -187500.02, 11793.12, -106064.92, -187500.02, 0.000, 0.000, 0.000, 13:03:55.358
59, -21161.94, -114728.75, -187500.02, -187500.02, -187500.02, 11827.60, -106032.41, -187500.02, 0.000, 0.000, 0.000, 13:03:55.358
60, -21092.60, -114733.06, -187500.02, -187500.02, -187500.02, 11842.98, -106020.22, -187500.02, 0.000, 0.000, 0.000, 13:03:55.358
61, -21038.15, -114760.49, -187500.02, -187500.02, -187500.02, 11835.54, -106024.02, -187500.02, -0.306, -0.062, -0.968, 13:03:55.359
62, -21128.32, -114765.03, -187500.02, -187500.02, -187500.02, 11833.26, -106016.22, -187500.02, 0.000, 0.000, 0.000, 13:03:55.359
63, -21166.30, -114725.60, -187500.02, -187500.02, -187500.02, 11875.41, -105971.36, -187500.02, 0.000, 0.000, 0.000, 13:03:55.360
64, -21116.83, -114739.97, -187500.02, -187500.02, -187500.02, 11870.92, -105971.88, -187500.02, 0.000, 0.000, 0.000, 13:03:55.360
65, -21037.15, -114729.65, -187500.02, -187500.02, -187500.02, 11895.75, -105935.91, -187500.02, 0.000, 0.000, 0.000, 13:03:55.360
66, -21085.25, -114780.09, -187500.02, -187500.02, -187500.02, 11861.80, -105972.66, -187500.02, 0.000, 0.000, 0.000, 13:03:55.360
67, -21175.84, -114788.27, -187500.02, -187500.02, -187500.02, 11856.59, -105980.91, -187500.02, 0.000, 0.000, 0.000, 13:03:55.361
68, -21144.79, -114823.95, -187500.02, -187500.02, -187500.02, 11818.01, -106008.09, -187500.02, 0.000, 0.000, 0.000, 13:03:55.361
69, -21048.64, -114793.44, -187500.02, -187500.02, -187500.02, 11859.03, -105955.89, -187500.02, 0.000, 0.000, 0.000, 13:03:55.361
70, -21087.84, -114782.95, -187500.02, -187500.02, -187500.02, 11885.38, -105929.05, -187500.02, 0.000, 0.000, 0.000, 13:03:55.362
71, -21171.04, -114827.21, -187500.02, -187500.02, -187500.02, 11842.65, -105971.98, -187500.02, -0.308, -0.064, -0.968, 13:03:55.362
72, -21147.25, -114812.59, -187500.02, -187500.02, -187500.02, 11857.91, -105948.56, -187500.02, 0.000, 0.000, 0.000, 13:03:55.362
73, -21043.88, -114801.28, -187500.02, -187500.02, -187500.02, 11889.81, -105913.42, -187500.02, 0.000, 0.000, 0.000, 13:03:55.362
74, -21043.94, -114896.23, -187500.02, -187500.02, -187500.02, 11812.18, -105988.75, -187500.02, 0.000, 0.000, 0.000, 13:03:55.812
75, -21171.68, -114932.42, -187500.02, -187500.02, -187500.02, 11775.14, -106022.44, -187500.02, 0.000, 0.000, 0.000, 13:03:55.812
76, -21180.51, -114870.84, -187500.02, -187500.02, -187500.02, 11838.96, -105953.55, -187500.02, 0.000, 0.000, 0.000, 13:03:55.813
77, -21085.18, -114865.95, -187500.02, -187500.02, -187500.02, 11864.44, -105925.70, -187500.02, 0.000, 0.000, 0.000, 13:03:55.813
78, -21022.66, -114926.95, -187500.02, -187500.02, -187500.02, 11827.25, -105964.25, -187500.02, 0.000, 0.000, 0.000, 13:03:55.814
79, -21138.71, -114924.84, -187500.02, -187500.02, -187500.02, 11836.34, -105958.42, -187500.02, 0.000, 0.000, 0.000, 13:03:55.814
80, -21184.69, -114886.48, -187500.02, -187500.02, -187500.02, 11880.17, -105915.30, -187500.02, 0.000, 0.000, 0.000, 13:03:55.814
81, -21093.70, -114928.40, -187500.02, -187500.02, -187500.02, 11851.01, -105940.42, -187500.02, -0.308, -0.070, -0.962, 13:03:55.815
82, -21022.06, -114905.45, -187500.02, -187500.02, -187500.02, 11880.71, -105893.30, -187500.02, 0.000, 0.000, 0.000, 13:03:55.815
83, -21125.17, -114923.77, -187500.02, -187500.02, -187500.02, 11870.54, -105903.19, -187500.02, 0.000, 0.000, 0.000, 13:03:55.816
84, -21170.99, -114965.91, -187500.02, -187500.02, -187500.02, 11838.00, -105944.02, -187500.02, 0.000, 0.000, 0.000, 13:03:55.816
85, -21098.75, -114913.48, -187500.02, -187500.02, -187500.02, 11895.26, -105874.22, -187500.02, 0.000, 0.000, 0.000, 13:03:55.817
86, -21022.69, -114912.05, -187500.02, -187500.02, -187500.02, 11909.25, -105848.18, -187500.02, 0.000, 0.000, 0.000, 13:03:55.817
87, -21104.83, -114971.60, -187500.02, -187500.02, -187500.02, 11862.12, -105898.72, -187500.02, 0.000, 0.000, 0.000, 13:03:55.818
88, -21161.31, -114980.55, -187500.02, -187500.02, -187500.02, 11850.58, -105907.73, -187500.02, 0.000, 0.000, 0.000, 13:03:55.818
89, -21119.74, -114980.21, -187500.02, -187500.02, -187500.02, 11858.40, -105893.87, -187500.02, 0.000, 0.000, 0.000, 13:03:55.818
90, -21032.95, -115014.00, -187500.02, -187500.02, -187500.02, 11846.31, -105903.79, -187500.02, 0.000, 0.000, 0.000, 13:03:55.818
91, -21110.69, -115080.19, -187500.02, -187500.02, -187500.02, 11789.27, -105955.55, -187500.02, -0.302, -0.068, -0.964, 13:03:55.818
92, -21168.82, -115067.60, -187500.02, -187500.02, -187500.02, 11800.20, -105939.69, -187500.02, 0.000, 0.000, 0.000, 13:03:55.818
93, -21134.83, -115017.76, -187500.02, -187500.02, -187500.02, 11865.38, -105877.23, -187500.02, 0.000, 0.000, 0.000, 13:03:55.819
94, -21030.53, -115041.61, -187500.02, -187500.02, -187500.02, 11865.98, -105877.64, -187500.02, 0.000, 0.000, 0.000, 13:03:55.819
95, -21053.60, -115133.66, -187500.02, -187500.02, -187500.02, 11785.61, -105953.86, -187500.02, 0.000, 0.000, 0.000, 13:03:55.819
96, -21166.21, -115141.59, -187500.02, -187500.02, -187500.02, 11769.67, -105961.23, -187500.02, 0.000, 0.000, 0.000, 13:03:55.820
97, -21148.42, -115097.42, -187500.02, -187500.02, -187500.02, 11819.20, -105909.91, -187500.02, 0.000, 0.000, 0.000, 13:03:55.820
98, -21053.58, -115082.36, -187500.02, -187500.02, -187500.02, 11853.71, -105874.31, -187500.02, 0.000, 0.000, 0.000, 13:03:55.821
99, -21052.01, -115116.58, -187500.02, -187500.02, -187500.02, 11837.51, -105890.70, -187500.02, 0.000, 0.000, 0.000, 13:03:55.821
100, -21161.98, -115151.87, -187500.02, -187500.02, -187500.02, 11799.40, -105925.56, -187500.02, 0.000, 0.000, 0.000, 13:03:55.821
101, -21163.62, -115121.05, -187500.02, -187500.02, -187500.02, 11828.95, -105889.64, -187500.02, -0.296, -0.064, -0.970, 13:03:55.822
102, -21090.19, -115108.22, -187500.02, -187500.02, -187500.02, 11861.49, -105858.30, -187500.02, 0.000, 0.000, 0.000, 13:03:55.822
103, -21032.54, -115184.32, -187500.02, -187500.02, -187500.02, 11804.58, -105915.26, -187500.02, 0.000, 0.000, 0.000, 13:03:55.824
104, -21136.17, -115216.49, -187500.02, -187500.02, -187500.02, 11772.35, -105944.65, -187500.02, 0.000, 0.000, 0.000, 13:03:55.824
105, -21174.46, -115177.09, -187500.02, -187500.02, -187500.02, 11816.61, -105902.14, -187500.02, 0.000, 0.000, 0.000, 13:03:55.824
106, -21108.23, -115181.91, -187500.02, -187500.02, -187500.02, 11830.33, -105891.25, -187500.02, 0.000, 0.000, 0.000, 13:03:55.824
107, -21038.24, -115216.87, -187500.02, -187500.02, -187500.02, 11814.68, -105904.38, -187500.02, 0.000, 0.000, 0.000, 13:03:55.825
108, -21142.43, -115271.43, -187500.02, -187500.02, -187500.02, 11763.21, -105951.18, -187500.02, 0.000, 0.000, 0.000, 13:03:55.825
109, -21191.38, -115199.08, -187500.02, -187500.02, -187500.02, 11833.21, -105871.91, -187500.02, 0.000, 0.000, 0.000, 13:03:55.825
110, -21107.29, -115188.52, -187500.02, -187500.02, -187500.02, 11857.78, -105844.16, -187500.02, 0.000, 0.000, 0.000, 13:03:55.826
111, -21008.02, -115230.99, -187500.02, -187500.02, -187500.02, 11837.91, -105862.75, -187500.02, -0.306, -0.064, -0.970, 13:03:55.826
112, -21101.70, -115284.15, -187500.02, -187500.02, -187500.02, 11794.61, -105905.24, -187500.02, 0.000, 0.000, 0.000, 13:03:55.826
113, -21179.91, -115265.17, -187500.02, -187500.02, -187500.02, 11811.62, -105884.01, -187500.02, 0.000, 0.000, 0.000, 13:03:55.827
114, -21127.36, -115245.44, -187500.02, -187500.02, -187500.02, 11845.31, -105850.73, -187500.02, 0.000, 0.000, 0.000, 13:03:55.827
115, -21038.62, -115241.77, -187500.02, -187500.02, -187500.02, 11871.06, -105821.16, -187500.02, 0.000, 0.000, 0.000, 13:03:55.827
116, -21076.93, -115281.38, -187500.02, -187500.02, -187500.02, 11840.46, -105846.73, -187500.02, 0.000, 0.000, 0.000, 13:03:55.828
117, -21180.31, -115272.46, -187500.02, -187500.02, -187500.02, 11848.37, -105836.53, -187500.02, 0.000, 0.000, 0.000, 13:03:55.828
118, -21166.63, -115306.55, -187500.02, -187500.02, -187500.02, 11826.58, -105864.07, -187500.02, 0.000, 0.000, 0.000, 13:03:55.828
119, -21057.38, -115335.65, -187500.02, -187500.02, -187500.02, 11805.83, -105873.75, -187500.02, 0.000, 0.000, 0.000, 13:03:55.828
120, -21024.14, -115334.41, -187500.02, -187500.02, -187500.02, 11815.44, -105854.93, -187500.02, 0.000, 0.000, 0.000, 13:03:55.829
121, -21160.66, -115314.55, -187500.02, -187500.02, -187500.02, 11846.33, -105831.57, -187500.02, -0.306, -0.060, -0.966, 13:03:55.829
122, -21154.94, -115349.99, -187500.02, -187500.02, -187500.02, 11824.92, -105857.79, -187500.02, 0.000, 0.000, 0.000, 13:03:55.829
123, -21063.39, -115374.74, -187500.02, -187500.02, -187500.02, 11812.76, -105862.30, -187500.02, 0.000, 0.000, 0.000, 13:03:55.830
124, -21048.26, -115413.66, -187500.02, -187500.02, -187500.02, 11787.48, -105882.73, -187500.02, 0.000, 0.000, 0.000, 13:03:55.830
125, -21169.27, -115408.73, -187500.02, -187500.02, -187500.02, 11791.62, -105873.26, -187500.02, 0.000, 0.000, 0.000, 13:03:55.830
126, -21188.20, -115395.70, -187500.02, -187500.02, -187500.02, 11809.21, -105855.69, -187500.02, 0.000, 0.000, 0.000, 13:03:55.831
127, -21102.30, -115382.43, -187500.02, -187500.02, -187500.02, 11841.06, -105824.33, -187500.02, 0.000, 0.000, 0.000, 13:03:55.831
128, -21032.01, -115423.45, -187500.02, -187500.02, -187500.02, 11820.05, -105844.52, -187500.02, 0.000, 0.000, 0.000, 13:03:55.831
129, -21130.91, -115450.31, -187500.02, -187500.02, -187500.02, 11795.69, -105867.67, -187500.02, 0.000, 0.000, 0.000, 13:03:55.832
130, -21178.03, -115437.68, -187500.02, -187500.02, -187500.02, 11818.17, -105854.05, -187500.02, 0.000, 0.000, 0.000, 13:03:55.832
131, -21109.48, -115421.88, -187500.02, -187500.02, -187500.02, 11852.37, -105823.23, -187500.02, -0.304, -0.068, -0.962, 13:03:55.832
132, -21018.28, -115442.22, -187500.02, -187500.02, -187500.02, 11840.14, -105821.40, -187500.02, 0.000, 0.000, 0.000, 13:03:55.832
133, -21108.74, -115470.41, -187500.02, -187500.02, -187500.02, 11820.90, -105840.13, -187500.02, 0.000, 0.000, 0.000, 13:03:55.833
134, -21167.41, -115446.87, -187500.02, -187500.02, -187500.02, 11856.28, -105814.59, -187500.02, 0.000, 0.000, 0.000, 13:03:55.833
135, -21114.06, -115445.98, -187500.02, -187500.02, -187500.02, 11867.59, -105799.01, -187500.02, 0.000, 0.000, 0.000, 13:03:55.833
136, -21020.03, -115514.41, -187500.02, -187500.02, -187500.02, 11812.18, -105847.82, -187500.02, 0.000, 0.000, 0.000, 13:03:55.834
137, -21089.72, -115567.05, -187500.02, -187500.02, -187500.02, 11759.50, -105891.99, -187500.02, 0.000, 0.000, 0.000, 13:03:55.834
138, -21195.00, -115522.88, -187500.02, -187500.02, -187500.02, 11803.91, -105844.94, -187500.02, 0.000, 0.000, 0.000, 13:03:55.834
139, -21146.45, -115514.51, -187500.02, -187500.02, -187500.02, 11830.67, -105823.50, -187500.02, 0.000, 0.000, 0.000, 13:03:55.835
140, -21045.51, -115491.44, -187500.02, -187500.02, -187500.02, 11876.62, -105777.39, -187500.02, 0.000, 0.000, 0.000, 13:03:55.835
