%OpenBCI Raw EEG Data
%
%Sample Rate = 250.0 Hz
%First Column = SampleIndex
%Last Column = Timestamp 
%Other Columns = EEG data in microvolts followed by Accel Data (in G) interleaved with Aux Data
0, -25290.75, -69294.32, -135594.44, -87861.15, -84315.31, -16864.48, -110388.38, -109638.95, 0.134, -0.550, -0.872, 14:01:49.888
1, -25285.43, -69360.55, -135760.33, -87902.77, -84370.88, -16879.32, -110414.28, -109675.52, 0.000, 0.000, 0.000, 14:01:49.889
2, -25294.64, -69379.03, -135876.61, -87896.09, -84371.77, -16844.77, -110384.24, -109655.91, 0.000, 0.000, 0.000, 14:01:49.889
3, -25288.61, -69451.65, -136046.30, -87942.63, -84425.15, -16860.79, -110401.86, -109687.02, 0.000, 0.000, 0.000, 14:01:49.889
4, -25276.42, -69553.33, -136247.92, -88020.25, -84512.99, -16907.57, -110460.28, -109760.95, 0.000, 0.000, 0.000, 14:01:49.889
5, -25272.63, -69586.99, -136383.48, -88030.53, -84531.81, -16888.69, -110454.27, -109769.86, 0.000, 0.000, 0.000, 14:01:49.889
6, -25287.78, -69658.52, -136554.94, -88077.45, -84587.16, -16904.42, -110479.59, -109805.71, 0.000, 0.000, 0.000, 14:01:49.889
7, -25313.60, -69697.52, -136690.44, -88091.22, -84608.26, -16887.46, -110463.34, -109802.63, 0.122, -0.564, -0.870, 14:01:49.889
8, -25300.25, -69772.91, -136865.03, -88142.02, -84670.33, -16909.29, -110493.54, -109847.47, 0.000, 0.000, 0.000, 14:01:49.890
9, -25294.04, -69823.70, -137016.05, -88167.99, -84707.05, -16906.84, -110507.36, -109871.60, 0.000, 0.000, 0.000, 14:01:49.890
10, -25271.04, -69870.74, -137161.97, -88191.02, -84738.30, -16900.29, -110511.31, -109885.11, 0.000, 0.000, 0.000, 14:01:49.890
11, -25272.36, -69916.19, -137304.23, -88212.30, -84766.20, -16890.34, -110504.88, -109891.37, 0.000, 0.000, 0.000, 14:01:49.890
12, -25316.05, -69932.84, -137418.70, -88204.20, -84764.70, -16851.45, -110472.22, -109872.25, 0.000, 0.000, 0.000, 14:01:49.890
13, -25291.36, -69981.41, -137566.94, -88228.84, -84800.37, -16848.21, -110481.12, -109894.31, 0.000, 0.000, 0.000, 14:01:49.890
14, -25276.22, -70052.31, -137735.33, -88273.88, -84857.08, -16864.55, -110508.63, -109932.54, 0.000, 0.000, 0.000, 14:01:49.890
15, -25284.70, -70087.63, -137866.06, -88284.29, -84874.76, -16845.37, -110490.50, -109927.69, 0.000, 0.000, 0.000, 14:01:49.890
16, -25293.79, -70159.46, -138035.66, -88331.12, -84929.72, -16864.35, -110512.72, -109965.64, 0.000, 0.000, 0.000, 14:01:49.891
17, -25272.83, -70214.23, -138189.23, -88358.81, -84970.24, -16868.57, -110529.40, -109995.32, 0.126, -0.570, -0.860, 14:01:49.891
18, -25273.59, -70258.03, -138330.25, -88375.09, -84999.70, -16859.52, -110530.63, -110007.48, 0.000, 0.000, 0.000, 14:01:49.891
19, -25304.01, -70278.64, -138443.34, -88368.83, -85002.61, -16825.28, -110498.37, -109987.52, 0.000, 0.000, 0.000, 14:01:49.891
20, -25296.18, -70342.55, -138601.47, -88406.66, -85048.09, -16834.71, -110510.62, -110013.88, 0.000, 0.000, 0.000, 14:01:49.891
21, -25279.33, -70394.89, -138752.72, -88435.32, -85086.98, -16837.21, -110522.53, -110039.94, 0.000, 0.000, 0.000, 14:01:49.891
22, -25278.68, -70456.49, -138913.94, -88472.60, -85136.27, -16848.95, -110544.26, -110071.81, 0.000, 0.000, 0.000, 14:01:49.891
23, -25287.00, -70507.55, -139059.83, -88496.23, -85171.54, -16844.86, -110546.65, -110083.77, 0.000, 0.000, 0.000, 14:01:49.891
24, -25292.72, -70553.30, -139200.67, -88517.98, -85201.27, -16836.50, -110541.51, -110092.09, 0.000, 0.000, 0.000, 14:01:49.892
25, -25286.64, -70593.87, -139341.17, -88535.05, -85228.36, -16828.11, -110541.53, -110106.95, 0.000, 0.000, 0.000, 14:01:49.892
26, -25283.11, -70635.40, -139481.72, -88550.01, -85255.14, -16818.95, -110543.90, -110122.68, 0.124, -0.566, -0.864, 14:01:49.892
27, -25289.59, -70703.77, -139647.75, -88592.16, -85308.13, -16832.70, -110565.11, -110156.30, 0.000, 0.000, 0.000, 14:01:49.892
28, -25303.87, -70757.91, -139795.45, -88620.77, -85345.30, -16830.95, -110564.45, -110169.04, 0.000, 0.000, 0.000, 14:01:49.892
29, -25298.17, -70825.39, -139957.41, -88661.74, -85398.52, -16844.86, -110585.74, -110206.99, 0.000, 0.000, 0.000, 14:01:49.892
30, -25304.92, -70863.61, -140093.22, -88676.61, -85423.31, -16832.81, -110585.41, -110219.96, 0.000, 0.000, 0.000, 14:01:49.892
31, -25302.31, -70895.73, -140221.45, -88684.81, -85439.85, -16812.80, -110571.88, -110217.88, 0.000, 0.000, 0.000, 14:01:49.892
32, -25287.09, -70987.95, -140409.70, -88753.27, -85517.32, -16851.70, -110612.86, -110272.06, 0.000, 0.000, 0.000, 14:01:49.893
33, -25294.35, -71049.53, -140567.08, -88790.65, -85563.46, -16860.72, -110627.25, -110301.90, 0.000, 0.000, 0.000, 14:01:49.893
34, -25300.47, -71097.34, -140713.38, -88814.54, -85597.08, -16858.71, -110637.45, -110323.54, 0.000, 0.000, 0.000, 14:01:49.893
35, -25286.82, -71131.38, -140844.19, -88824.65, -85614.71, -16841.86, -110628.16, -110325.99, 0.000, 0.000, 0.000, 14:01:49.893
36, -25285.43, -71184.49, -140991.42, -88852.70, -85650.01, -16841.28, -110628.21, -110338.80, 0.120, -0.560, -0.862, 14:01:49.893
37, -25289.46, -71237.38, -141139.91, -88882.20, -85687.87, -16842.98, -110634.29, -110358.09, 0.000, 0.000, 0.000, 14:01:49.893
38, -25292.81, -71284.47, -141282.67, -88904.75, -85720.21, -16840.88, -110642.41, -110380.55, 0.000, 0.000, 0.000, 14:01:49.893
39, -25298.20, -71344.24, -141438.86, -88942.17, -85767.30, -16852.48, -110660.69, -110411.53, 0.000, 0.000, 0.000, 14:01:49.893
40, -25309.28, -71428.84, -141619.48, -89003.30, -85838.07, -16886.54, -110695.52, -110458.00, 0.000, 0.000, 0.000, 14:01:49.893
41, -25289.19, -71504.84, -141792.06, -89054.64, -85899.18, -16912.13, -110723.59, -110500.41, 0.000, 0.000, 0.000, 14:01:49.894
42, -25267.78, -71530.70, -141915.41, -89056.90, -85909.93, -16889.04, -110712.12, -110502.55, 0.000, 0.000, 0.000, 14:01:49.894
43, -25283.44, -71562.93, -142044.80, -89064.39, -85927.95, -16871.61, -110703.88, -110507.16, 0.000, 0.000, 0.000, 14:01:49.894
44, -25302.02, -71617.83, -142193.45, -89093.89, -85966.80, -16875.14, -110709.21, -110525.28, 0.000, 0.000, 0.000, 14:01:49.894
45, -25296.54, -71657.66, -142325.63, -89108.40, -85990.31, -16863.03, -110698.27, -110528.03, 0.000, 0.000, 0.000, 14:01:49.894
46, -25293.84, -71687.83, -142451.42, -89114.63, -86008.66, -16845.73, -110689.95, -110533.77, 0.116, -0.560, -0.858, 14:01:49.894
47, -25298.40, -71742.68, -142604.19, -89148.97, -86051.45, -16853.71, -110707.72, -110563.48, 0.000, 0.000, 0.000, 14:01:49.894
48, -25296.05, -71774.09, -142729.88, -89156.86, -86064.27, -16835.24, -110689.68, -110557.70, 0.000, 0.000, 0.000, 14:01:49.894
49, -25291.69, -71817.34, -142867.25, -89177.51, -86092.03, -16829.16, -110682.41, -110566.19, 0.000, 0.000, 0.000, 14:01:49.894
50, -25283.94, -71905.94, -143049.75, -89241.13, -86166.71, -16870.34, -110730.96, -110629.38, 0.000, 0.000, 0.000, 14:01:49.895
51, -25280.63, -71969.89, -143207.69, -89279.34, -86216.80, -16887.26, -110758.74, -110666.92, 0.000, 0.000, 0.000, 14:01:49.895
52, -25291.42, -71986.05, -143314.80, -89269.09, -86214.77, -16852.61, -110728.91, -110646.18, 0.000, 0.000, 0.000, 14:01:49.895
53, -25304.25, -72015.80, -143437.38, -89275.30, -86227.23, -16830.57, -110708.21, -110637.94, 0.000, 0.000, 0.000, 14:01:49.895
54, -25302.46, -72078.31, -143595.11, -89314.55, -86276.44, -16845.26, -110729.55, -110673.70, 0.000, 0.000, 0.000, 14:01:49.895
55, -25297.86, -72124.43, -143735.41, -89335.31, -86307.59, -16843.54, -110738.00, -110694.28, 0.000, 0.000, 0.000, 14:01:49.895
56, -25292.36, -72166.16, -143868.39, -89350.89, -86331.77, -16836.05, -110733.82, -110703.00, 0.116, -0.560, -0.860, 14:01:49.895
57, -25303.67, -72239.31, -144033.25, -89400.63, -86387.45, -16858.71, -110755.62, -110738.80, 0.000, 0.000, 0.000, 14:01:49.895
58, -25301.57, -72297.19, -144183.92, -89434.96, -86428.38, -16865.78, -110769.14, -110767.58, 0.000, 0.000, 0.000, 14:01:49.896
59, -25292.16, -72329.28, -144308.20, -89441.93, -86445.13, -16848.74, -110764.58, -110776.02, 0.000, 0.000, 0.000, 14:01:49.896
60, -25291.09, -72352.80, -144423.92, -89440.15, -86451.88, -16823.13, -110744.42, -110767.20, 0.000, 0.000, 0.000, 14:01:49.896
61, -25286.21, -72394.77, -144557.17, -89457.78, -86478.13, -16814.19, -110735.45, -110770.13, 0.000, 0.000, 0.000, 14:01:49.896
62, -25292.38, -72486.62, -144742.42, -89525.41, -86558.05, -16856.30, -110782.84, -110832.41, 0.000, 0.000, 0.000, 14:01:49.896
63, -25293.30, -72558.77, -144909.13, -89575.95, -86618.10, -16881.47, -110822.23, -110882.10, 0.000, 0.000, 0.000, 14:01:49.897
64, -25299.65, -72606.09, -145049.94, -89602.87, -86651.07, -16881.36, -110830.88, -110899.61, 0.000, 0.000, 0.000, 14:01:49.897
65, -25309.26, -72650.19, -145185.11, -89624.86, -86678.95, -16875.37, -110825.73, -110906.71, 0.000, 0.000, 0.000, 14:01:49.898
66, -25318.13, -72719.12, -145346.33, -89669.85, -86733.55, -16894.77, -110847.98, -110942.59, 0.116, -0.568, -0.860, 14:01:49.898
67, -25299.40, -72780.07, -145501.56, -89708.92, -86783.30, -16909.47, -110872.45, -110981.03, 0.000, 0.000, 0.000, 14:01:49.898
68, -25278.84, -72796.74, -145613.09, -89703.78, -86785.95, -16880.57, -110850.97, -110970.75, 0.000, 0.000, 0.000, 14:01:49.898
69, -25293.61, -72861.12, -145771.09, -89747.03, -86836.19, -16896.91, -110869.34, -111000.34, 0.000, 0.000, 0.000, 14:01:49.898
70, -25303.00, -72930.74, -145931.11, -89792.77, -86888.42, -16916.25, -110890.29, -111034.74, 0.000, 0.000, 0.000, 14:01:49.898
71, -25297.75, -72979.80, -146073.25, -89816.93, -86923.41, -16917.63, -110902.71, -111060.65, 0.000, 0.000, 0.000, 14:01:49.898
72, -25306.69, -73025.74, -146211.56, -89839.64, -86956.27, -16917.70, -110914.56, -111083.27, 0.000, 0.000, 0.000, 14:01:49.898
73, -25312.43, -73068.90, -146347.06, -89860.24, -86984.91, -16913.99, -110913.53, -111092.46, 0.000, 0.000, 0.000, 14:01:49.898
74, -25301.30, -73107.93, -146478.05, -89876.41, -87009.77, -16904.54, -110904.32, -111095.95, 0.000, 0.000, 0.000, 14:01:49.898
75, -25298.17, -73146.91, -146610.36, -89892.12, -87033.63, -16898.25, -110903.92, -111109.55, 0.000, 0.000, 0.000, 14:01:49.899
76, -25292.79, -73201.11, -146760.19, -89924.75, -87073.48, -16907.04, -110922.59, -111138.81, 0.120, -0.566, -0.858, 14:01:49.899
77, -25296.90, -73221.34, -146871.72, -89921.98, -87079.24, -16879.97, -110898.78, -111124.24, 0.000, 0.000, 0.000, 14:01:49.899
78, -25309.93, -73271.01, -147010.22, -89947.20, -87111.48, -16879.46, -110897.13, -111135.64, 0.000, 0.000, 0.000, 14:01:49.899
79, -25302.84, -73321.97, -147152.02, -89974.42, -87145.00, -16882.52, -110904.13, -111158.17, 0.000, 0.000, 0.000, 14:01:49.899
80, -25287.96, -73362.65, -147285.00, -89993.02, -87170.88, -16878.74, -110910.00, -111175.13, 0.000, 0.000, 0.000, 14:01:49.899
81, -25301.71, -73376.28, -147388.77, -89982.69, -87167.58, -16843.87, -110880.81, -111154.75, 0.000, 0.000, 0.000, 14:01:49.899
82, -25316.01, -73386.07, -147486.48, -89968.16, -87160.45, -16803.39, -110840.48, -111125.74, 0.000, 0.000, 0.000, 14:01:49.899
83, -25306.02, -73432.38, -147623.97, -89992.21, -87193.46, -16804.29, -110847.26, -111143.98, 0.000, 0.000, 0.000, 14:01:49.899
84, -25280.43, -73491.23, -147776.03, -90027.82, -87241.49, -16820.60, -110875.58, -111181.35, 0.000, 0.000, 0.000, 14:01:49.899
85, -25279.31, -73609.57, -147987.91, -90121.80, -87348.40, -16894.10, -110957.07, -111272.30, 0.000, 0.000, 0.000, 14:01:49.900
86, -25310.71, -73638.42, -148106.03, -90123.39, -87361.43, -16874.16, -110936.20, -111263.34, 0.116, -0.566, -0.860, 14:01:49.900
87, -25302.82, -73691.22, -148250.22, -90153.43, -87399.07, -16879.39, -110943.75, -111286.83, 0.000, 0.000, 0.000, 14:01:49.900
88, -25271.48, -73729.38, -148382.47, -90173.04, -87424.84, -16874.87, -110949.67, -111305.52, 0.000, 0.000, 0.000, 14:01:49.900
89, -25287.44, -73775.30, -148520.72, -90198.27, -87458.73, -16878.49, -110961.25, -111325.56, 0.000, 0.000, 0.000, 14:01:49.900
90, -25295.71, -73825.24, -148661.48, -90226.01, -87494.47, -16883.03, -110965.55, -111340.16, 0.000, 0.000, 0.000, 14:01:49.900
91, -25288.92, -73870.81, -148797.56, -90249.81, -87526.50, -16882.99, -110965.16, -111352.97, 0.000, 0.000, 0.000, 14:01:49.900
92, -25286.51, -73917.48, -148937.27, -90274.80, -87561.37, -16886.99, -110976.77, -111377.55, 0.000, 0.000, 0.000, 14:01:49.900
93, -25294.73, -73948.53, -149060.63, -90285.64, -87577.77, -16872.79, -110972.38, -111383.74, 0.000, 0.000, 0.000, 14:01:49.900
94, -25303.56, -73977.81, -149179.77, -90293.84, -87590.45, -16853.37, -110957.77, -111377.42, 0.000, 0.000, 0.000, 14:01:49.900
95, -25296.52, -74026.83, -149319.44, -90321.50, -87623.77, -16855.67, -110961.86, -111393.00, 0.000, 0.000, 0.000, 14:01:49.901
96, -25282.30, -74094.02, -149478.11, -90367.01, -87675.66, -16877.49, -110992.39, -111438.69, 0.118, -0.566, -0.862, 14:01:49.901
97, -25286.64, -74151.77, -149627.11, -90403.30, -87717.56, -16890.47, -111013.45, -111472.23, 0.000, 0.000, 0.000, 14:01:49.901
98, -25296.83, -74190.06, -149755.03, -90419.64, -87739.91, -16882.47, -111008.08, -111476.73, 0.000, 0.000, 0.000, 14:01:49.901
99, -25304.43, -74240.24, -149895.70, -90447.49, -87775.97, -16886.83, -111012.73, -111493.27, 0.000, 0.000, 0.000, 14:01:49.901
100, -25299.18, -74273.52, -150022.67, -90459.02, -87796.82, -16877.82, -111007.95, -111502.66, 0.000, 0.000, 0.000, 14:01:49.901
101, -25288.92, -74286.60, -150130.05, -90451.00, -87796.80, -16850.35, -110986.11, -111493.42, 0.000, 0.000, 0.000, 14:01:49.901
102, -25302.38, -74323.28, -150257.08, -90464.86, -87818.19, -16844.77, -110981.03, -111499.64, 0.000, 0.000, 0.000, 14:01:49.901
103, -25306.49, -74406.01, -150428.98, -90523.35, -87885.36, -16883.28, -111017.31, -111548.21, 0.000, 0.000, 0.000, 14:01:49.901
104, -25306.89, -74454.42, -150567.16, -90547.90, -87918.33, -16885.42, -111025.02, -111571.19, 0.000, 0.000, 0.000, 14:01:49.901
105, -25310.69, -74539.73, -150745.72, -90608.36, -87990.90, -16925.28, -111075.34, -111636.37, 0.000, 0.000, 0.000, 14:01:49.902
106, -25299.18, -74608.80, -150908.48, -90655.81, -88046.47, -16950.54, -111103.95, -111676.06, 0.116, -0.568, -0.862, 14:01:49.902
107, -25299.92, -74640.36, -151028.92, -90665.06, -88062.23, -16934.73, -111086.11, -111669.29, 0.000, 0.000, 0.000, 14:01:49.902
108, -25291.67, -74677.47, -151155.44, -90679.75, -88086.21, -16926.44, -111082.11, -111679.39, 0.000, 0.000, 0.000, 14:01:49.902
109, -25287.02, -74702.23, -151271.61, -90683.28, -88100.45, -16909.90, -111074.89, -111683.48, 0.000, 0.000, 0.000, 14:01:49.902
110, -25296.81, -74730.20, -151390.13, -90689.12, -88114.06, -16892.15, -111064.72, -111680.94, 0.000, 0.000, 0.000, 14:01:49.902
111, -25289.63, -74775.44, -151522.94, -90712.59, -88142.78, -16890.52, -111064.18, -111689.34, 0.000, 0.000, 0.000, 14:01:49.902
112, -25284.47, -74831.36, -151666.89, -90745.13, -88184.80, -16902.23, -111078.91, -111715.40, 0.000, 0.000, 0.000, 14:01:49.902
113, -25283.49, -74862.12, -151787.06, -90753.94, -88206.41, -16892.22, -111078.38, -111725.46, 0.000, 0.000, 0.000, 14:01:49.902
114, -25286.88, -74911.51, -151926.83, -90781.18, -88245.16, -16898.97, -111092.05, -111748.19, 0.000, 0.000, 0.000, 14:01:49.902
115, -25296.85, -74961.76, -152066.95, -90808.97, -88281.99, -16902.81, -111097.04, -111764.13, 0.000, 0.000, 0.000, 14:01:49.903
116, -25290.35, -75033.38, -152229.08, -90857.67, -88340.39, -16928.25, -111124.51, -111803.58, 0.120, -0.564, -0.864, 14:01:49.903
117, -25289.77, -75078.97, -152365.72, -90880.89, -88373.01, -16932.25, -111136.24, -111825.95, 0.000, 0.000, 0.000, 14:01:49.903
118, -25283.00, -75110.48, -152488.67, -90891.71, -88392.49, -16923.94, -111134.19, -111832.77, 0.000, 0.000, 0.000, 14:01:49.903
119, -25280.83, -75159.44, -152628.38, -90920.19, -88428.44, -16931.22, -111141.19, -111849.87, 0.000, 0.000, 0.000, 14:01:49.903
120, -25286.28, -75234.83, -152792.36, -90973.63, -88489.77, -16961.93, -111172.03, -111894.05, 0.000, 0.000, 0.000, 14:01:50.368
121, -25291.42, -75260.13, -152906.95, -90976.70, -88501.30, -16943.47, -111161.34, -111897.88, 0.000, 0.000, 0.000, 14:01:50.369
122, -25287.47, -75287.36, -153024.69, -90984.60, -88515.63, -16928.90, -111156.20, -111902.69, 0.000, 0.000, 0.000, 14:01:50.369
123, -25288.23, -75373.14, -153199.98, -91050.50, -88588.55, -16972.37, -111202.77, -111958.23, 0.000, 0.000, 0.000, 14:01:50.369
124, -25299.69, -75375.47, -153289.84, -91029.64, -88574.39, -16931.89, -111159.38, -111927.07, 0.000, 0.000, 0.000, 14:01:50.370
125, -25295.63, -75402.91, -153407.42, -91034.02, -88589.26, -16916.98, -111149.68, -111931.70, 0.114, -0.570, -0.860, 14:01:50.370
126, -25273.29, -75446.39, -153543.11, -91057.41, -88620.08, -16919.31, -111161.93, -111954.45, 0.000, 0.000, 0.000, 14:01:50.370
127, -25278.30, -75520.57, -153707.27, -91112.05, -88681.68, -16950.24, -111197.51, -112000.50, 0.000, 0.000, 0.000, 14:01:50.371
128, -25288.70, -75545.34, -153819.41, -91115.88, -88692.75, -16930.82, -111175.31, -111991.09, 0.000, 0.000, 0.000, 14:01:50.371
129, -25285.68, -75588.92, -153950.56, -91136.64, -88722.48, -16932.47, -111180.26, -112009.28, 0.000, 0.000, 0.000, 14:01:50.371
130, -25289.81, -75638.28, -154088.45, -91162.64, -88758.17, -16940.10, -111197.40, -112038.31, 0.000, 0.000, 0.000, 14:01:50.371
131, -25294.53, -75651.17, -154188.86, -91152.16, -88755.06, -16909.14, -111171.25, -112022.58, 0.000, 0.000, 0.000, 14:01:50.371
132, -25298.64, -75673.57, -154297.31, -91152.73, -88761.77, -16887.73, -111148.25, -112010.13, 0.000, 0.000, 0.000, 14:01:50.372
133, -25292.90, -75736.00, -154445.16, -91192.41, -88807.99, -16904.96, -111169.77, -112042.61, 0.000, 0.000, 0.000, 14:01:50.372
134, -25291.65, -75791.92, -154590.58, -91226.98, -88851.11, -16920.58, -111195.86, -112078.17, 0.000, 0.000, 0.000, 14:01:50.372
135, -25291.42, -75841.88, -154730.42, -91257.72, -88889.46, -16929.79, -111212.71, -112102.96, 0.116, -0.572, -0.862, 14:01:50.372
136, -25307.96, -75859.74, -154835.42, -91256.83, -88894.23, -16903.77, -111188.05, -112087.34, 0.000, 0.000, 0.000, 14:01:50.373
137, -25298.20, -75881.63, -154945.66, -91259.42, -88903.16, -16884.55, -111169.21, -112081.52, 0.000, 0.000, 0.000, 14:01:50.373
138, -25290.51, -75920.96, -155074.25, -91277.64, -88931.28, -16884.78, -111176.61, -112101.05, 0.000, 0.000, 0.000, 14:01:50.373
139, -25278.62, -75959.61, -155201.95, -91298.02, -88958.17, -16884.91, -111181.26, -112114.20, 0.000, 0.000, 0.000, 14:01:50.373
140, -25287.02, -76005.79, -155334.19, -91325.34, -88989.20, -16888.31, -111183.92, -112126.43, 0.000, 0.000, 0.000, 14:01:50.373
141, -25304.90, -76043.02, -155456.47, -91340.55, -89012.11, -16882.72, -111176.88, -112131.23, 0.000, 0.000, 0.000, 14:01:50.374
142, -25300.16, -76070.20, -155572.98, -91347.46, -89028.65, -16872.46, -111171.96, -112140.09, 0.000, 0.000, 0.000, 14:01:50.374
143, -25286.51, -76121.97, -155716.34, -91380.05, -89069.51, -16886.32, -111192.70, -112171.11, 0.000, 0.000, 0.000, 14:01:50.374
144, -25278.28, -76178.45, -155860.20, -91417.29, -89110.10, -16901.23, -111208.80, -112194.78, 0.000, 0.000, 0.000, 14:01:50.374
145, -25280.76, -76217.13, -155984.66, -91435.20, -89132.85, -16897.67, -111202.61, -112199.90, 0.114, -0.572, -0.860, 14:01:50.374
146, -25277.03, -76265.58, -156122.77, -91462.98, -89169.98, -16907.42, -111217.38, -112226.77, 0.000, 0.000, 0.000, 14:01:50.375
147, -25269.92, -76298.39, -156246.27, -91476.88, -89191.91, -16901.99, -111220.69, -112238.66, 0.000, 0.000, 0.000, 14:01:50.375
148, -25278.50, -76333.02, -156367.50, -91491.14, -89212.67, -16896.51, -111215.95, -112241.65, 0.000, 0.000, 0.000, 14:01:50.375
149, -25294.06, -76352.17, -156469.73, -91487.27, -89215.45, -16872.04, -111187.12, -112225.96, 0.000, 0.000, 0.000, 14:01:50.375
150, -25289.46, -76416.90, -156619.83, -91529.81, -89265.84, -16894.03, -111214.43, -112265.81, 0.000, 0.000, 0.000, 14:01:50.375
151, -25289.14, -76478.26, -156770.03, -91571.25, -89314.64, -16914.91, -111245.77, -112306.76, 0.000, 0.000, 0.000, 14:01:50.376
152, -25307.85, -76527.12, -156905.84, -91600.20, -89350.20, -16922.97, -111257.05, -112328.51, 0.000, 0.000, 0.000, 14:01:50.376
153, -25310.49, -76573.37, -157040.36, -91629.50, -89384.16, -16929.52, -111261.55, -112343.46, 0.000, 0.000, 0.000, 14:01:50.376
154, -25296.68, -76589.45, -157143.23, -91627.93, -89388.78, -16907.69, -111243.38, -112336.89, 0.000, 0.000, 0.000, 14:01:50.376
155, -25288.88, -76610.84, -157251.02, -91629.32, -89399.89, -16892.11, -111236.56, -112340.00, 0.118, -0.566, -0.860, 14:01:50.376
156, -25285.86, -76668.31, -157392.84, -91664.50, -89443.95, -16910.03, -111256.48, -112369.44, 0.000, 0.000, 0.000, 14:01:50.377
157, -25289.86, -76718.27, -157526.19, -91694.01, -89478.66, -16918.21, -111259.45, -112384.79, 0.000, 0.000, 0.000, 14:01:50.377
158, -25300.25, -76768.43, -157664.31, -91724.45, -89516.19, -16929.30, -111270.98, -112411.21, 0.000, 0.000, 0.000, 14:01:50.377
159, -25302.42, -76797.26, -157781.00, -91733.77, -89532.88, -16919.46, -111272.14, -112423.15, 0.000, 0.000, 0.000, 14:01:50.377
160, -25315.79, -76816.66, -157887.39, -91734.38, -89539.38, -16898.66, -111260.23, -112417.91, 0.000, 0.000, 0.000, 14:01:50.377
161, -25299.47, -76870.82, -158026.25, -91767.74, -89579.30, -16912.02, -111272.95, -112438.62, 0.000, 0.000, 0.000, 14:01:50.377
162, -25286.95, -76947.20, -158188.30, -91823.89, -89642.77, -16947.32, -111311.37, -112485.87, 0.000, 0.000, 0.000, 14:01:50.378
163, -25288.58, -76991.20, -158318.61, -91848.01, -89673.54, -16952.08, -111324.71, -112509.89, 0.000, 0.000, 0.000, 14:01:50.378
164, -25280.25, -77005.27, -158417.52, -91841.62, -89672.65, -16925.99, -111304.02, -112499.66, 0.000, 0.000, 0.000, 14:01:50.378
165, -25298.69, -77046.88, -158543.36, -91864.19, -89699.91, -16927.00, -111304.04, -112509.13, 0.122, -0.564, -0.860, 14:01:50.378
166, -25298.31, -77084.10, -158666.63, -91882.34, -89724.03, -16922.53, -111300.13, -112515.66, 0.000, 0.000, 0.000, 14:01:50.378
167, -25288.45, -77090.02, -158759.86, -91866.92, -89717.80, -16889.69, -111275.25, -112500.77, 0.000, 0.000, 0.000, 14:01:50.379
168, -25288.40, -77107.97, -158865.23, -91865.31, -89724.02, -16871.07, -111263.27, -112496.23, 0.000, 0.000, 0.000, 14:01:50.379
169, -25306.91, -77156.14, -159000.47, -91894.97, -89759.26, -16881.24, -111272.81, -112513.83, 0.000, 0.000, 0.000, 14:01:50.379
170, -25309.46, -77191.86, -159120.23, -91910.80, -89779.60, -16876.95, -111266.00, -112516.58, 0.000, 0.000, 0.000, 14:01:50.379
171, -25293.86, -77236.09, -159249.41, -91932.14, -89808.73, -16881.29, -111275.45, -112538.23, 0.000, 0.000, 0.000, 14:01:50.379
172, -25285.21, -77259.34, -159360.59, -91934.60, -89819.27, -16866.87, -111267.52, -112538.73, 0.000, 0.000, 0.000, 14:01:50.380
173, -25290.13, -77311.30, -159499.30, -91966.67, -89858.26, -16878.96, -111282.89, -112561.77, 0.000, 0.000, 0.000, 14:01:50.380
174, -25299.20, -77367.38, -159640.33, -92002.99, -89901.59, -16893.98, -111297.36, -112585.98, 0.000, 0.000, 0.000, 14:01:50.380
175, -25304.54, -77391.88, -159750.50, -92009.01, -89913.80, -16878.72, -111286.38, -112586.42, 0.122, -0.566, -0.866, 14:01:50.380
176, -25298.82, -77425.01, -159870.22, -92023.85, -89934.97, -16873.42, -111290.56, -112599.68, 0.000, 0.000, 0.000, 14:01:50.380
177, -25301.37, -77460.21, -159991.20, -92039.88, -89955.30, -16868.97, -111290.67, -112606.84, 0.000, 0.000, 0.000, 14:01:50.380
178, -25300.47, -77514.44, -160130.80, -92076.47, -89995.34, -16883.70, -111302.95, -112629.14, 0.000, 0.000, 0.000, 14:01:50.381
179, -25284.43, -77586.19, -160287.17, -92127.52, -90055.17, -16916.60, -111338.44, -112676.19, 0.000, 0.000, 0.000, 14:01:50.381
180, -25286.59, -77604.47, -160390.44, -92124.66, -90058.93, -16897.00, -111326.39, -112674.38, 0.000, 0.000, 0.000, 14:01:50.381
181, -25303.96, -77626.69, -160497.80, -92126.29, -90066.44, -16878.61, -111313.80, -112668.63, 0.000, 0.000, 0.000, 14:01:50.381
182, -25317.19, -77650.56, -160602.69, -92129.69, -90075.65, -16860.70, -111294.95, -112658.24, 0.000, 0.000, 0.000, 14:01:50.381
183, -25300.50, -77691.64, -160725.89, -92152.20, -90104.86, -16863.97, -111299.52, -112673.44, 0.000, 0.000, 0.000, 14:01:50.382
184, -25281.37, -77717.77, -160834.41, -92159.13, -90117.11, -16851.63, -111294.61, -112678.47, 0.000, 0.000, 0.000, 14:01:50.382
185, -25284.38, -77756.28, -160956.84, -92180.05, -90143.64, -16852.30, -111299.70, -112691.10, 0.122, -0.566, -0.862, 14:01:50.382
186, -25302.53, -77764.11, -161048.02, -92171.55, -90138.30, -16820.96, -111267.54, -112667.18, 0.000, 0.000, 0.000, 14:01:50.382
187, -25293.77, -77830.31, -161198.27, -92219.43, -90192.68, -16848.61, -111295.95, -112705.72, 0.000, 0.000, 0.000, 14:01:50.382
188, -25269.18, -77889.86, -161344.44, -92259.82, -90242.08, -16871.88, -111327.87, -112747.60, 0.000, 0.000, 0.000, 14:01:50.383
189, -25272.92, -77900.79, -161439.61, -92251.50, -90240.34, -16843.74, -111306.68, -112733.01, 0.000, 0.000, 0.000, 14:01:50.383
190, -25293.35, -77928.15, -161549.38, -92260.94, -90252.61, -16832.00, -111294.18, -112729.43, 0.000, 0.000, 0.000, 14:01:50.383
191, -25301.71, -77979.91, -161683.22, -92294.62, -90290.47, -16846.44, -111306.34, -112754.84, 0.000, 0.000, 0.000, 14:01:50.383
192, -25286.44, -78035.39, -161823.78, -92331.08, -90335.29, -16866.02, -111333.34, -112793.23, 0.000, 0.000, 0.000, 14:01:50.383
193, -25278.53, -78086.42, -161960.52, -92362.44, -90374.83, -16879.05, -111355.63, -112823.58, 0.000, 0.000, 0.000, 14:01:50.384
194, -25291.45, -78103.95, -162062.41, -92362.45, -90379.84, -16858.24, -111336.29, -112812.11, 0.000, 0.000, 0.000, 14:01:50.384
195, -25295.87, -78152.00, -162194.67, -92391.85, -90414.10, -16868.68, -111344.38, -112829.57, 0.120, -0.566, -0.864, 14:01:50.384
196, -25285.99, -78210.14, -162338.53, -92431.59, -90461.13, -16891.12, -111372.28, -112869.55, 0.000, 0.000, 0.000, 14:01:50.384
197, -25286.33, -78250.75, -162465.50, -92455.64, -90491.52, -16897.85, -111386.30, -112893.16, 0.000, 0.000, 0.000, 14:01:50.385
198, -25305.48, -78275.80, -162573.89, -92462.41, -90502.23, -16886.07, -111374.70, -112890.99, 0.000, 0.000, 0.000, 14:01:50.385
199, -25309.44, -78300.86, -162678.77, -92467.06, -90511.24, -16870.85, -111355.31, -112882.48, 0.000, 0.000, 0.000, 14:01:50.385
200, -25285.57, -78358.69, -162819.52, -92506.78, -90557.22, -16891.21, -111380.73, -112918.82, 0.000, 0.000, 0.000, 14:01:50.385
201, -25279.64, -78400.91, -162946.53, -92531.70, -90587.08, -16899.53, -111396.40, -112943.56, 0.000, 0.000, 0.000, 14:01:50.385
202, -25290.86, -78404.40, -163032.36, -92516.26, -90576.44, -16866.65, -111364.45, -112919.09, 0.000, 0.000, 0.000, 14:01:50.386
203, -25297.59, -78434.17, -163141.64, -92525.69, -90591.64, -16856.81, -111350.71, -112915.29, 0.000, 0.000, 0.000, 14:01:50.386
204, -25302.04, -78487.16, -163276.78, -92559.42, -90633.03, -16873.26, -111369.98, -112944.23, 0.000, 0.000, 0.000, 14:01:50.386
205, -25300.70, -78512.78, -163386.86, -92567.53, -90648.50, -16865.53, -111368.26, -112950.31, 0.120, -0.568, -0.854, 14:01:50.386
206, -25299.18, -78552.39, -163512.33, -92591.18, -90677.45, -16871.72, -111376.33, -112965.69, 0.000, 0.000, 0.000, 14:01:50.386
207, -25316.86, -78562.27, -163602.61, -92582.30, -90673.24, -16844.41, -111344.25, -112943.25, 0.000, 0.000, 0.000, 14:01:50.387
208, -25315.34, -78610.19, -163730.03, -92611.01, -90707.65, -16854.51, -111353.21, -112964.41, 0.000, 0.000, 0.000, 14:01:50.387
209, -25309.79, -78649.91, -163853.61, -92633.09, -90735.18, -16860.12, -111364.03, -112987.46, 0.000, 0.000, 0.000, 14:01:50.387
210, -25317.44, -78679.70, -163964.05, -92642.30, -90749.47, -16853.97, -111357.44, -112993.12, 0.000, 0.000, 0.000, 14:01:50.387
211, -25318.24, -78717.59, -164081.83, -92659.91, -90771.98, -16852.70, -111352.79, -112998.70, 0.000, 0.000, 0.000, 14:01:50.387
212, -25298.08, -78747.48, -164193.47, -92672.43, -90789.41, -16843.85, -111345.05, -113001.01, 0.000, 0.000, 0.000, 14:01:50.387
213, -25305.10, -78805.14, -164337.42, -92714.81, -90837.28, -16867.21, -111378.42, -113043.98, 0.000, 0.000, 0.000, 14:01:50.388
214, -25311.54, -78842.16, -164458.67, -92733.38, -90860.11, -16868.28, -111386.14, -113058.88, 0.118, -0.568, -0.856, 14:01:50.388
215, -25299.67, -78877.00, -164575.70, -92749.32, -90879.84, -16865.98, -111382.45, -113062.67, 0.000, 0.000, 0.000, 14:01:50.388
216, -25293.37, -78921.62, -164700.97, -92774.73, -90910.04, -16872.37, -111388.23, -113077.67, 0.000, 0.000, 0.000, 14:01:50.388
217, -25291.80, -78965.80, -164828.39, -92799.61, -90942.90, -16881.87, -111404.24, -113105.23, 0.000, 0.000, 0.000, 14:01:50.388
218, -25299.13, -79011.88, -164956.81, -92825.70, -90975.22, -16892.89, -111421.70, -113132.44, 0.000, 0.000, 0.000, 14:01:50.389
219, -25315.76, -79051.88, -165076.48, -92844.98, -91000.01, -16894.77, -111422.75, -113142.41, 0.000, 0.000, 0.000, 14:01:50.389
220, -25308.50, -79068.49, -165171.16, -92842.93, -91000.74, -16871.25, -111398.23, -113125.93, 0.000, 0.000, 0.000, 14:01:50.389
221, -25293.32, -79060.73, -165245.80, -92817.45, -90979.73, -16828.38, -111361.91, -113097.68, 0.000, 0.000, 0.000, 14:01:50.389
222, -25293.86, -79104.77, -165373.89, -92842.46, -91012.16, -16838.33, -111379.79, -113124.88, 0.000, 0.000, 0.000, 14:01:50.389
223, -25303.56, -79157.83, -165507.53, -92874.31, -91052.11, -16853.97, -111395.34, -113149.65, 0.000, 0.000, 0.000, 14:01:50.390
224, -25307.16, -79161.36, -165589.30, -92857.34, -91039.88, -16818.21, -111355.07, -113119.85, 0.114, -0.570, -0.858, 14:01:50.390
225, -25296.25, -79201.02, -165710.38, -92877.62, -91067.40, -16822.23, -111362.11, -113138.73, 0.000, 0.000, 0.000, 14:01:50.390
226, -25295.56, -79212.73, -165803.92, -92869.64, -91067.46, -16801.45, -111348.14, -113134.83, 0.000, 0.000, 0.000, 14:01:50.390
227, -25307.83, -79243.32, -165915.03, -92879.50, -91085.48, -16797.02, -111346.53, -113140.05, 0.000, 0.000, 0.000, 14:01:50.390
228, -25321.93, -79299.92, -166050.59, -92916.11, -91128.46, -16816.71, -111361.93, -113163.23, 0.000, 0.000, 0.000, 14:01:50.391
229, -25310.91, -79326.47, -166152.52, -92921.98, -91141.29, -16806.61, -111351.78, -113163.95, 0.000, 0.000, 0.000, 14:01:50.391
230, -25301.93, -79354.08, -166257.50, -92929.25, -91155.75, -16799.39, -111352.61, -113172.53, 0.000, 0.000, 0.000, 14:01:50.391
231, -25305.33, -79369.37, -166349.92, -92924.24, -91155.38, -16777.76, -111332.29, -113159.93, 0.000, 0.000, 0.000, 14:01:50.391
232, -25303.38, -79421.24, -166481.02, -92956.48, -91193.21, -16791.50, -111341.66, -113179.22, 0.000, 0.000, 0.000, 14:01:50.391
233, -25299.11, -79482.55, -166622.17, -92997.94, -91241.74, -16817.47, -111365.57, -113216.66, 0.000, 0.000, 0.000, 14:01:50.391
234, -25301.19, -79515.26, -166734.86, -93010.10, -91261.23, -16816.87, -111371.25, -113232.46, 0.118, -0.570, -0.858, 14:01:50.392
235, -25311.43, -79552.29, -166850.48, -93027.60, -91283.72, -16819.33, -111378.90, -113247.44, 0.000, 0.000, 0.000, 14:01:50.392
236, -25313.93, -79557.03, -166931.81, -93015.09, -91273.03, -16788.30, -111344.90, -113220.90, 0.000, 0.000, 0.000, 14:01:50.392
237, -25302.60, -79594.52, -167044.44, -93034.93, -91297.87, -16789.15, -111342.53, -113230.63, 0.000, 0.000, 0.000, 14:01:50.392
238, -25290.44, -79646.66, -167175.67, -93069.51, -91341.90, -16810.12, -111368.01, -113267.59, 0.000, 0.000, 0.000, 14:01:50.392
239, -25290.33, -79683.99, -167294.13, -93091.19, -91369.77, -16816.27, -111379.03, -113285.27, 0.000, 0.000, 0.000, 14:01:50.393
240, -25303.94, -79701.76, -167392.19, -93090.79, -91373.10, -16798.95, -111359.43, -113273.12, 0.000, 0.000, 0.000, 14:01:50.848
241, -25317.35, -79727.26, -167497.98, -93096.45, -91384.48, -16787.63, -111345.75, -113270.05, 0.000, 0.000, 0.000, 14:01:50.849
242, -25296.77, -79735.24, -167587.27, -93084.84, -91380.90, -16761.33, -111324.34, -113259.13, 0.000, 0.000, 0.000, 14:01:50.849
243, -25290.73, -79766.87, -167700.53, -93095.93, -91401.06, -16759.47, -111328.02, -113271.84, 0.000, 0.000, 0.000, 14:01:50.849
244, -25300.77, -79785.87, -167798.88, -93094.50, -91405.71, -16744.03, -111310.48, -113262.52, 0.122, -0.562, -0.864, 14:01:50.849
245, -25305.10, -79809.25, -167899.44, -93099.05, -91414.83, -16733.43, -111293.06, -113253.73, 0.000, 0.000, 0.000, 14:01:50.850
246, -25288.12, -79845.39, -168016.06, -93118.26, -91441.16, -16739.47, -111300.04, -113271.30, 0.000, 0.000, 0.000, 14:01:50.850
247, -25277.90, -79889.60, -168141.94, -93144.81, -91476.05, -16753.17, -111319.28, -113300.52, 0.000, 0.000, 0.000, 14:01:50.850
248, -25295.49, -79910.61, -168241.38, -93149.08, -91485.06, -16740.81, -111307.33, -113296.77, 0.000, 0.000, 0.000, 14:01:50.851
249, -25306.94, -79914.91, -168320.98, -93135.73, -91472.97, -16708.31, -111269.41, -113268.38, 0.000, 0.000, 0.000, 14:01:50.851
250, -25287.73, -79949.08, -168435.05, -93154.52, -91495.95, -16710.81, -111272.50, -113282.82, 0.000, 0.000, 0.000, 14:01:50.851
251, -25266.32, -79970.63, -168537.56, -93161.82, -91507.08, -16702.83, -111270.69, -113289.19, 0.000, 0.000, 0.000, 14:01:50.851
252, -25282.62, -80014.30, -168660.58, -93187.80, -91537.77, -16712.38, -111282.60, -113308.90, 0.000, 0.000, 0.000, 14:01:50.852
253, -25302.44, -80040.79, -168763.94, -93197.30, -91552.88, -16703.10, -111270.38, -113305.84, 0.000, 0.000, 0.000, 14:01:50.852
254, -25304.39, -80078.63, -168877.42, -93217.26, -91579.63, -16708.35, -111274.63, -113321.55, 0.126, -0.564, -0.860, 14:01:50.857
255, -25295.71, -80150.88, -169029.16, -93271.75, -91641.81, -16749.19, -111321.48, -113378.35, 0.000, 0.000, 0.000, 14:01:50.858
0, -25301.30, -80194.95, -169153.50, -93298.46, -91674.38, -16759.07, -111334.62, -113400.48, 0.000, 0.000, 0.000, 14:01:50.858
1, -25312.84, -80220.66, -169254.95, -93305.32, -91686.77, -16747.51, -111320.45, -113394.73, 0.000, 0.000, 0.000, 14:01:50.858
2, -25315.99, -80252.41, -169365.00, -93319.45, -91707.13, -16745.03, -111317.54, -113402.40, 0.000, 0.000, 0.000, 14:01:50.859
3, -25299.20, -80300.30, -169494.95, -93348.52, -91744.56, -16761.26, -111341.10, -113435.68, 0.000, 0.000, 0.000, 14:01:50.859
4, -25284.83, -80329.64, -169602.53, -93358.34, -91761.15, -16758.58, -111340.98, -113444.69, 0.000, 0.000, 0.000, 14:01:50.859
5, -25299.69, -80372.31, -169721.44, -93382.23, -91789.80, -16766.89, -111345.79, -113459.53, 0.000, 0.000, 0.000, 14:01:50.859
6, -25314.15, -80389.74, -169814.09, -93381.63, -91792.42, -16748.92, -111323.95, -113449.45, 0.000, 0.000, 0.000, 14:01:50.860
7, -25304.12, -80432.77, -169934.67, -93406.53, -91824.25, -16760.57, -111338.53, -113476.88, 0.000, 0.000, 0.000, 14:01:50.860
8, -25285.59, -80481.19, -170060.20, -93435.01, -91860.75, -16776.64, -111358.27, -113508.13, 0.128, -0.566, -0.860, 14:01:50.860
9, -25296.85, -80518.36, -170174.80, -93453.96, -91883.81, -16778.49, -111359.41, -113517.95, 0.000, 0.000, 0.000, 14:01:50.860
10, -25309.44, -80550.84, -170284.95, -93468.98, -91903.42, -16776.86, -111354.09, -113522.72, 0.000, 0.000, 0.000, 14:01:50.861
11, -25308.48, -80558.26, -170368.59, -93458.77, -91897.34, -16752.27, -111332.72, -113511.92, 0.000, 0.000, 0.000, 14:01:50.861
12, -25302.24, -80580.05, -170465.86, -93459.70, -91904.38, -16740.94, -111326.75, -113513.46, 0.000, 0.000, 0.000, 14:01:50.861
13, -25300.86, -80590.30, -170551.67, -93449.02, -91899.46, -16717.90, -111301.45, -113496.73, 0.000, 0.000, 0.000, 14:01:50.861
14, -25318.96, -80613.04, -170650.94, -93453.84, -91910.17, -16706.61, -111287.05, -113493.39, 0.000, 0.000, 0.000, 14:01:50.862
15, -25307.07, -80637.73, -170755.05, -93462.20, -91923.91, -16700.80, -111283.88, -113500.73, 0.000, 0.000, 0.000, 14:01:50.862
16, -25307.07, -80648.76, -170843.39, -93454.34, -91921.34, -16681.15, -111267.59, -113493.17, 0.000, 0.000, 0.000, 14:01:50.862
17, -25310.87, -80679.67, -170952.38, -93466.63, -91938.51, -16679.29, -111266.91, -113498.78, 0.000, 0.000, 0.000, 14:01:50.862
18, -25298.13, -80742.12, -171091.13, -93508.95, -91987.06, -16705.20, -111290.78, -113530.97, 0.122, -0.566, -0.862, 14:01:50.863
19, -25293.50, -80796.21, -171221.98, -93542.25, -92029.37, -16725.27, -111312.66, -113564.65, 0.000, 0.000, 0.000, 14:01:50.863
20, -25297.61, -80813.16, -171317.98, -93539.74, -92035.70, -16713.05, -111305.47, -113567.35, 0.000, 0.000, 0.000, 14:01:50.863
21, -25302.20, -80833.85, -171415.34, -93541.96, -92044.91, -16702.94, -111295.41, -113564.52, 0.000, 0.000, 0.000, 14:01:50.863
22, -25312.50, -80850.13, -171507.00, -93539.74, -92049.13, -16684.95, -111272.92, -113550.05, 0.000, 0.000, 0.000, 14:01:50.864
23, -25302.40, -80876.41, -171610.77, -93547.73, -92063.68, -16678.67, -111267.02, -113556.38, 0.000, 0.000, 0.000, 14:01:50.864
24, -25294.28, -80912.40, -171724.33, -93566.10, -92088.23, -16685.35, -111280.66, -113577.73, 0.000, 0.000, 0.000, 14:01:50.864
25, -25300.95, -80910.20, -171800.00, -93548.44, -92073.41, -16653.75, -111249.57, -113555.82, 0.000, 0.000, 0.000, 14:01:50.864
26, -25307.40, -80933.25, -171898.13, -93554.72, -92083.28, -16643.80, -111233.88, -113552.53, 0.000, 0.000, 0.000, 14:01:50.865
27, -25310.11, -80972.12, -172011.98, -93576.02, -92111.55, -16650.84, -111237.12, -113570.44, 0.000, 0.000, 0.000, 14:01:50.865
28, -25292.85, -80986.07, -172102.25, -93573.02, -92116.43, -16637.52, -111226.34, -113571.58, 0.118, -0.566, -0.860, 14:01:50.865
29, -25295.56, -81002.23, -172192.11, -93570.73, -92121.51, -16622.84, -111213.94, -113567.71, 0.000, 0.000, 0.000, 14:01:50.866
30, -25301.53, -81042.59, -172306.63, -93592.48, -92147.12, -16630.52, -111216.53, -113580.27, 0.000, 0.000, 0.000, 14:01:50.866
31, -25307.83, -81060.81, -172397.75, -93591.94, -92150.49, -16616.20, -111195.56, -113571.27, 0.000, 0.000, 0.000, 14:01:50.866
32, -25290.24, -81125.45, -172536.23, -93636.53, -92203.09, -16649.28, -111232.23, -113618.25, 0.000, 0.000, 0.000, 14:01:50.867
33, -25282.75, -81169.17, -172655.31, -93661.20, -92235.01, -16659.98, -111248.63, -113641.65, 0.000, 0.000, 0.000, 14:01:50.867
34, -25296.14, -81149.44, -172708.44, -93622.94, -92204.27, -16608.71, -111192.05, -113592.91, 0.000, 0.000, 0.000, 14:01:50.867
35, -25302.64, -81176.41, -172809.73, -93631.97, -92220.48, -16605.87, -111182.71, -113594.71, 0.000, 0.000, 0.000, 14:01:50.867
36, -25299.92, -81210.41, -172921.97, -93648.58, -92243.48, -16611.62, -111190.16, -113616.38, 0.000, 0.000, 0.000, 14:01:50.868
37, -25287.06, -81262.96, -173053.28, -93684.63, -92283.20, -16635.78, -111219.08, -113654.30, 0.000, 0.000, 0.000, 14:01:50.868
38, -25289.46, -81290.21, -173154.38, -93694.40, -92294.84, -16630.44, -111210.92, -113655.06, 0.116, -0.568, -0.860, 14:01:50.868
39, -25296.83, -81312.58, -173249.23, -93698.78, -92301.57, -16619.64, -111194.02, -113648.20, 0.000, 0.000, 0.000, 14:01:50.868
40, -25291.78, -81351.14, -173362.89, -93719.27, -92329.20, -16630.23, -111205.13, -113670.66, 0.000, 0.000, 0.000, 14:01:50.869
41, -25288.36, -81365.87, -173453.17, -93715.16, -92332.62, -16617.61, -111194.65, -113671.29, 0.000, 0.000, 0.000, 14:01:50.869
42, -25298.80, -81387.75, -173548.19, -93718.63, -92340.13, -16608.62, -111181.89, -113668.48, 0.000, 0.000, 0.000, 14:01:50.869
43, -25311.16, -81441.88, -173674.28, -93757.09, -92381.57, -16631.84, -111197.66, -113695.32, 0.000, 0.000, 0.000, 14:01:50.870
44, -25304.59, -81481.59, -173790.22, -93781.79, -92410.94, -16644.25, -111208.91, -113717.20, 0.000, 0.000, 0.000, 14:01:50.870
45, -25292.50, -81509.63, -173896.55, -93793.99, -92430.31, -16645.37, -111215.15, -113731.86, 0.000, 0.000, 0.000, 14:01:50.870
46, -25290.21, -81540.77, -174003.14, -93807.30, -92451.28, -16646.55, -111216.15, -113741.25, 0.000, 0.000, 0.000, 14:01:50.870
47, -25295.29, -81557.06, -174090.73, -93805.28, -92454.45, -16630.59, -111193.35, -113729.25, 0.118, -0.568, -0.856, 14:01:50.871
48, -25299.31, -81565.31, -174170.69, -93794.63, -92449.85, -16606.99, -111168.90, -113716.93, 0.000, 0.000, 0.000, 14:01:50.871
49, -25287.22, -81618.89, -174300.63, -93831.19, -92493.51, -16630.79, -111199.50, -113756.95, 0.000, 0.000, 0.000, 14:01:50.871
50, -25280.65, -81660.20, -174417.27, -93855.04, -92523.21, -16640.89, -111211.73, -113778.76, 0.000, 0.000, 0.000, 14:01:50.871
51, -25293.05, -81693.63, -174522.14, -93869.88, -92542.61, -16641.86, -111206.61, -113783.49, 0.000, 0.000, 0.000, 14:01:50.872
52, -25300.79, -81699.63, -174599.44, -93857.19, -92536.94, -16616.67, -111177.15, -113764.79, 0.000, 0.000, 0.000, 14:01:50.872
53, -25287.33, -81700.97, -174675.75, -93842.05, -92530.27, -16591.19, -111154.75, -113752.92, 0.000, 0.000, 0.000, 14:01:50.872
54, -25296.05, -81705.26, -174754.97, -93830.67, -92523.45, -16567.25, -111132.80, -113740.76, 0.000, 0.000, 0.000, 14:01:50.872
55, -25298.80, -81732.08, -174852.55, -93838.95, -92535.03, -16561.19, -111123.44, -113740.70, 0.000, 0.000, 0.000, 14:01:50.873
56, -25300.54, -81793.95, -174983.67, -93880.43, -92582.98, -16590.04, -111148.34, -113777.55, 0.000, 0.000, 0.000, 14:01:50.873
57, -25299.56, -81828.98, -175092.03, -93897.53, -92607.50, -16595.86, -111157.97, -113798.43, 0.116, -0.564, -0.856, 14:01:50.873
58, -25291.15, -81851.13, -175187.92, -93900.66, -92616.26, -16588.50, -111153.45, -113801.89, 0.000, 0.000, 0.000, 14:01:50.873
59, -25291.85, -81852.20, -175260.63, -93882.82, -92601.53, -16559.33, -111118.72, -113777.28, 0.000, 0.000, 0.000, 14:01:50.874
60, -25302.06, -81849.05, -175329.72, -93861.41, -92583.23, -16526.21, -111078.53, -113750.35, 0.000, 0.000, 0.000, 14:01:50.874
61, -25299.42, -81882.23, -175436.75, -93877.41, -92605.11, -16532.04, -111085.30, -113771.65, 0.000, 0.000, 0.000, 14:01:50.874
62, -25292.16, -81898.60, -175527.02, -93877.70, -92609.38, -16521.83, -111077.70, -113775.34, 0.000, 0.000, 0.000, 14:01:50.874
63, -25297.23, -81944.89, -175645.30, -93905.95, -92641.88, -16536.85, -111091.54, -113798.07, 0.000, 0.000, 0.000, 14:01:50.875
64, -25291.65, -82000.92, -175771.44, -93942.77, -92686.47, -16560.88, -111109.80, -113828.91, 0.000, 0.000, 0.000, 14:01:50.875
65, -25281.79, -82034.95, -175879.14, -93957.95, -92710.14, -16566.69, -111116.75, -113849.55, 0.000, 0.000, 0.000, 14:01:50.875
66, -25286.46, -82064.36, -175983.69, -93968.61, -92728.65, -16568.41, -111123.62, -113866.09, 0.000, 0.000, 0.000, 14:01:50.875
67, -25291.36, -82046.95, -176035.78, -93932.02, -92698.05, -16519.57, -111073.93, -113823.82, 0.118, -0.564, -0.862, 14:01:50.876
68, -25290.04, -82066.91, -176126.17, -93934.59, -92704.95, -16508.17, -111057.39, -113816.20, 0.000, 0.000, 0.000, 14:01:50.876
69, -25277.90, -82128.55, -176260.75, -93978.29, -92757.08, -16541.86, -111089.82, -113860.77, 0.000, 0.000, 0.000, 14:01:50.876
70, -25265.56, -82180.14, -176387.59, -94012.71, -92802.63, -16566.67, -111121.78, -113901.31, 0.000, 0.000, 0.000, 14:01:50.876
71, -25283.09, -82194.89, -176474.27, -94011.57, -92806.02, -16552.90, -111108.87, -113896.88, 0.000, 0.000, 0.000, 14:01:50.877
72, -25306.04, -82191.83, -176541.67, -93994.20, -92789.53, -16520.96, -111069.03, -113868.55, 0.000, 0.000, 0.000, 14:01:50.877
73, -25299.42, -82197.91, -176618.03, -93982.84, -92782.53, -16499.21, -111043.58, -113853.21, 0.000, 0.000, 0.000, 14:01:50.877
74, -25282.06, -82271.05, -176764.39, -94036.38, -92845.61, -16545.99, -111094.91, -113913.96, 0.000, 0.000, 0.000, 14:01:50.877
75, -25289.30, -82304.69, -176870.00, -94051.91, -92869.05, -16552.14, -111101.38, -113930.73, 0.000, 0.000, 0.000, 14:01:50.878
76, -25305.06, -82267.67, -176900.69, -93998.23, -92818.99, -16485.39, -111026.12, -113865.98, 0.000, 0.000, 0.000, 14:01:50.878
77, -25298.98, -82284.84, -176988.13, -93999.77, -92823.77, -16473.57, -111009.09, -113860.84, 0.120, -0.560, -0.858, 14:01:50.878
78, -25283.87, -82378.38, -177156.39, -94076.50, -92910.72, -16542.50, -111082.60, -113946.89, 0.000, 0.000, 0.000, 14:01:50.879
79, -25288.12, -82421.63, -177272.50, -94101.22, -92941.55, -16557.21, -111099.77, -113974.78, 0.000, 0.000, 0.000, 14:01:50.879
80, -25297.08, -82421.49, -177341.34, -94082.40, -92925.74, -16525.07, -111062.44, -113947.00, 0.000, 0.000, 0.000, 14:01:50.879
81, -25306.44, -82439.18, -177427.84, -94081.66, -92928.31, -16510.29, -111043.71, -113939.60, 0.000, 0.000, 0.000, 14:01:50.879
82, -25305.01, -82474.85, -177534.92, -94098.96, -92952.16, -16516.53, -111053.77, -113963.52, 0.000, 0.000, 0.000, 14:01:50.880
83, -25291.31, -82513.09, -177646.78, -94120.71, -92980.10, -16527.46, -111066.93, -113988.06, 0.000, 0.000, 0.000, 14:01:50.880
84, -25290.21, -82524.60, -177729.80, -94115.91, -92977.94, -16508.71, -111043.24, -113974.40, 0.000, 0.000, 0.000, 14:01:50.880
85, -25294.26, -82532.67, -177807.47, -94105.91, -92973.33, -16486.58, -111014.38, -113956.41, 0.000, 0.000, 0.000, 14:01:50.880
86, -25287.60, -82577.94, -177924.55, -94134.28, -93010.34, -16504.37, -111034.34, -113988.77, 0.000, 0.000, 0.000, 14:01:50.881
87, -25289.46, -82565.20, -177984.34, -94104.69, -92988.59, -16465.61, -110998.73, -113963.67, 0.122, -0.566, -0.856, 14:01:50.881
88, -25304.77, -82559.72, -178047.19, -94081.10, -92970.09, -16432.31, -110960.63, -113936.02, 0.000, 0.000, 0.000, 14:01:50.881
89, -25311.27, -82594.48, -178150.39, -94096.64, -92990.65, -16437.16, -110957.72, -113945.32, 0.000, 0.000, 0.000, 14:01:50.881
90, -25289.41, -82640.25, -178266.91, -94123.75, -93025.32, -16456.18, -110977.10, -113977.77, 0.000, 0.000, 0.000, 14:01:50.882
91, -25285.21, -82684.02, -178381.38, -94149.99, -93058.87, -16474.26, -110998.58, -114010.74, 0.000, 0.000, 0.000, 14:01:50.882
92, -25297.95, -82692.38, -178459.39, -94140.05, -93054.47, -16454.71, -110977.28, -114000.02, 0.000, 0.000, 0.000, 14:01:50.882
93, -25294.13, -82712.52, -178549.17, -94141.50, -93059.12, -16444.85, -110959.78, -113994.98, 0.000, 0.000, 0.000, 14:01:50.882
94, -25278.32, -82766.36, -178675.06, -94176.66, -93099.30, -16471.13, -110982.98, -114032.59, 0.000, 0.000, 0.000, 14:01:50.883
95, -25277.45, -82779.91, -178760.34, -94172.23, -93101.07, -16458.15, -110972.54, -114033.84, 0.000, 0.000, 0.000, 14:01:50.883
96, -25279.11, -82807.55, -178858.23, -94184.26, -93118.46, -16457.66, -110971.69, -114041.97, 0.000, 0.000, 0.000, 14:01:50.883
97, -25289.05, -82830.45, -178948.38, -94190.83, -93129.26, -16450.15, -110957.90, -114038.22, 0.122, -0.562, -0.858, 14:01:50.883
98, -25291.91, -82841.62, -179029.55, -94184.19, -93128.07, -16434.95, -110938.39, -114028.56, 0.000, 0.000, 0.000, 14:01:50.884
99, -25284.76, -82832.23, -179090.38, -94156.92, -93107.28, -16399.27, -110907.07, -114006.55, 0.000, 0.000, 0.000, 14:01:50.884
100, -25291.58, -82888.23, -179216.11, -94194.85, -93151.95, -16427.19, -110937.20, -114042.66, 0.000, 0.000, 0.000, 14:01:50.884
101, -25297.57, -82871.21, -179264.27, -94158.53, -93120.20, -16380.61, -110881.79, -113995.70, 0.000, 0.000, 0.000, 14:01:50.884
102, -25302.13, -82886.66, -179346.55, -94156.07, -93123.82, -16369.70, -110863.51, -113988.39, 0.000, 0.000, 0.000, 14:01:50.885
103, -25293.79, -82916.84, -179446.69, -94171.07, -93144.43, -16376.47, -110874.02, -114009.12, 0.000, 0.000, 0.000, 14:01:50.885
104, -25296.34, -82957.91, -179558.06, -94197.31, -93175.97, -16394.24, -110893.10, -114036.79, 0.000, 0.000, 0.000, 14:01:51.327
105, -25297.39, -82982.81, -179650.86, -94207.08, -93188.24, -16392.21, -110886.55, -114039.24, 0.000, 0.000, 0.000, 14:01:51.327
106, -25297.95, -83013.13, -179749.69, -94220.02, -93205.48, -16394.02, -110882.80, -114046.24, 0.000, 0.000, 0.000, 14:01:51.327
107, -25285.90, -83058.45, -179864.39, -94247.20, -93240.39, -16413.73, -110905.59, -114079.61, 0.124, -0.562, -0.862, 14:01:51.327
108, -25286.68, -83085.34, -179960.73, -94256.74, -93256.15, -16415.32, -110910.47, -114094.07, 0.000, 0.000, 0.000, 14:01:51.327
109, -25301.64, -83109.59, -180052.13, -94262.31, -93266.63, -16410.67, -110903.36, -114096.17, 0.000, 0.000, 0.000, 14:01:51.327
110, -25310.00, -83089.81, -180098.75, -94224.20, -93232.66, -16363.09, -110848.42, -114051.65, 0.000, 0.000, 0.000, 14:01:51.327
111, -25301.06, -83083.64, -180159.66, -94200.40, -93215.17, -16331.82, -110817.35, -114032.61, 0.000, 0.000, 0.000, 14:01:51.327
112, -25288.99, -83111.02, -180256.06, -94212.89, -93232.97, -16335.19, -110825.66, -114048.72, 0.000, 0.000, 0.000, 14:01:51.327
113, -25291.58, -83158.27, -180370.92, -94243.58, -93268.22, -16353.21, -110843.23, -114074.34, 0.000, 0.000, 0.000, 14:01:51.328
114, -25304.83, -83148.64, -180426.78, -94216.87, -93245.17, -16314.27, -110798.24, -114037.97, 0.000, 0.000, 0.000, 14:01:51.328
115, -25293.30, -83169.88, -180517.88, -94221.65, -93255.19, -16310.96, -110793.93, -114046.09, 0.000, 0.000, 0.000, 14:01:51.328
116, -25292.56, -83199.16, -180617.38, -94235.42, -93273.71, -16317.04, -110804.03, -114066.58, 0.000, 0.000, 0.000, 14:01:51.328
117, -25311.32, -83241.13, -180726.77, -94260.92, -93302.82, -16331.44, -110817.06, -114089.78, 0.118, -0.564, -0.862, 14:01:51.328
118, -25315.18, -83271.47, -180821.88, -94273.04, -93319.63, -16331.10, -110810.42, -114095.55, 0.000, 0.000, 0.000, 14:01:51.328
119, -25280.92, -83310.58, -180929.08, -94294.95, -93348.75, -16343.91, -110821.55, -114120.54, 0.000, 0.000, 0.000, 14:01:51.328
120, -25272.80, -83346.52, -181033.39, -94313.77, -93374.52, -16355.33, -110836.24, -114147.83, 0.000, 0.000, 0.000, 14:01:51.328
121, -25290.24, -83369.57, -181123.69, -94318.52, -93384.94, -16351.69, -110833.11, -114153.62, 0.000, 0.000, 0.000, 14:01:51.329
122, -25298.20, -83391.36, -181212.52, -94323.66, -93394.37, -16345.14, -110821.63, -114151.79, 0.000, 0.000, 0.000, 14:01:51.329
123, -25285.23, -83398.49, -181284.89, -94313.74, -93389.25, -16325.58, -110799.18, -114140.59, 0.000, 0.000, 0.000, 14:01:51.329
124, -25285.32, -83410.05, -181365.11, -94308.98, -93391.38, -16316.04, -110791.31, -114143.45, 0.000, 0.000, 0.000, 14:01:51.329
125, -25296.05, -83416.10, -181438.42, -94298.45, -93386.81, -16297.71, -110773.38, -114134.33, 0.000, 0.000, 0.000, 14:01:51.329
126, -25301.30, -83465.45, -181553.80, -94327.47, -93422.35, -16317.42, -110787.36, -114157.84, 0.000, 0.000, 0.000, 14:01:51.329
127, -25303.89, -83467.98, -181622.84, -94311.44, -93410.26, -16292.01, -110756.60, -114141.23, 0.112, -0.570, -0.860, 14:01:51.329
128, -25296.36, -83500.46, -181724.69, -94329.66, -93432.95, -16301.26, -110771.84, -114166.88, 0.000, 0.000, 0.000, 14:01:51.329
129, -25294.15, -83540.70, -181835.25, -94355.56, -93463.46, -16316.79, -110793.57, -114193.56, 0.000, 0.000, 0.000, 14:01:51.330
130, -25303.00, -83517.34, -181877.56, -94317.72, -93427.02, -16266.46, -110738.09, -114145.51, 0.000, 0.000, 0.000, 14:01:51.330
131, -25299.20, -83552.18, -181976.09, -94334.48, -93451.12, -16274.39, -110739.14, -114159.54, 0.000, 0.000, 0.000, 14:01:51.330
132, -25295.89, -83590.41, -182081.08, -94353.82, -93479.15, -16288.59, -110755.15, -114188.64, 0.000, 0.000, 0.000, 14:01:51.330
133, -25297.35, -83627.64, -182188.86, -94375.01, -93507.31, -16303.63, -110772.49, -114215.76, 0.000, 0.000, 0.000, 14:01:51.330
134, -25301.88, -83621.47, -182248.89, -94353.28, -93489.59, -16274.62, -110736.41, -114188.66, 0.000, 0.000, 0.000, 14:01:51.330
135, -25294.39, -83672.92, -182365.42, -94387.03, -93530.40, -16301.01, -110754.86, -114218.17, 0.000, 0.000, 0.000, 14:01:51.330
136, -25299.76, -83719.80, -182481.22, -94417.66, -93570.68, -16325.85, -110780.59, -114254.67, 0.000, 0.000, 0.000, 14:01:51.330
137, -25301.19, -83711.66, -182541.11, -94393.96, -93554.61, -16295.94, -110751.33, -114235.49, 0.112, -0.572, -0.862, 14:01:51.330
138, -25298.51, -83706.07, -182600.80, -94372.03, -93538.25, -16263.64, -110715.54, -114208.45, 0.000, 0.000, 0.000, 14:01:51.330
139, -25298.06, -83721.52, -182681.11, -94371.34, -93541.40, -16252.20, -110695.83, -114200.47, 0.000, 0.000, 0.000, 14:01:51.331
140, -25292.90, -83735.04, -182762.91, -94369.98, -93544.82, -16243.15, -110683.31, -114201.92, 0.000, 0.000, 0.000, 14:01:51.331
141, -25288.00, -83757.64, -182853.45, -94377.47, -93557.67, -16244.53, -110687.04, -114216.09, 0.000, 0.000, 0.000, 14:01:51.331
142, -25287.18, -83776.62, -182939.39, -94381.16, -93565.27, -16239.48, -110681.74, -114218.64, 0.000, 0.000, 0.000, 14:01:51.331
143, -25295.31, -83795.81, -183024.97, -94383.97, -93569.83, -16233.45, -110668.53, -114214.39, 0.000, 0.000, 0.000, 14:01:51.331
144, -25294.69, -83804.96, -183099.11, -94375.23, -93566.77, -16219.92, -110649.00, -114208.40, 0.000, 0.000, 0.000, 14:01:51.331
145, -25304.12, -83797.45, -183158.86, -94352.12, -93549.36, -16194.22, -110620.55, -114192.06, 0.000, 0.000, 0.000, 14:01:51.331
146, -25306.26, -83795.32, -183223.28, -94333.30, -93536.23, -16170.91, -110593.57, -114173.18, 0.116, -0.570, -0.856, 14:01:51.331
147, -25300.97, -83868.88, -183363.42, -94390.34, -93597.62, -16220.19, -110635.41, -114223.60, 0.000, 0.000, 0.000, 14:01:51.331
148, -25293.84, -83872.33, -183435.11, -94380.33, -93590.10, -16202.35, -110610.27, -114210.44, 0.000, 0.000, 0.000, 14:01:51.331
149, -25289.81, -83876.73, -183506.52, -94369.91, -93585.43, -16186.71, -110596.59, -114207.15, 0.000, 0.000, 0.000, 14:01:51.332
150, -25293.93, -83907.91, -183603.61, -94385.47, -93606.94, -16195.89, -110607.05, -114224.80, 0.000, 0.000, 0.000, 14:01:51.332
151, -25292.99, -83919.87, -183679.03, -94383.16, -93608.23, -16184.65, -110588.42, -114216.31, 0.000, 0.000, 0.000, 14:01:51.332
152, -25292.58, -83961.89, -183784.13, -94410.05, -93642.27, -16204.41, -110601.19, -114241.23, 0.000, 0.000, 0.000, 14:01:51.332
153, -25303.96, -83969.58, -183856.09, -94403.23, -93642.09, -16190.80, -110590.20, -114239.70, 0.000, 0.000, 0.000, 14:01:51.332
154, -25310.38, -83980.64, -183931.98, -94400.98, -93642.49, -16180.45, -110581.54, -114238.16, 0.000, 0.000, 0.000, 14:01:51.332
155, -25294.46, -84016.78, -184031.61, -94420.83, -93665.97, -16191.80, -110588.27, -114252.30, 0.000, 0.000, 0.000, 14:01:51.332
156, -25301.19, -84042.98, -184121.14, -94430.10, -93679.31, -16192.47, -110582.86, -114257.09, 0.116, -0.568, -0.860, 14:01:51.332
157, -25292.54, -84059.74, -184204.20, -94432.07, -93685.03, -16186.08, -110580.20, -114265.02, 0.000, 0.000, 0.000, 14:01:51.332
158, -25289.70, -84069.52, -184278.25, -94428.30, -93683.29, -16172.31, -110570.66, -114262.23, 0.000, 0.000, 0.000, 14:01:51.333
159, -25303.76, -84089.12, -184362.05, -94432.81, -93689.10, -16166.90, -110563.23, -114260.51, 0.000, 0.000, 0.000, 14:01:51.333
160, -25300.50, -84110.26, -184447.50, -94438.53, -93697.57, -16163.13, -110551.81, -114259.19, 0.000, 0.000, 0.000, 14:01:51.333
161, -25281.30, -84156.04, -184561.75, -94471.41, -93737.83, -16188.72, -110577.23, -114296.83, 0.000, 0.000, 0.000, 14:01:51.333
162, -25279.84, -84197.50, -184672.08, -94500.38, -93773.21, -16209.13, -110601.84, -114330.60, 0.000, 0.000, 0.000, 14:01:51.333
163, -25285.81, -84256.77, -184799.36, -94546.69, -93823.86, -16247.13, -110638.20, -114373.11, 0.000, 0.000, 0.000, 14:01:51.333
164, -25318.20, -84248.02, -184854.98, -94522.71, -93803.80, -16215.39, -110600.43, -114341.59, 0.000, 0.000, 0.000, 14:01:51.334
165, -25312.68, -84262.66, -184933.08, -94521.37, -93808.16, -16208.32, -110592.88, -114343.48, 0.000, 0.000, 0.000, 14:01:51.334
166, -25296.29, -84293.03, -185028.16, -94536.01, -93828.51, -16216.70, -110604.25, -114364.95, 0.114, -0.566, -0.866, 14:01:51.334
167, -25290.57, -84328.66, -185126.02, -94555.92, -93850.70, -16228.39, -110615.13, -114383.84, 0.000, 0.000, 0.000, 14:01:51.334
168, -25299.65, -84326.49, -185184.47, -94539.34, -93834.77, -16201.15, -110580.29, -114358.74, 0.000, 0.000, 0.000, 14:01:51.334
169, -25288.00, -84344.84, -185266.20, -94543.80, -93844.09, -16197.01, -110572.66, -114364.40, 0.000, 0.000, 0.000, 14:01:51.334
170, -25281.70, -84386.04, -185372.42, -94570.30, -93879.54, -16217.15, -110596.41, -114400.05, 0.000, 0.000, 0.000, 14:01:51.334
171, -25296.09, -84358.38, -185409.91, -94529.08, -93843.84, -16167.84, -110544.68, -114357.69, 0.000, 0.000, 0.000, 14:01:51.334
172, -25315.56, -84341.16, -185456.83, -94499.04, -93815.27, -16126.94, -110495.89, -114318.30, 0.000, 0.000, 0.000, 14:01:51.334
173, -25304.12, -84395.80, -185576.53, -94540.08, -93860.38, -16159.68, -110525.84, -114358.49, 0.000, 0.000, 0.000, 14:01:51.335
174, -25288.52, -84445.27, -185694.63, -94575.19, -93904.77, -16191.29, -110562.05, -114404.49, 0.000, 0.000, 0.000, 14:01:51.335
175, -25296.18, -84475.20, -185790.95, -94591.15, -93929.20, -16201.59, -110574.86, -114423.65, 0.000, 0.000, 0.000, 14:01:51.335
176, -25306.38, -84464.45, -185841.31, -94566.12, -93908.17, -16166.70, -110533.28, -114388.55, 0.114, -0.566, -0.856, 14:01:51.335
177, -25292.94, -84468.85, -185906.58, -94555.84, -93901.04, -16147.93, -110508.07, -114371.84, 0.000, 0.000, 0.000, 14:01:51.335
178, -25285.28, -84529.53, -186033.31, -94602.80, -93954.84, -16189.75, -110552.88, -114425.21, 0.000, 0.000, 0.000, 14:01:51.335
179, -25281.54, -84569.32, -186139.89, -94630.16, -93988.68, -16210.24, -110577.74, -114455.61, 0.000, 0.000, 0.000, 14:01:51.335
180, -25301.30, -84579.36, -186211.80, -94626.38, -93988.48, -16198.17, -110562.19, -114447.70, 0.000, 0.000, 0.000, 14:01:51.335
181, -25310.98, -84580.36, -186273.27, -94613.23, -93976.81, -16176.54, -110534.23, -114426.78, 0.000, 0.000, 0.000, 14:01:51.336
182, -25285.12, -84605.64, -186361.22, -94626.91, -93992.97, -16184.09, -110543.03, -114443.07, 0.000, 0.000, 0.000, 14:01:51.336
183, -25284.38, -84615.21, -186433.08, -94624.74, -93994.58, -16174.12, -110537.42, -114443.25, 0.000, 0.000, 0.000, 14:01:51.336
184, -25293.88, -84629.42, -186508.11, -94627.27, -93998.56, -16165.05, -110528.19, -114436.21, 0.000, 0.000, 0.000, 14:01:51.336
185, -25296.70, -84640.27, -186582.50, -94627.42, -93999.16, -16153.20, -110512.50, -114425.98, 0.000, 0.000, 0.000, 14:01:51.336
186, -25289.72, -84656.98, -186664.03, -94634.31, -94007.88, -16148.53, -110510.75, -114432.68, 0.118, -0.566, -0.860, 14:01:51.336
187, -25291.51, -84654.08, -186724.95, -94618.38, -93995.66, -16123.94, -110490.91, -114419.38, 0.000, 0.000, 0.000, 14:01:51.336
188, -25300.32, -84685.77, -186819.50, -94636.73, -94016.38, -16135.05, -110499.33, -114433.69, 0.000, 0.000, 0.000, 14:01:51.337
189, -25297.19, -84707.90, -186902.31, -94646.09, -94027.80, -16133.51, -110490.99, -114432.50, 0.000, 0.000, 0.000, 14:01:51.337
190, -25289.30, -84750.15, -187008.97, -94676.13, -94063.76, -16154.48, -110512.05, -114462.77, 0.000, 0.000, 0.000, 14:01:51.337
191, -25286.39, -84745.48, -187068.09, -94660.08, -94050.30, -16130.45, -110491.09, -114450.52, 0.000, 0.000, 0.000, 14:01:51.337
192, -25294.93, -84772.03, -187158.02, -94675.68, -94066.64, -16135.77, -110496.76, -114461.85, 0.000, 0.000, 0.000, 14:01:51.337
193, -25310.71, -84779.38, -187226.94, -94669.24, -94063.38, -16118.42, -110475.13, -114445.64, 0.000, 0.000, 0.000, 14:01:51.337
194, -25318.42, -84825.98, -187337.70, -94703.16, -94103.68, -16143.21, -110499.65, -114478.27, 0.000, 0.000, 0.000, 14:01:51.337
195, -25316.03, -84846.28, -187425.72, -94712.66, -94118.61, -16146.03, -110507.67, -114492.83, 0.000, 0.000, 0.000, 14:01:51.337
196, -25315.83, -84845.03, -187487.70, -94700.49, -94109.29, -16123.81, -110486.28, -114477.38, 0.118, -0.562, -0.854, 14:01:51.337
197, -25304.16, -84871.47, -187500.02, -94713.70, -94124.51, -16126.47, -110481.77, -114481.81, 0.000, 0.000, 0.000, 14:01:51.338
198, -25293.12, -84906.12, -187500.02, -94734.49, -94148.56, -16138.54, -110489.95, -114498.86, 0.000, 0.000, 0.000, 14:01:51.338
199, -25294.51, -84919.48, -187500.02, -94738.49, -94155.42, -16134.43, -110490.95, -114505.55, 0.000, 0.000, 0.000, 14:01:51.338
200, -25293.43, -84922.79, -187500.02, -94732.03, -94150.77, -16119.18, -110476.35, -114494.15, 0.000, 0.000, 0.000, 14:01:51.338
201, -25293.10, -84924.22, -187500.02, -94722.76, -94142.51, -16099.16, -110451.19, -114473.92, 0.000, 0.000, 0.000, 14:01:51.338
202, -25297.03, -84924.87, -187500.02, -94711.53, -94132.38, -16077.07, -110424.61, -114456.33, 0.000, 0.000, 0.000, 14:01:51.338
203, -25302.33, -84956.72, -187500.02, -94731.30, -94153.73, -16090.60, -110440.23, -114479.26, 0.000, 0.000, 0.000, 14:01:51.338
204, -25286.19, -84999.23, -187500.02, -94761.70, -94188.23, -16115.65, -110467.32, -114510.58, 0.000, 0.000, 0.000, 14:01:51.338
205, -25296.68, -84998.97, -187500.02, -94749.11, -94177.93, -16095.11, -110440.34, -114491.15, 0.000, 0.000, 0.000, 14:01:51.339
206, -25300.41, -84989.02, -187500.02, -94727.02, -94156.99, -16063.01, -110400.67, -114461.27, 0.120, -0.564, -0.860, 14:01:51.339
207, -25289.77, -85015.69, -187500.02, -94744.08, -94175.43, -16069.65, -110409.99, -114480.58, 0.000, 0.000, 0.000, 14:01:51.339
208, -25292.36, -85015.91, -187500.02, -94735.34, -94168.84, -16051.28, -110395.27, -114471.91, 0.000, 0.000, 0.000, 14:01:51.339
209, -25300.65, -85028.29, -187500.02, -94738.07, -94173.02, -16045.85, -110385.61, -114465.72, 0.000, 0.000, 0.000, 14:01:51.339
210, -25295.83, -85059.47, -187500.02, -94758.25, -94193.11, -16056.69, -110389.27, -114475.80, 0.000, 0.000, 0.000, 14:01:51.339
211, -25290.93, -85087.97, -187500.02, -94776.69, -94215.82, -16068.60, -110401.43, -114495.94, 0.000, 0.000, 0.000, 14:01:51.339
212, -25290.95, -85122.59, -187500.02, -94800.59, -94245.44, -16087.02, -110424.21, -114524.05, 0.000, 0.000, 0.000, 14:01:51.339
213, -25298.29, -85180.39, -187500.02, -94844.35, -94294.70, -16124.66, -110460.44, -114564.98, 0.000, 0.000, 0.000, 14:01:51.340
214, -25296.43, -85202.81, -187500.02, -94855.01, -94308.20, -16124.91, -110453.94, -114565.88, 0.000, 0.000, 0.000, 14:01:51.340
215, -25289.34, -85215.24, -187500.02, -94857.96, -94313.95, -16117.91, -110446.60, -114567.26, 0.000, 0.000, 0.000, 14:01:51.340
216, -25288.85, -85222.23, -187500.02, -94854.56, -94313.27, -16108.37, -110440.97, -114567.75, 0.120, -0.566, -0.862, 14:01:51.340
217, -25290.69, -85228.30, -187500.02, -94848.75, -94310.27, -16095.65, -110426.47, -114557.16, 0.000, 0.000, 0.000, 14:01:51.340
218, -25298.35, -85237.88, -187500.02, -94845.69, -94307.57, -16083.06, -110407.33, -114543.08, 0.000, 0.000, 0.000, 14:01:51.340
219, -25292.12, -85253.88, -187500.02, -94852.44, -94316.16, -16080.56, -110403.22, -114546.43, 0.000, 0.000, 0.000, 14:01:51.340
220, -25287.24, -85299.48, -187500.02, -94888.45, -94357.23, -16109.71, -110437.75, -114587.38, 0.000, 0.000, 0.000, 14:01:51.340
221, -25290.60, -85327.06, -187500.02, -94907.52, -94378.36, -16118.20, -110447.61, -114602.35, 0.000, 0.000, 0.000, 14:01:51.340
222, -25302.08, -85305.07, -187500.02, -94874.59, -94345.44, -16075.58, -110397.61, -114558.05, 0.000, 0.000, 0.000, 14:01:51.340
223, -25301.97, -85352.50, -187500.02, -94910.16, -94382.77, -16101.86, -110420.30, -114587.09, 0.000, 0.000, 0.000, 14:01:51.341
224, -25304.50, -85398.52, -187500.02, -94948.44, -94423.00, -16131.23, -110453.35, -114628.05, 0.000, 0.000, 0.000, 14:01:51.809
225, -25312.37, -85444.05, -187500.02, -94984.49, -94460.73, -16157.83, -110482.61, -114663.22, 0.000, 0.000, 0.000, 14:01:51.810
226, -25309.08, -85437.17, -187500.02, -94965.79, -94442.46, -16128.64, -110448.46, -114634.49, 0.120, -0.560, -0.856, 14:01:51.810
227, -25306.87, -85436.39, -187500.02, -94954.55, -94431.96, -16106.42, -110423.00, -114615.00, 0.000, 0.000, 0.000, 14:01:51.810
228, -25300.74, -85450.16, -187500.02, -94957.74, -94439.25, -16103.02, -110422.29, -114622.06, 0.000, 0.000, 0.000, 14:01:51.811
229, -25300.88, -85457.27, -187500.02, -94954.25, -94438.77, -16091.31, -110411.22, -114619.56, 0.000, 0.000, 0.000, 14:01:51.811
230, -25305.28, -85467.63, -187500.02, -94951.57, -94437.88, -16078.01, -110394.30, -114608.23, 0.000, 0.000, 0.000, 14:01:51.811
231, -25309.93, -85476.53, -187500.02, -94945.58, -94434.80, -16062.72, -110373.27, -114592.72, 0.000, 0.000, 0.000, 14:01:51.812
232, -25290.30, -85515.60, -187500.02, -94974.21, -94466.45, -16081.79, -110395.35, -114621.04, 0.000, 0.000, 0.000, 14:01:51.812
233, -25281.37, -85538.02, -187500.02, -94988.18, -94481.91, -16085.72, -110403.22, -114633.42, 0.000, 0.000, 0.000, 14:01:51.813
234, -25299.18, -85558.02, -187500.02, -94999.31, -94493.27, -16086.80, -110401.34, -114635.21, 0.000, 0.000, 0.000, 14:01:51.813
235, -25305.93, -85576.11, -187500.02, -95006.96, -94501.14, -16084.25, -110391.75, -114630.45, 0.116, -0.568, -0.856, 14:01:51.813
236, -25290.80, -85599.94, -187500.02, -95020.34, -94515.69, -16089.95, -110396.78, -114642.74, 0.000, 0.000, 0.000, 14:01:51.814
237, -25290.17, -85635.59, -187500.02, -95046.23, -94542.73, -16109.55, -110419.85, -114673.19, 0.000, 0.000, 0.000, 14:01:51.814
238, -25301.97, -85684.49, -187500.02, -95085.59, -94582.56, -16140.24, -110449.55, -114707.67, 0.000, 0.000, 0.000, 14:01:51.814
239, -25315.61, -85677.99, -187500.02, -95069.72, -94565.98, -16112.59, -110415.85, -114678.93, 0.000, 0.000, 0.000, 14:01:51.815
240, -25306.02, -85713.15, -187500.02, -95097.64, -94594.45, -16130.67, -110433.55, -114704.61, 0.000, 0.000, 0.000, 14:01:51.815
241, -25286.91, -85727.81, -187500.02, -95105.04, -94603.45, -16129.69, -110437.15, -114713.77, 0.000, 0.000, 0.000, 14:01:51.815
242, -25296.79, -85751.21, -187500.02, -95121.58, -94619.20, -16134.47, -110441.87, -114722.36, 0.000, 0.000, 0.000, 14:01:51.816
243, -25309.82, -85750.37, -187500.02, -95111.85, -94607.64, -16111.61, -110412.65, -114696.32, 0.000, 0.000, 0.000, 14:01:51.816
244, -25307.65, -85790.98, -187500.02, -95143.10, -94639.00, -16131.99, -110431.38, -114722.23, 0.000, 0.000, 0.000, 14:01:51.817
245, -25297.95, -85817.87, -187500.02, -95161.56, -94657.78, -16142.14, -110446.83, -114745.45, 0.114, -0.564, -0.858, 14:01:51.817
246, -25292.23, -85834.23, -187500.02, -95168.59, -94664.10, -16139.05, -110446.72, -114750.43, 0.000, 0.000, 0.000, 14:01:51.818
247, -25309.46, -85847.39, -187500.02, -95172.54, -94666.54, -16129.98, -110434.65, -114743.66, 0.000, 0.000, 0.000, 14:01:51.819
248, -25307.92, -85867.53, -187500.02, -95183.05, -94675.77, -16128.42, -110431.83, -114748.42, 0.000, 0.000, 0.000, 14:01:51.819
249, -25285.10, -85933.31, -187500.02, -95239.17, -94734.38, -16176.69, -110488.40, -114809.38, 0.000, 0.000, 0.000, 14:01:51.819
250, -25290.80, -85971.40, -187500.02, -95267.76, -94764.93, -16197.62, -110513.88, -114836.69, 0.000, 0.000, 0.000, 14:01:51.820
251, -25298.53, -85977.03, -187500.02, -95263.40, -94761.80, -16182.75, -110495.69, -114821.33, 0.000, 0.000, 0.000, 14:01:51.820
252, -25304.10, -85983.98, -187500.02, -95259.63, -94759.01, -16168.56, -110477.00, -114808.62, 0.000, 0.000, 0.000, 14:01:51.821
253, -25292.90, -85967.35, -187500.02, -95234.39, -94735.16, -16136.15, -110447.50, -114783.96, 0.000, 0.000, 0.000, 14:01:51.821
254, -25286.55, -86016.98, -187500.02, -95275.27, -94780.22, -16171.29, -110486.62, -114825.58, 0.000, 0.000, 0.000, 14:01:51.821
255, -25298.73, -86068.49, -187500.02, -95315.79, -94824.23, -16204.17, -110516.30, -114858.30, 0.116, -0.562, -0.860, 14:01:51.822
0, -25304.88, -86076.99, -187500.02, -95313.83, -94822.76, -16191.98, -110498.35, -114845.05, 0.000, 0.000, 0.000, 14:01:51.822
1, -25298.64, -86112.93, -187500.02, -95341.07, -94852.69, -16210.18, -110520.74, -114872.92, 0.000, 0.000, 0.000, 14:01:51.822
2, -25291.20, -86136.98, -187500.02, -95356.72, -94872.09, -16218.11, -110534.76, -114888.88, 0.000, 0.000, 0.000, 14:01:51.822
3, -25305.21, -86150.21, -187500.02, -95359.55, -94875.80, -16211.94, -110527.00, -114883.83, 0.000, 0.000, 0.000, 14:01:51.823
4, -25317.17, -86152.20, -187500.02, -95349.25, -94865.25, -16192.65, -110501.63, -114862.91, 0.000, 0.000, 0.000, 14:01:51.823
5, -25310.04, -86206.63, -187500.02, -95391.01, -94912.52, -16227.17, -110539.34, -114906.94, 0.000, 0.000, 0.000, 14:01:51.823
6, -25289.12, -86225.30, -187500.02, -95399.37, -94925.46, -16228.42, -110545.40, -114919.19, 0.000, 0.000, 0.000, 14:01:51.823
7, -25297.61, -86255.06, -187500.02, -95419.66, -94948.89, -16239.82, -110556.44, -114933.76, 0.000, 0.000, 0.000, 14:01:51.823
8, -25309.15, -86268.88, -187500.02, -95422.86, -94954.14, -16233.31, -110544.66, -114926.20, 0.000, 0.000, 0.000, 14:01:51.824
9, -25318.07, -86261.91, -187500.02, -95407.66, -94939.73, -16210.60, -110519.54, -114907.34, 0.114, -0.568, -0.854, 14:01:51.824
10, -25310.27, -86264.92, -187500.02, -95403.10, -94935.81, -16198.33, -110510.98, -114901.30, 0.000, 0.000, 0.000, 14:01:51.824
11, -25297.90, -86281.46, -187500.02, -95409.11, -94943.86, -16195.49, -110508.95, -114900.13, 0.000, 0.000, 0.000, 14:01:51.824
12, -25311.45, -86307.44, -187500.02, -95424.66, -94961.25, -16202.35, -110509.45, -114904.81, 0.000, 0.000, 0.000, 14:01:51.824
13, -25308.90, -86339.58, -187500.02, -95449.63, -94987.84, -16217.62, -110522.35, -114923.79, 0.000, 0.000, 0.000, 14:01:51.824
14, -25297.97, -86360.14, -187500.02, -95462.60, -95003.67, -16223.95, -110532.21, -114938.05, 0.000, 0.000, 0.000, 14:01:51.825
15, -25300.25, -86350.58, -187500.02, -95442.30, -94982.10, -16195.16, -110503.60, -114912.35, 0.000, 0.000, 0.000, 14:01:51.825
16, -25316.08, -86349.73, -187500.02, -95430.99, -94967.71, -16170.57, -110473.36, -114886.53, 0.000, 0.000, 0.000, 14:01:51.825
17, -25320.39, -86361.05, -187500.02, -95433.79, -94968.09, -16161.41, -110458.90, -114879.83, 0.000, 0.000, 0.000, 14:01:51.825
18, -25289.90, -86385.33, -187500.02, -95452.59, -94986.69, -16171.51, -110470.86, -114899.27, 0.000, 0.000, 0.000, 14:01:51.825
19, -25287.29, -86407.41, -187500.02, -95467.45, -95001.08, -16178.15, -110477.78, -114911.32, 0.116, -0.566, -0.860, 14:01:51.825
20, -25304.97, -86442.20, -187500.02, -95493.29, -95026.59, -16193.15, -110489.16, -114925.20, 0.000, 0.000, 0.000, 14:01:51.826
21, -25312.28, -86482.79, -187500.02, -95523.46, -95058.75, -16212.52, -110506.51, -114946.34, 0.000, 0.000, 0.000, 14:01:51.826
22, -25306.55, -86494.54, -187500.02, -95522.55, -95062.93, -16206.69, -110504.59, -114949.01, 0.000, 0.000, 0.000, 14:01:51.826
23, -25302.67, -86528.59, -187500.02, -95546.48, -95089.01, -16223.95, -110525.57, -114972.92, 0.000, 0.000, 0.000, 14:01:51.826
24, -25309.28, -86558.34, -187500.02, -95567.70, -95108.26, -16236.26, -110534.49, -114984.34, 0.000, 0.000, 0.000, 14:01:51.826
25, -25312.88, -86584.73, -187500.02, -95585.91, -95124.15, -16242.92, -110536.97, -114991.95, 0.000, 0.000, 0.000, 14:01:51.826
26, -25299.58, -86555.09, -187500.02, -95546.48, -95085.99, -16196.25, -110493.19, -114953.14, 0.000, 0.000, 0.000, 14:01:51.827
27, -25298.87, -86561.30, -187500.02, -95543.20, -95085.91, -16186.37, -110489.52, -114952.41, 0.000, 0.000, 0.000, 14:01:51.827
28, -25303.25, -86616.05, -187500.02, -95588.51, -95132.64, -16223.59, -110525.55, -114991.77, 0.000, 0.000, 0.000, 14:01:51.827
29, -25319.99, -86636.07, -187500.02, -95597.63, -95142.34, -16223.66, -110519.63, -114989.73, 0.126, -0.560, -0.858, 14:01:51.827
30, -25316.97, -86650.06, -187500.02, -95601.60, -95146.70, -16219.86, -110517.05, -114991.02, 0.000, 0.000, 0.000, 14:01:51.827
31, -25309.01, -86675.26, -187500.02, -95616.02, -95164.83, -16228.37, -110532.30, -115007.52, 0.000, 0.000, 0.000, 14:01:51.828
32, -25321.13, -86688.09, -187500.02, -95616.83, -95167.98, -16222.67, -110524.25, -115003.09, 0.000, 0.000, 0.000, 14:01:51.828
33, -25330.27, -86675.75, -187500.02, -95595.55, -95144.84, -16190.82, -110485.45, -114968.30, 0.000, 0.000, 0.000, 14:01:51.828
34, -25290.13, -86730.22, -187500.02, -95643.18, -95191.72, -16228.66, -110524.05, -115012.10, 0.000, 0.000, 0.000, 14:01:51.828
35, -25292.27, -86759.09, -187500.02, -95663.09, -95216.44, -16242.32, -110544.73, -115035.84, 0.000, 0.000, 0.000, 14:01:51.828
36, -25304.77, -86777.65, -187500.02, -95671.85, -95229.36, -16244.17, -110546.20, -115041.12, 0.000, 0.000, 0.000, 14:01:51.828
37, -25313.51, -86761.47, -187500.02, -95647.60, -95205.91, -16210.83, -110506.40, -115004.48, 0.000, 0.000, 0.000, 14:01:51.829
38, -25300.27, -86821.75, -187500.02, -95697.11, -95260.34, -16253.09, -110546.54, -115051.94, 0.000, 0.000, 0.000, 14:01:51.829
39, -25293.63, -86849.40, -187500.02, -95713.72, -95280.48, -16263.75, -110562.38, -115073.37, 0.122, -0.560, -0.850, 14:01:51.829
40, -25304.65, -86860.69, -187500.02, -95715.64, -95282.00, -16256.85, -110557.40, -115071.34, 0.000, 0.000, 0.000, 14:01:51.829
41, -25317.28, -86874.05, -187500.02, -95722.59, -95282.40, -16250.39, -110546.54, -115062.87, 0.000, 0.000, 0.000, 14:01:51.829
42, -25320.30, -86882.62, -187500.02, -95726.39, -95280.72, -16239.61, -110531.74, -115053.99, 0.000, 0.000, 0.000, 14:01:51.829
43, -25314.62, -86897.45, -187500.02, -95738.87, -95288.86, -16239.21, -110536.19, -115063.22, 0.000, 0.000, 0.000, 14:01:51.830
44, -25316.81, -86907.31, -187500.02, -95748.81, -95291.88, -16233.54, -110535.70, -115063.24, 0.000, 0.000, 0.000, 14:01:51.830
45, -25316.12, -86921.15, -187500.02, -95760.13, -95297.46, -16228.35, -110527.74, -115057.86, 0.000, 0.000, 0.000, 14:01:51.830
46, -25314.06, -86937.80, -187500.02, -95773.40, -95304.93, -16225.02, -110519.59, -115057.34, 0.000, 0.000, 0.000, 14:01:51.830
47, -25297.23, -86946.20, -187500.02, -95781.85, -95307.57, -16217.04, -110514.98, -115061.48, 0.000, 0.000, 0.000, 14:01:51.830
48, -25294.28, -86945.58, -187500.02, -95779.44, -95298.91, -16198.00, -110502.13, -115049.81, 0.000, 0.000, 0.000, 14:01:51.830
49, -25301.82, -86995.16, -187500.02, -95826.04, -95338.01, -16225.80, -110531.32, -115078.45, 0.116, -0.562, -0.858, 14:01:51.831
50, -25311.92, -87011.41, -187500.02, -95841.04, -95346.52, -16222.20, -110524.03, -115074.51, 0.000, 0.000, 0.000, 14:01:51.831
51, -25307.98, -87031.79, -187500.02, -95860.02, -95359.63, -16226.07, -110530.67, -115087.23, 0.000, 0.000, 0.000, 14:01:51.831
52, -25314.38, -87048.06, -187500.02, -95874.07, -95370.84, -16228.60, -110537.20, -115096.82, 0.000, 0.000, 0.000, 14:01:51.831
53, -25316.28, -87057.67, -187500.02, -95881.52, -95372.30, -16220.21, -110527.90, -115087.88, 0.000, 0.000, 0.000, 14:01:51.831
54, -25314.82, -87081.34, -187500.02, -95905.34, -95385.59, -16224.62, -110527.25, -115088.21, 0.000, 0.000, 0.000, 14:01:51.831
55, -25312.54, -87097.64, -187500.02, -95919.65, -95392.23, -16223.88, -110526.55, -115092.05, 0.000, 0.000, 0.000, 14:01:51.831
56, -25296.88, -87115.83, -187500.02, -95934.60, -95402.92, -16227.05, -110534.23, -115102.59, 0.000, 0.000, 0.000, 14:01:51.832
57, -25306.78, -87119.97, -187500.02, -95935.47, -95398.18, -16214.71, -110520.50, -115091.85, 0.000, 0.000, 0.000, 14:01:51.832
58, -25325.46, -87120.30, -187500.02, -95931.63, -95386.47, -16194.84, -110493.68, -115071.63, 0.000, 0.000, 0.000, 14:01:51.832
59, -25292.52, -87144.42, -187500.02, -95953.04, -95401.53, -16201.37, -110498.21, -115083.32, 0.120, -0.570, -0.858, 14:01:51.832
60, -25281.10, -87174.23, -187500.02, -95980.78, -95425.74, -16215.68, -110517.19, -115107.45, 0.000, 0.000, 0.000, 14:01:51.832
61, -25298.75, -87162.39, -187500.02, -95963.99, -95402.47, -16186.71, -110487.22, -115080.34, 0.000, 0.000, 0.000, 14:01:51.832
62, -25308.05, -87136.28, -187500.02, -95930.02, -95363.31, -16141.07, -110435.43, -115031.51, 0.000, 0.000, 0.000, 14:01:51.833
63, -25299.58, -87178.59, -187500.02, -95969.16, -95397.16, -16166.28, -110459.19, -115060.20, 0.000, 0.000, 0.000, 14:01:51.833
64, -25295.18, -87219.07, -187500.02, -96008.56, -95428.09, -16189.99, -110487.75, -115094.58, 0.000, 0.000, 0.000, 14:01:51.833
65, -25308.05, -87243.33, -187500.02, -96027.90, -95441.86, -16195.47, -110495.64, -115105.20, 0.000, 0.000, 0.000, 14:01:51.833
66, -25317.73, -87242.03, -187500.02, -96021.33, -95429.97, -16173.65, -110471.21, -115081.57, 0.000, 0.000, 0.000, 14:01:51.833
67, -25317.19, -87265.09, -187500.02, -96041.27, -95444.83, -16177.83, -110475.66, -115089.93, 0.000, 0.000, 0.000, 14:01:51.833
68, -25311.70, -87267.89, -187500.02, -96039.36, -95439.30, -16166.03, -110468.58, -115086.49, 0.114, -0.566, -0.856, 14:01:51.834
69, -25313.53, -87260.00, -187500.02, -96027.16, -95422.25, -16143.97, -110447.88, -115068.72, 0.000, 0.000, 0.000, 14:01:51.834
70, -25308.46, -87272.18, -187500.02, -96037.38, -95422.81, -16139.41, -110439.88, -115063.24, 0.000, 0.000, 0.000, 14:01:51.834
71, -25304.45, -87297.20, -187500.02, -96062.41, -95437.27, -16146.63, -110442.73, -115069.70, 0.000, 0.000, 0.000, 14:01:51.834
72, -25299.47, -87317.89, -187500.02, -96082.63, -95450.87, -16151.95, -110452.08, -115082.65, 0.000, 0.000, 0.000, 14:01:51.834
73, -25305.95, -87358.30, -187500.02, -96122.53, -95484.62, -16177.77, -110484.13, -115115.70, 0.000, 0.000, 0.000, 14:01:51.835
74, -25320.73, -87357.68, -187500.02, -96118.40, -95474.65, -16160.51, -110465.58, -115098.34, 0.000, 0.000, 0.000, 14:01:51.835
75, -25321.96, -87363.45, -187500.02, -96120.48, -95473.33, -16150.05, -110449.69, -115085.17, 0.000, 0.000, 0.000, 14:01:51.835
76, -25313.04, -87378.87, -187500.02, -96131.43, -95480.30, -16148.15, -110450.38, -115090.40, 0.000, 0.000, 0.000, 14:01:51.835
77, -25314.91, -87362.33, -187500.02, -96111.85, -95456.09, -16114.91, -110422.46, -115063.11, 0.000, 0.000, 0.000, 14:01:51.835
78, -25304.65, -87395.63, -187500.02, -96142.98, -95482.23, -16131.57, -110438.42, -115079.54, 0.112, -0.568, -0.858, 14:01:51.836
79, -25313.46, -87405.66, -187500.02, -96151.91, -95485.02, -16123.97, -110426.58, -115068.70, 0.000, 0.000, 0.000, 14:01:51.836
80, -25309.46, -87428.58, -187500.02, -96173.05, -95502.90, -16132.86, -110435.31, -115082.58, 0.000, 0.000, 0.000, 14:01:51.836
81, -25310.33, -87420.82, -187500.02, -96161.31, -95488.03, -16110.56, -110418.44, -115067.83, 0.000, 0.000, 0.000, 14:01:51.836
82, -25300.30, -87416.20, -187500.02, -96152.38, -95474.73, -16090.64, -110398.70, -115047.80, 0.000, 0.000, 0.000, 14:01:51.836
83, -25310.98, -87439.20, -187500.02, -96173.14, -95490.20, -16096.97, -110399.51, -115050.44, 0.000, 0.000, 0.000, 14:01:51.836
84, -25305.88, -87485.73, -187500.02, -96219.98, -95531.48, -16129.00, -110429.62, -115085.59, 0.000, 0.000, 0.000, 14:01:51.836
85, -25304.77, -87481.75, -187500.02, -96212.97, -95521.38, -16110.38, -110414.17, -115074.78, 0.000, 0.000, 0.000, 14:01:51.837
86, -25301.35, -87456.77, -187500.02, -96181.19, -95489.04, -16071.46, -110373.73, -115036.52, 0.000, 0.000, 0.000, 14:01:51.837
87, -25310.87, -87483.74, -187500.02, -96203.38, -95507.68, -16083.82, -110378.81, -115042.77, 0.000, 0.000, 0.000, 14:01:51.837
88, -25295.18, -87530.59, -187500.02, -96249.31, -95545.88, -16114.56, -110406.46, -115075.23, 0.116, -0.568, -0.858, 14:01:51.837
89, -25289.03, -87564.25, -187500.02, -96282.51, -95571.88, -16132.93, -110429.88, -115102.92, 0.000, 0.000, 0.000, 14:01:52.289
90, -25293.81, -87564.86, -187500.02, -96281.23, -95562.11, -16117.15, -110416.18, -115090.13, 0.000, 0.000, 0.000, 14:01:52.289
91, -25309.30, -87594.02, -187500.02, -96309.80, -95582.78, -16127.39, -110423.63, -115100.28, 0.000, 0.000, 0.000, 14:01:52.289
92, -25313.24, -87607.59, -187500.02, -96321.71, -95587.61, -16121.31, -110415.63, -115096.33, 0.000, 0.000, 0.000, 14:01:52.289
93, -25296.00, -87596.38, -187500.02, -96307.54, -95567.41, -16096.25, -110394.19, -115078.89, 0.000, 0.000, 0.000, 14:01:52.290
94, -25293.59, -87623.26, -187500.02, -96329.80, -95584.44, -16108.48, -110408.56, -115094.98, 0.000, 0.000, 0.000, 14:01:52.290
95, -25292.47, -87648.12, -187500.02, -96351.55, -95598.14, -16116.01, -110412.56, -115100.33, 0.000, 0.000, 0.000, 14:01:52.290
96, -25307.11, -87656.01, -187500.02, -96357.34, -95593.24, -16104.52, -110396.88, -115088.48, 0.000, 0.000, 0.000, 14:01:52.290
97, -25294.24, -87683.81, -187500.02, -96379.84, -95613.63, -16118.11, -110412.16, -115109.34, 0.000, 0.000, 0.000, 14:01:52.291
98, -25287.36, -87727.06, -187500.02, -96418.27, -95650.35, -16146.94, -110443.56, -115144.27, 0.118, -0.568, -0.860, 14:01:52.291
99, -25299.92, -87726.99, -187500.02, -96416.26, -95641.19, -16129.60, -110422.33, -115126.66, 0.000, 0.000, 0.000, 14:01:52.291
100, -25306.85, -87726.44, -187500.02, -96413.64, -95631.09, -16111.47, -110398.08, -115109.22, 0.000, 0.000, 0.000, 14:01:52.291
101, -25303.43, -87749.55, -187500.02, -96433.63, -95646.06, -16118.92, -110407.20, -115124.06, 0.000, 0.000, 0.000, 14:01:52.292
102, -25305.71, -87793.24, -187500.02, -96473.91, -95683.86, -16147.91, -110441.51, -115161.08, 0.000, 0.000, 0.000, 14:01:52.292
103, -25307.22, -87805.30, -187500.02, -96482.24, -95685.11, -16142.59, -110435.72, -115155.98, 0.000, 0.000, 0.000, 14:01:52.292
104, -25302.84, -87798.90, -187500.02, -96469.03, -95665.30, -16115.36, -110405.21, -115128.11, 0.000, 0.000, 0.000, 14:01:52.292
105, -25295.63, -87812.89, -187500.02, -96478.82, -95670.76, -16115.72, -110404.91, -115134.57, 0.000, 0.000, 0.000, 14:01:52.293
106, -25300.30, -87817.07, -187500.02, -96479.87, -95668.73, -16109.15, -110399.76, -115135.53, 0.000, 0.000, 0.000, 14:01:52.293
107, -25299.80, -87823.04, -187500.02, -96482.06, -95666.67, -16099.74, -110390.26, -115128.98, 0.000, 0.000, 0.000, 14:01:52.293
108, -25302.13, -87801.52, -187500.02, -96455.24, -95634.77, -16060.11, -110345.28, -115085.59, 0.116, -0.564, -0.864, 14:01:52.293
109, -25301.68, -87803.53, -187500.02, -96452.34, -95629.09, -16047.41, -110329.03, -115075.09, 0.000, 0.000, 0.000, 14:01:52.294
110, -25307.09, -87834.02, -187500.02, -96478.75, -95652.23, -16065.07, -110348.88, -115099.90, 0.000, 0.000, 0.000, 14:01:52.294
111, -25300.32, -87871.48, -187500.02, -96515.34, -95681.89, -16088.25, -110372.40, -115126.19, 0.000, 0.000, 0.000, 14:01:52.294
112, -25300.36, -87868.03, -187500.02, -96508.21, -95667.45, -16065.43, -110344.52, -115102.54, 0.000, 0.000, 0.000, 14:01:52.294
113, -25296.56, -87907.11, -187500.02, -96543.57, -95699.64, -16088.45, -110364.84, -115128.63, 0.000, 0.000, 0.000, 14:01:52.294
114, -25295.45, -87907.71, -187500.02, -96541.98, -95694.21, -16076.98, -110356.88, -115125.25, 0.000, 0.000, 0.000, 14:01:52.295
115, -25312.41, -87875.10, -187500.02, -96503.74, -95653.68, -16031.68, -110312.80, -115083.70, 0.000, 0.000, 0.000, 14:01:52.295
116, -25300.38, -87900.83, -187500.02, -96525.05, -95672.52, -16040.71, -110317.43, -115091.92, 0.000, 0.000, 0.000, 14:01:52.295
117, -25290.46, -87920.25, -187500.02, -96544.42, -95685.20, -16042.56, -110315.84, -115095.95, 0.000, 0.000, 0.000, 14:01:52.295
118, -25275.93, -87898.99, -187500.02, -96520.15, -95657.70, -16006.35, -110283.15, -115067.54, 0.114, -0.568, -0.862, 14:01:52.296
119, -25289.54, -87941.73, -187500.02, -96557.79, -95694.07, -16035.12, -110314.93, -115103.63, 0.000, 0.000, 0.000, 14:01:52.296
120, -25308.39, -87959.92, -187500.02, -96572.59, -95702.21, -16035.45, -110312.38, -115103.70, 0.000, 0.000, 0.000, 14:01:52.296
121, -25316.75, -87968.17, -187500.02, -96578.35, -95703.59, -16026.96, -110297.67, -115092.57, 0.000, 0.000, 0.000, 14:01:52.296
122, -25289.97, -87980.51, -187500.02, -96588.45, -95712.87, -16027.90, -110300.49, -115100.88, 0.000, 0.000, 0.000, 14:01:52.297
123, -25284.49, -88011.20, -187500.02, -96617.22, -95738.76, -16045.85, -110323.78, -115125.54, 0.000, 0.000, 0.000, 14:01:52.297
124, -25303.67, -88013.95, -187500.02, -96617.45, -95734.82, -16034.27, -110308.96, -115112.98, 0.000, 0.000, 0.000, 14:01:52.297
125, -25310.69, -88017.27, -187500.02, -96615.93, -95730.06, -16022.33, -110291.35, -115100.28, 0.000, 0.000, 0.000, 14:01:52.297
126, -25304.68, -88015.65, -187500.02, -96608.98, -95720.20, -16007.47, -110276.95, -115091.32, 0.000, 0.000, 0.000, 14:01:52.298
127, -25281.74, -88012.54, -187500.02, -96600.41, -95709.41, -15993.28, -110265.20, -115081.93, 0.000, 0.000, 0.000, 14:01:52.298
128, -25290.28, -88026.22, -187500.02, -96609.18, -95714.32, -15992.14, -110262.91, -115080.45, 0.114, -0.568, -0.862, 14:01:52.298
129, -25298.78, -88040.41, -187500.02, -96620.91, -95721.27, -15990.35, -110256.77, -115077.44, 0.000, 0.000, 0.000, 14:01:52.298
130, -25290.80, -88018.80, -187500.02, -96596.66, -95694.05, -15955.46, -110221.95, -115047.64, 0.000, 0.000, 0.000, 14:01:52.299
131, -25284.56, -88045.04, -187500.02, -96617.91, -95714.86, -15968.11, -110241.80, -115069.50, 0.000, 0.000, 0.000, 14:01:52.299
132, -25297.12, -88033.82, -187500.02, -96601.51, -95695.93, -15941.13, -110215.73, -115045.50, 0.000, 0.000, 0.000, 14:01:52.299
133, -25304.21, -88067.77, -187500.02, -96630.16, -95721.61, -15957.89, -110227.22, -115061.52, 0.000, 0.000, 0.000, 14:01:52.299
134, -25312.25, -88120.54, -187500.02, -96681.55, -95767.05, -15997.08, -110263.09, -115104.51, 0.000, 0.000, 0.000, 14:01:52.300
135, -25312.39, -88140.34, -187500.02, -96698.16, -95781.27, -16006.53, -110274.38, -115122.01, 0.000, 0.000, 0.000, 14:01:52.300
136, -25292.16, -88133.82, -187500.02, -96685.69, -95768.41, -15986.10, -110253.69, -115104.82, 0.000, 0.000, 0.000, 14:01:52.300
137, -25302.42, -88120.66, -187500.02, -96665.52, -95746.84, -15957.49, -110218.57, -115073.57, 0.000, 0.000, 0.000, 14:01:52.300
138, -25313.10, -88132.86, -187500.02, -96673.57, -95753.20, -15956.64, -110212.73, -115074.31, 0.114, -0.562, -0.858, 14:01:52.300
139, -25309.93, -88137.59, -187500.02, -96674.94, -95752.88, -15950.52, -110209.45, -115077.57, 0.000, 0.000, 0.000, 14:01:52.301
140, -25288.07, -88185.98, -187500.02, -96721.20, -95793.92, -15984.65, -110246.31, -115118.23, 0.000, 0.000, 0.000, 14:01:52.301
141, -25297.61, -88177.05, -187500.02, -96710.61, -95775.95, -15958.27, -110215.69, -115093.02, 0.000, 0.000, 0.000, 14:01:52.301
142, -25298.29, -88191.13, -187500.02, -96721.94, -95780.51, -15957.98, -110210.50, -115093.98, 0.000, 0.000, 0.000, 14:01:52.301
143, -25292.83, -88183.38, -187500.02, -96711.99, -95766.54, -15939.12, -110194.81, -115083.12, 0.000, 0.000, 0.000, 14:01:52.302
144, -25291.20, -88209.05, -187500.02, -96734.21, -95785.73, -15952.39, -110211.71, -115103.19, 0.000, 0.000, 0.000, 14:01:52.302
145, -25314.18, -88228.13, -187500.02, -96750.39, -95794.61, -15955.88, -110212.67, -115106.67, 0.000, 0.000, 0.000, 14:01:52.302
146, -25323.56, -88237.13, -187500.02, -96754.93, -95794.03, -15949.18, -110200.35, -115098.92, 0.000, 0.000, 0.000, 14:01:52.302
147, -25292.65, -88260.48, -187500.02, -96774.87, -95811.58, -15961.94, -110213.07, -115117.31, 0.000, 0.000, 0.000, 14:01:52.303
148, -25292.70, -88270.63, -187500.02, -96780.14, -95817.25, -15962.12, -110214.99, -115123.17, 0.122, -0.560, -0.852, 14:01:52.303
149, -25304.12, -88271.88, -187500.02, -96778.58, -95813.30, -15950.12, -110202.63, -115112.15, 0.000, 0.000, 0.000, 14:01:52.303
150, -25305.57, -88267.30, -187500.02, -96768.50, -95802.63, -15930.78, -110177.58, -115090.88, 0.000, 0.000, 0.000, 14:01:52.303
151, -25297.79, -88284.60, -187500.02, -96782.02, -95814.17, -15937.40, -110182.12, -115101.49, 0.000, 0.000, 0.000, 14:01:52.303
152, -25294.62, -88282.03, -187500.02, -96775.34, -95806.44, -15923.94, -110171.09, -115094.34, 0.000, 0.000, 0.000, 14:01:52.303
153, -25308.07, -88282.33, -187500.02, -96769.17, -95799.39, -15910.11, -110154.91, -115080.99, 0.000, 0.000, 0.000, 14:01:52.303
154, -25309.88, -88282.21, -187500.02, -96761.08, -95789.27, -15893.59, -110131.94, -115062.10, 0.000, 0.000, 0.000, 14:01:52.303
155, -25302.55, -88311.54, -187500.02, -96783.43, -95810.15, -15908.12, -110145.46, -115081.35, 0.000, 0.000, 0.000, 14:01:52.303
156, -25295.83, -88317.15, -187500.02, -96785.84, -95809.77, -15901.50, -110142.35, -115083.38, 0.000, 0.000, 0.000, 14:01:52.304
157, -25293.86, -88316.63, -187500.02, -96780.81, -95801.97, -15886.75, -110128.70, -115072.72, 0.000, 0.000, 0.000, 14:01:52.304
158, -25307.49, -88349.31, -187500.02, -96807.62, -95825.84, -15902.73, -110141.32, -115089.30, 0.124, -0.566, -0.854, 14:01:52.304
159, -25309.88, -88407.72, -187500.02, -96864.88, -95876.64, -15947.03, -110183.63, -115139.73, 0.000, 0.000, 0.000, 14:01:52.304
160, -25289.41, -88384.59, -187500.02, -96838.28, -95844.16, -15912.43, -110150.89, -115112.66, 0.000, 0.000, 0.000, 14:01:52.304
161, -25287.80, -88371.40, -187500.02, -96816.87, -95822.06, -15886.41, -110126.30, -115088.08, 0.000, 0.000, 0.000, 14:01:52.304
162, -25290.86, -88409.57, -187500.02, -96847.80, -95852.75, -15910.11, -110144.41, -115108.33, 0.000, 0.000, 0.000, 14:01:52.304
163, -25303.22, -88423.43, -187500.02, -96856.77, -95859.55, -15911.13, -110140.14, -115111.23, 0.000, 0.000, 0.000, 14:01:52.304
164, -25295.56, -88446.52, -187500.02, -96876.62, -95875.88, -15923.20, -110155.61, -115130.57, 0.000, 0.000, 0.000, 14:01:52.304
165, -25294.15, -88470.13, -187500.02, -96894.25, -95891.84, -15933.95, -110168.28, -115143.64, 0.000, 0.000, 0.000, 14:01:52.304
166, -25292.41, -88484.95, -187500.02, -96904.89, -95899.98, -15935.72, -110165.02, -115140.00, 0.000, 0.000, 0.000, 14:01:52.304
167, -25305.95, -88492.48, -187500.02, -96909.61, -95900.52, -15929.86, -110154.49, -115132.54, 0.116, -0.570, -0.854, 14:01:52.304
168, -25294.73, -88493.66, -187500.02, -96908.13, -95896.38, -15920.45, -110148.05, -115132.06, 0.000, 0.000, 0.000, 14:01:52.305
169, -25278.50, -88493.03, -187500.02, -96904.11, -95890.57, -15908.72, -110138.73, -115126.55, 0.000, 0.000, 0.000, 14:01:52.305
170, -25292.92, -88490.02, -187500.02, -96899.55, -95880.58, -15891.62, -110117.03, -115109.09, 0.000, 0.000, 0.000, 14:01:52.305
171, -25306.35, -88502.27, -187500.02, -96909.47, -95884.63, -15889.34, -110107.48, -115105.24, 0.000, 0.000, 0.000, 14:01:52.305
172, -25301.53, -88525.27, -187500.02, -96929.32, -95901.68, -15899.71, -110120.31, -115124.60, 0.000, 0.000, 0.000, 14:01:52.305
173, -25296.23, -88567.76, -187500.02, -96969.80, -95937.98, -15928.84, -110156.12, -115162.71, 0.000, 0.000, 0.000, 14:01:52.305
174, -25307.56, -88569.86, -187500.02, -96969.95, -95931.76, -15916.72, -110141.86, -115150.22, 0.000, 0.000, 0.000, 14:01:52.305
175, -25316.95, -88588.14, -187500.02, -96986.98, -95941.80, -15921.66, -110138.17, -115152.14, 0.000, 0.000, 0.000, 14:01:52.305
176, -25310.24, -88589.15, -187500.02, -96982.45, -95935.56, -15910.57, -110125.81, -115146.84, 0.000, 0.000, 0.000, 14:01:52.306
177, -25307.18, -88603.74, -187500.02, -96989.52, -95944.26, -15912.07, -110133.88, -115158.09, 0.118, -0.568, -0.842, 14:01:52.306
178, -25311.81, -88589.28, -187500.02, -96968.80, -95921.79, -15883.44, -110102.72, -115131.33, 0.000, 0.000, 0.000, 14:01:52.306
179, -25312.50, -88602.29, -187500.02, -96976.91, -95927.52, -15883.46, -110093.55, -115128.83, 0.000, 0.000, 0.000, 14:01:52.306
180, -25302.13, -88638.32, -187500.02, -97009.25, -95958.12, -15908.34, -110116.58, -115159.55, 0.000, 0.000, 0.000, 14:01:52.306
181, -25304.10, -88632.20, -187500.02, -97000.53, -95946.88, -15890.82, -110104.71, -115152.56, 0.000, 0.000, 0.000, 14:01:52.306
182, -25305.88, -88630.97, -187500.02, -96995.30, -95939.98, -15877.16, -110090.07, -115142.66, 0.000, 0.000, 0.000, 14:01:52.306
183, -25304.43, -88627.32, -187500.02, -96986.16, -95926.82, -15859.81, -110064.55, -115122.23, 0.000, 0.000, 0.000, 14:01:52.307
184, -25318.42, -88634.86, -187500.02, -96990.19, -95926.11, -15855.01, -110056.66, -115118.38, 0.000, 0.000, 0.000, 14:01:52.307
185, -25304.41, -88645.90, -187500.02, -96999.13, -95932.68, -15856.33, -110063.05, -115129.27, 0.000, 0.000, 0.000, 14:01:52.307
186, -25300.23, -88639.13, -187500.02, -96985.53, -95916.32, -15836.95, -110046.87, -115114.07, 0.000, 0.000, 0.000, 14:01:52.307
187, -25308.39, -88630.36, -187500.02, -96969.28, -95897.41, -15816.07, -110019.95, -115088.95, 0.118, -0.564, -0.846, 14:01:52.307
188, -25313.60, -88633.91, -187500.02, -96967.48, -95892.96, -15808.02, -110005.16, -115081.57, 0.000, 0.000, 0.000, 14:01:52.307
189, -25301.48, -88636.16, -187500.02, -96965.48, -95889.02, -15800.47, -110000.40, -115082.91, 0.000, 0.000, 0.000, 14:01:52.307
190, -25291.15, -88674.93, -187500.02, -97003.46, -95923.07, -15828.32, -110031.42, -115114.59, 0.000, 0.000, 0.000, 14:01:52.307
191, -25310.76, -88688.84, -187500.02, -97017.52, -95930.58, -15828.54, -110028.38, -115113.42, 0.000, 0.000, 0.000, 14:01:52.307
192, -25315.12, -88707.50, -187500.02, -97033.48, -95941.98, -15834.29, -110030.39, -115119.95, 0.000, 0.000, 0.000, 14:01:52.307
193, -25308.81, -88763.91, -187500.02, -97087.70, -95993.27, -15880.53, -110080.30, -115174.11, 0.000, 0.000, 0.000, 14:01:52.307
194, -25310.27, -88762.75, -187500.02, -97082.48, -95983.77, -15867.77, -110069.84, -115166.66, 0.000, 0.000, 0.000, 14:01:52.307
195, -25315.85, -88738.77, -187500.02, -97052.50, -95948.23, -15829.66, -110027.95, -115127.17, 0.000, 0.000, 0.000, 14:01:52.308
196, -25318.76, -88768.45, -187500.02, -97078.43, -95969.71, -15847.41, -110039.49, -115143.51, 0.000, 0.000, 0.000, 14:01:52.308
197, -25307.20, -88752.76, -187500.02, -97060.46, -95945.80, -15820.39, -110012.09, -115124.78, 0.120, -0.566, -0.850, 14:01:52.308
198, -25308.32, -88760.54, -187500.02, -97065.20, -95947.70, -15816.63, -110012.13, -115129.09, 0.000, 0.000, 0.000, 14:01:52.308
199, -25313.55, -88750.48, -187500.02, -97048.77, -95930.02, -15792.56, -109984.33, -115103.34, 0.000, 0.000, 0.000, 14:01:52.308
200, -25311.14, -88771.94, -187500.02, -97062.63, -95941.04, -15798.84, -109983.01, -115105.20, 0.000, 0.000, 0.000, 14:01:52.308
201, -25317.24, -88798.94, -187500.02, -97085.29, -95960.93, -15813.14, -109996.15, -115125.14, 0.000, 0.000, 0.000, 14:01:52.308
202, -25309.68, -88805.80, -187500.02, -97085.45, -95961.20, -15809.19, -109994.54, -115128.49, 0.000, 0.000, 0.000, 14:01:52.308
203, -25308.14, -88826.70, -187500.02, -97100.91, -95974.45, -15818.91, -110001.00, -115138.13, 0.000, 0.000, 0.000, 14:01:52.308
204, -25321.15, -88852.36, -187500.02, -97123.22, -95991.04, -15833.13, -110005.72, -115146.17, 0.000, 0.000, 0.000, 14:01:52.308
205, -25329.29, -88852.59, -187500.02, -97119.63, -95984.02, -15822.20, -109992.30, -115137.01, 0.000, 0.000, 0.000, 14:01:52.308
206, -25302.62, -88838.55, -187500.02, -97099.30, -95964.35, -15798.19, -109972.73, -115120.69, 0.000, 0.000, 0.000, 14:01:52.308
207, -25308.46, -88824.76, -187500.02, -97079.48, -95942.65, -15774.70, -109947.96, -115097.47, 0.114, -0.566, -0.864, 14:01:52.309
208, -25323.16, -88837.63, -187500.02, -97087.19, -95944.77, -15773.11, -109938.98, -115092.84, 0.000, 0.000, 0.000, 14:01:52.309
209, -25318.24, -88866.78, -187500.02, -97110.88, -95965.40, -15789.05, -109952.63, -115112.09, 0.000, 0.000, 0.000, 14:01:52.771
210, -25312.14, -88908.69, -187500.02, -97148.23, -96000.49, -15820.27, -109988.20, -115152.80, 0.000, 0.000, 0.000, 14:01:52.771
211, -25311.96, -88932.27, -187500.02, -97168.87, -96017.50, -15833.98, -110002.32, -115169.23, 0.000, 0.000, 0.000, 14:01:52.771
212, -25304.72, -88948.07, -187500.02, -97178.16, -96025.51, -15835.81, -109999.10, -115169.28, 0.000, 0.000, 0.000, 14:01:52.772
213, -25305.10, -88957.84, -187500.02, -97182.50, -96026.16, -15831.40, -109991.74, -115167.27, 0.000, 0.000, 0.000, 14:01:52.772
214, -25296.92, -88962.84, -187500.02, -97185.20, -96024.30, -15825.26, -109991.61, -115170.13, 0.000, 0.000, 0.000, 14:01:52.772
215, -25297.97, -88951.31, -187500.02, -97169.98, -96004.16, -15803.17, -109972.19, -115152.32, 0.000, 0.000, 0.000, 14:01:52.773
216, -25309.86, -88937.39, -187500.02, -97152.59, -95981.43, -15776.71, -109941.03, -115125.18, 0.000, 0.000, 0.000, 14:01:52.773
217, -25304.32, -88958.30, -187500.02, -97169.96, -95997.19, -15787.64, -109944.85, -115135.64, 0.114, -0.564, -0.868, 14:01:52.773
218, -25300.32, -88988.08, -187500.02, -97199.77, -96026.00, -15812.99, -109971.30, -115168.09, 0.000, 0.000, 0.000, 14:01:52.773
219, -25303.27, -89001.96, -187500.02, -97212.77, -96035.45, -15818.84, -109979.88, -115179.97, 0.000, 0.000, 0.000, 14:01:52.774
220, -25311.70, -88986.34, -187500.02, -97192.91, -96012.41, -15791.17, -109948.16, -115152.16, 0.000, 0.000, 0.000, 14:01:52.774
221, -25314.47, -89000.76, -187500.02, -97202.21, -96017.97, -15791.53, -109941.27, -115152.79, 0.000, 0.000, 0.000, 14:01:52.775
222, -25298.84, -89013.38, -187500.02, -97210.05, -96024.14, -15793.43, -109942.55, -115163.47, 0.000, 0.000, 0.000, 14:01:52.775
223, -25292.09, -89028.98, -187500.02, -97224.67, -96036.26, -15801.27, -109953.41, -115179.45, 0.000, 0.000, 0.000, 14:01:52.775
224, -25305.13, -89027.94, -187500.02, -97221.50, -96028.30, -15789.36, -109936.56, -115167.70, 0.000, 0.000, 0.000, 14:01:52.776
225, -25306.02, -89031.48, -187500.02, -97220.41, -96023.80, -15780.15, -109919.02, -115156.63, 0.000, 0.000, 0.000, 14:01:52.776
226, -25299.69, -89062.60, -187500.02, -97250.31, -96049.96, -15801.50, -109942.39, -115185.46, 0.000, 0.000, 0.000, 14:01:52.776
227, -25303.09, -89080.82, -187500.02, -97270.12, -96066.16, -15813.66, -109958.76, -115206.45, 0.116, -0.568, -0.864, 14:01:52.776
228, -25303.72, -89059.80, -187500.02, -97245.44, -96039.70, -15784.11, -109924.16, -115177.13, 0.000, 0.000, 0.000, 14:01:52.777
229, -25318.74, -89058.58, -187500.02, -97236.84, -96028.34, -15770.88, -109903.57, -115161.34, 0.000, 0.000, 0.000, 14:01:52.777
230, -25305.06, -89067.12, -187500.02, -97242.71, -96031.61, -15770.23, -109901.76, -115164.90, 0.000, 0.000, 0.000, 14:01:52.777
231, -25290.69, -89105.13, -187500.02, -97281.02, -96068.13, -15801.99, -109938.46, -115205.52, 0.000, 0.000, 0.000, 14:01:52.778
232, -25289.86, -89108.87, -187500.02, -97284.60, -96066.66, -15795.89, -109933.19, -115201.76, 0.000, 0.000, 0.000, 14:01:52.778
233, -25302.58, -89083.66, -187500.02, -97253.94, -96034.87, -15757.49, -109889.51, -115159.88, 0.000, 0.000, 0.000, 14:01:52.779
234, -25308.37, -89110.57, -187500.02, -97276.48, -96056.38, -15774.09, -109902.88, -115177.22, 0.000, 0.000, 0.000, 14:01:52.779
235, -25300.92, -89123.38, -187500.02, -97286.30, -96065.54, -15778.45, -109911.44, -115191.21, 0.000, 0.000, 0.000, 14:01:52.779
236, -25296.34, -89134.62, -187500.02, -97296.00, -96072.13, -15779.59, -109914.68, -115199.12, 0.000, 0.000, 0.000, 14:01:52.779
237, -25316.84, -89149.23, -187500.02, -97308.12, -96080.36, -15781.40, -109911.88, -115199.14, 0.112, -0.574, -0.860, 14:01:52.780
238, -25310.49, -89140.72, -187500.02, -97295.93, -96065.58, -15763.72, -109886.85, -115180.93, 0.000, 0.000, 0.000, 14:01:52.780
239, -25303.76, -89187.21, -187500.02, -97338.67, -96108.41, -15802.95, -109928.18, -115230.16, 0.000, 0.000, 0.000, 14:01:52.780
240, -25308.10, -89194.27, -187500.02, -97342.29, -96109.08, -15800.04, -109928.80, -115232.38, 0.000, 0.000, 0.000, 14:01:52.781
241, -25296.65, -89220.77, -187500.02, -97365.98, -96128.03, -15815.29, -109940.02, -115245.39, 0.000, 0.000, 0.000, 14:01:52.781
242, -25305.15, -89220.59, -187500.02, -97363.62, -96121.26, -15803.20, -109923.04, -115232.89, 0.000, 0.000, 0.000, 14:01:52.781
243, -25297.64, -89232.30, -187500.02, -97374.09, -96129.64, -15805.79, -109930.05, -115245.19, 0.000, 0.000, 0.000, 14:01:52.782
244, -25302.49, -89231.73, -187500.02, -97369.54, -96124.50, -15796.25, -109922.99, -115241.88, 0.000, 0.000, 0.000, 14:01:52.782
245, -25317.42, -89232.32, -187500.02, -97363.55, -96118.29, -15784.87, -109907.44, -115229.85, 0.000, 0.000, 0.000, 14:01:52.782
246, -25308.97, -89229.48, -187500.02, -97355.79, -96107.42, -15769.20, -109884.77, -115215.33, 0.000, 0.000, 0.000, 14:01:52.783
247, -25293.41, -89243.34, -187500.02, -97365.78, -96114.27, -15772.53, -109890.25, -115227.98, 0.116, -0.572, -0.858, 14:01:52.783
248, -25292.54, -89253.89, -187500.02, -97372.63, -96121.57, -15775.75, -109897.58, -115238.26, 0.000, 0.000, 0.000, 14:01:52.783
249, -25304.88, -89253.93, -187500.02, -97367.44, -96116.50, -15767.59, -109885.51, -115228.55, 0.000, 0.000, 0.000, 14:01:52.783
250, -25312.10, -89267.86, -187500.02, -97376.84, -96124.01, -15770.81, -109882.20, -115228.40, 0.000, 0.000, 0.000, 14:01:52.784
251, -25301.37, -89310.39, -187500.02, -97417.55, -96162.01, -15804.67, -109916.63, -115267.49, 0.000, 0.000, 0.000, 14:01:52.784
252, -25289.81, -89319.73, -187500.02, -97424.86, -96167.57, -15806.80, -109923.22, -115277.45, 0.000, 0.000, 0.000, 14:01:52.784
253, -25296.05, -89309.01, -187500.02, -97410.33, -96150.74, -15786.61, -109900.88, -115258.58, 0.000, 0.000, 0.000, 14:01:52.784
254, -25315.07, -89334.04, -187500.02, -97432.41, -96169.52, -15798.79, -109906.16, -115268.86, 0.000, 0.000, 0.000, 14:01:52.788
255, -25323.05, -89324.81, -187500.02, -97419.54, -96155.34, -15779.35, -109882.22, -115252.38, 0.000, 0.000, 0.000, 14:01:52.788
0, -25313.62, -89315.87, -187500.02, -97407.85, -96143.03, -15764.28, -109869.33, -115244.48, 0.116, -0.576, -0.856, 14:01:52.788
1, -25301.55, -89316.36, -187500.02, -97404.79, -96139.01, -15754.74, -109860.43, -115237.63, 0.000, 0.000, 0.000, 14:01:52.789
2, -25300.43, -89340.55, -187500.02, -97423.83, -96156.76, -15764.37, -109866.33, -115244.85, 0.000, 0.000, 0.000, 14:01:52.789
3, -25305.73, -89331.47, -187500.02, -97411.27, -96140.17, -15744.01, -109843.82, -115227.48, 0.000, 0.000, 0.000, 14:01:52.789
4, -25300.92, -89346.71, -187500.02, -97420.97, -96149.36, -15750.40, -109855.60, -115243.84, 0.000, 0.000, 0.000, 14:01:52.789
5, -25305.17, -89367.84, -187500.02, -97439.66, -96165.90, -15761.82, -109870.27, -115258.38, 0.000, 0.000, 0.000, 14:01:52.790
6, -25298.37, -89360.30, -187500.02, -97426.76, -96153.06, -15742.06, -109846.73, -115236.94, 0.000, 0.000, 0.000, 14:01:52.790
7, -25299.25, -89384.82, -187500.02, -97444.37, -96172.69, -15754.92, -109856.59, -115251.58, 0.000, 0.000, 0.000, 14:01:52.790
8, -25295.07, -89386.50, -187500.02, -97440.77, -96169.45, -15749.31, -109853.16, -115253.68, 0.000, 0.000, 0.000, 14:01:52.790
9, -25297.99, -89386.27, -187500.02, -97436.75, -96165.00, -15742.09, -109848.07, -115252.59, 0.000, 0.000, 0.000, 14:01:52.790
10, -25307.18, -89404.23, -187500.02, -97454.18, -96178.57, -15750.22, -109852.20, -115261.17, 0.110, -0.572, -0.864, 14:01:52.791
11, -25316.23, -89426.13, -187500.02, -97472.18, -96193.66, -15760.26, -109857.52, -115269.46, 0.000, 0.000, 0.000, 14:01:52.791
12, -25301.68, -89444.70, -187500.02, -97484.70, -96208.68, -15770.16, -109870.71, -115285.87, 0.000, 0.000, 0.000, 14:01:52.791
13, -25307.02, -89470.45, -187500.02, -97503.98, -96228.26, -15784.78, -109888.97, -115307.64, 0.000, 0.000, 0.000, 14:01:52.791
14, -25315.00, -89430.17, -187500.02, -97458.45, -96180.23, -15733.64, -109831.75, -115253.16, 0.000, 0.000, 0.000, 14:01:52.791
15, -25310.67, -89434.45, -187500.02, -97459.57, -96180.58, -15729.46, -109818.63, -115243.78, 0.000, 0.000, 0.000, 14:01:52.791
16, -25300.21, -89484.11, -187500.02, -97507.67, -96226.78, -15770.74, -109859.42, -115288.53, 0.000, 0.000, 0.000, 14:01:52.791
17, -25303.63, -89488.27, -187500.02, -97510.42, -96225.55, -15765.20, -109857.41, -115288.66, 0.000, 0.000, 0.000, 14:01:52.792
18, -25297.39, -89470.14, -187500.02, -97487.11, -96200.92, -15736.50, -109824.51, -115260.16, 0.000, 0.000, 0.000, 14:01:52.792
19, -25302.22, -89469.02, -187500.02, -97480.94, -96193.84, -15725.14, -109805.06, -115246.20, 0.000, 0.000, 0.000, 14:01:52.792
20, -25314.38, -89463.79, -187500.02, -97472.49, -96185.16, -15713.92, -109792.70, -115237.45, 0.116, -0.570, -0.858, 14:01:52.792
21, -25295.94, -89486.77, -187500.02, -97495.00, -96205.80, -15731.02, -109816.53, -115262.78, 0.000, 0.000, 0.000, 14:01:52.792
22, -25289.70, -89479.91, -187500.02, -97484.74, -96192.20, -15712.87, -109799.63, -115246.33, 0.000, 0.000, 0.000, 14:01:52.792
23, -25288.63, -89519.12, -187500.02, -97522.11, -96226.40, -15739.92, -109822.77, -115269.95, 0.000, 0.000, 0.000, 14:01:52.792
24, -25296.09, -89538.27, -187500.02, -97540.41, -96240.84, -15748.50, -109830.50, -115282.49, 0.000, 0.000, 0.000, 14:01:52.792
25, -25295.16, -89540.86, -187500.02, -97539.52, -96237.82, -15743.72, -109829.96, -115285.31, 0.000, 0.000, 0.000, 14:01:52.792
26, -25298.24, -89521.57, -187500.02, -97513.80, -96211.72, -15713.99, -109801.55, -115257.33, 0.000, 0.000, 0.000, 14:01:52.793
27, -25289.14, -89521.10, -187500.02, -97507.05, -96203.34, -15701.14, -109782.82, -115240.80, 0.000, 0.000, 0.000, 14:01:52.793
28, -25294.84, -89516.56, -187500.02, -97497.84, -96192.61, -15687.19, -109763.96, -115226.48, 0.000, 0.000, 0.000, 14:01:52.793
29, -25293.26, -89543.37, -187500.02, -97520.92, -96214.24, -15707.40, -109787.38, -115254.84, 0.000, 0.000, 0.000, 14:01:52.793
30, -25289.30, -89548.17, -187500.02, -97522.16, -96213.84, -15704.47, -109785.53, -115256.45, 0.118, -0.574, -0.864, 14:01:52.793
31, -25300.14, -89589.88, -187500.02, -97562.59, -96250.09, -15734.87, -109813.91, -115285.60, 0.000, 0.000, 0.000, 14:01:52.793
32, -25303.83, -89617.73, -187500.02, -97588.79, -96271.35, -15750.71, -109826.19, -115299.88, 0.000, 0.000, 0.000, 14:01:52.793
33, -25289.77, -89639.90, -187500.02, -97607.80, -96290.62, -15766.65, -109844.27, -115323.62, 0.000, 0.000, 0.000, 14:01:52.793
34, -25283.91, -89657.13, -187500.02, -97624.15, -96305.15, -15775.66, -109859.27, -115340.12, 0.000, 0.000, 0.000, 14:01:52.794
35, -25292.36, -89650.27, -187500.02, -97616.68, -96293.34, -15755.74, -109839.33, -115321.61, 0.000, 0.000, 0.000, 14:01:52.794
36, -25300.86, -89652.22, -187500.02, -97611.56, -96287.87, -15744.84, -109822.95, -115310.81, 0.000, 0.000, 0.000, 14:01:52.794
37, -25301.84, -89623.70, -187500.02, -97575.87, -96251.99, -15707.78, -109785.35, -115279.72, 0.000, 0.000, 0.000, 14:01:52.794
38, -25302.55, -89636.20, -187500.02, -97582.57, -96259.93, -15713.88, -109791.97, -115290.92, 0.000, 0.000, 0.000, 14:01:52.794
39, -25300.54, -89663.33, -187500.02, -97606.65, -96280.54, -15730.87, -109805.11, -115307.64, 0.000, 0.000, 0.000, 14:01:52.794
40, -25303.49, -89674.73, -187500.02, -97615.54, -96288.18, -15732.01, -109799.72, -115307.52, 0.114, -0.570, -0.860, 14:01:52.794
41, -25292.29, -89685.12, -187500.02, -97624.48, -96297.62, -15736.61, -109803.90, -115317.61, 0.000, 0.000, 0.000, 14:01:52.794
42, -25295.00, -89706.45, -187500.02, -97644.95, -96317.30, -15753.24, -109825.05, -115340.27, 0.000, 0.000, 0.000, 14:01:52.794
43, -25304.10, -89689.86, -187500.02, -97625.91, -96295.36, -15726.44, -109800.21, -115314.50, 0.000, 0.000, 0.000, 14:01:52.795
44, -25294.11, -89695.70, -187500.02, -97629.94, -96296.23, -15720.88, -109790.34, -115309.61, 0.000, 0.000, 0.000, 14:01:52.795
45, -25288.76, -89729.27, -187500.02, -97661.56, -96326.45, -15745.35, -109814.38, -115342.66, 0.000, 0.000, 0.000, 14:01:52.795
46, -25280.87, -89701.55, -187500.02, -97629.98, -96295.88, -15711.02, -109782.58, -115317.18, 0.000, 0.000, 0.000, 14:01:52.795
47, -25293.81, -89688.80, -187500.02, -97611.98, -96278.51, -15690.07, -109758.95, -115295.86, 0.000, 0.000, 0.000, 14:01:52.795
48, -25308.81, -89701.50, -187500.02, -97619.50, -96284.92, -15689.58, -109755.13, -115292.24, 0.000, 0.000, 0.000, 14:01:52.795
49, -25299.22, -89725.91, -187500.02, -97641.63, -96305.64, -15705.25, -109770.40, -115310.43, 0.000, 0.000, 0.000, 14:01:52.795
50, -25307.36, -89714.40, -187500.02, -97626.91, -96289.77, -15687.62, -109754.70, -115300.42, 0.114, -0.568, -0.862, 14:01:52.795
51, -25298.44, -89712.73, -187500.02, -97619.59, -96281.79, -15678.79, -109744.40, -115293.22, 0.000, 0.000, 0.000, 14:01:52.796
52, -25309.04, -89734.67, -187500.02, -97638.72, -96298.53, -15692.09, -109753.01, -115303.41, 0.000, 0.000, 0.000, 14:01:52.796
53, -25307.90, -89745.18, -187500.02, -97646.66, -96303.56, -15693.36, -109750.98, -115304.69, 0.000, 0.000, 0.000, 14:01:52.796
54, -25285.75, -89759.88, -187500.02, -97658.73, -96315.09, -15702.77, -109763.89, -115319.53, 0.000, 0.000, 0.000, 14:01:52.796
55, -25285.61, -89767.77, -187500.02, -97665.52, -96318.38, -15702.97, -109765.75, -115322.52, 0.000, 0.000, 0.000, 14:01:52.796
56, -25305.97, -89793.73, -187500.02, -97691.31, -96337.89, -15718.73, -109776.14, -115336.31, 0.000, 0.000, 0.000, 14:01:52.796
57, -25298.91, -89808.48, -187500.02, -97703.96, -96345.13, -15723.36, -109775.85, -115340.05, 0.000, 0.000, 0.000, 14:01:52.796
58, -25286.04, -89807.36, -187500.02, -97699.88, -96339.86, -15715.00, -109772.16, -115338.59, 0.000, 0.000, 0.000, 14:01:52.796
59, -25281.30, -89833.16, -187500.02, -97721.51, -96361.54, -15730.87, -109794.91, -115361.13, 0.000, 0.000, 0.000, 14:01:52.796
60, -25293.70, -89849.34, -187500.02, -97732.06, -96369.23, -15734.82, -109796.37, -115362.76, 0.118, -0.566, -0.866, 14:01:52.797
61, -25295.96, -89870.69, -187500.02, -97748.66, -96383.09, -15743.99, -109799.90, -115369.06, 0.000, 0.000, 0.000, 14:01:52.797
62, -25289.50, -89856.13, -187500.02, -97730.77, -96364.78, -15722.24, -109780.16, -115351.70, 0.000, 0.000, 0.000, 14:01:52.797
63, -25287.22, -89894.78, -187500.02, -97767.51, -96402.04, -15755.81, -109817.73, -115388.89, 0.000, 0.000, 0.000, 14:01:52.797
64, -25298.69, -89885.01, -187500.02, -97754.68, -96385.50, -15735.02, -109796.10, -115367.54, 0.000, 0.000, 0.000, 14:01:52.797
65, -25314.45, -89868.56, -187500.02, -97735.32, -96365.03, -15707.13, -109763.20, -115338.64, 0.000, 0.000, 0.000, 14:01:52.797
66, -25305.19, -89875.71, -187500.02, -97742.21, -96370.34, -15708.54, -109765.45, -115346.71, 0.000, 0.000, 0.000, 14:01:52.797
67, -25291.20, -89879.94, -187500.02, -97743.64, -96370.66, -15708.20, -109768.92, -115353.98, 0.000, 0.000, 0.000, 14:01:52.797
68, -25281.61, -89896.14, -187500.02, -97756.05, -96381.79, -15716.07, -109776.25, -115361.95, 0.000, 0.000, 0.000, 14:01:52.797
69, -25291.20, -89914.52, -187500.02, -97774.13, -96392.90, -15725.26, -109779.27, -115366.98, 0.000, 0.000, 0.000, 14:01:52.798
70, -25295.83, -89916.80, -187500.02, -97774.71, -96390.42, -15718.86, -109773.46, -115365.09, 0.124, -0.572, -0.852, 14:01:52.798
71, -25287.22, -89913.89, -187500.02, -97767.63, -96383.20, -15707.71, -109767.98, -115362.18, 0.000, 0.000, 0.000, 14:01:52.798
72, -25294.15, -89905.80, -187500.02, -97754.61, -96368.63, -15690.01, -109751.46, -115347.83, 0.000, 0.000, 0.000, 14:01:52.798
73, -25308.30, -89896.97, -187500.02, -97743.15, -96351.55, -15670.81, -109728.22, -115327.48, 0.000, 0.000, 0.000, 14:01:53.249
74, -25303.98, -89896.92, -187500.02, -97742.30, -96346.97, -15664.97, -109718.59, -115324.52, 0.000, 0.000, 0.000, 14:01:53.249
75, -25299.47, -89919.52, -187500.02, -97763.76, -96368.16, -15683.79, -109741.23, -115351.47, 0.000, 0.000, 0.000, 14:01:53.249
76, -25294.82, -89935.68, -187500.02, -97778.58, -96379.24, -15692.06, -109750.48, -115363.20, 0.000, 0.000, 0.000, 14:01:53.249
77, -25303.60, -89926.85, -187500.02, -97767.58, -96363.87, -15674.63, -109726.88, -115340.83, 0.000, 0.000, 0.000, 14:01:53.249
78, -25304.68, -89923.73, -187500.02, -97760.80, -96355.57, -15664.79, -109711.68, -115328.98, 0.000, 0.000, 0.000, 14:01:53.250
79, -25286.19, -89966.41, -187500.02, -97802.20, -96397.84, -15703.24, -109754.02, -115373.30, 0.000, 0.000, 0.000, 14:01:53.250
80, -25290.80, -90020.22, -187500.02, -97858.26, -96451.02, -15752.59, -109805.78, -115425.34, 0.118, -0.570, -0.860, 14:01:53.250
81, -25295.16, -90024.28, -187500.02, -97861.59, -96449.16, -15746.04, -109796.10, -115415.89, 0.000, 0.000, 0.000, 14:01:53.250
82, -25309.37, -90037.54, -187500.02, -97872.56, -96456.87, -15749.08, -109795.81, -115417.38, 0.000, 0.000, 0.000, 14:01:53.250
83, -25297.35, -90043.87, -187500.02, -97875.98, -96460.11, -15748.50, -109799.79, -115422.98, 0.000, 0.000, 0.000, 14:01:53.250
84, -25284.14, -90028.66, -187500.02, -97856.18, -96441.52, -15726.28, -109780.68, -115403.93, 0.000, 0.000, 0.000, 14:01:53.250
85, -25292.90, -90035.75, -187500.02, -97860.54, -96443.64, -15723.29, -109774.38, -115398.90, 0.000, 0.000, 0.000, 14:01:53.251
86, -25297.32, -90044.24, -187500.02, -97868.70, -96445.67, -15723.16, -109767.05, -115395.73, 0.000, 0.000, 0.000, 14:01:53.251
87, -25288.40, -90079.67, -187500.02, -97902.42, -96478.93, -15751.94, -109797.55, -115431.65, 0.000, 0.000, 0.000, 14:01:53.251
88, -25288.47, -90092.39, -187500.02, -97912.08, -96487.65, -15756.33, -109807.77, -115442.66, 0.000, 0.000, 0.000, 14:01:53.251
89, -25296.70, -90112.66, -187500.02, -97931.39, -96503.19, -15765.33, -109818.61, -115452.55, 0.110, -0.562, -0.858, 14:01:53.251
90, -25306.51, -90109.98, -187500.02, -97928.27, -96494.38, -15752.44, -109799.68, -115436.38, 0.000, 0.000, 0.000, 14:01:53.252
91, -25297.75, -90101.53, -187500.02, -97914.27, -96480.30, -15737.68, -109783.41, -115424.54, 0.000, 0.000, 0.000, 14:01:53.252
92, -25290.80, -90090.29, -187500.02, -97897.89, -96465.30, -15720.18, -109769.66, -115413.30, 0.000, 0.000, 0.000, 14:01:53.252
93, -25294.82, -90110.59, -187500.02, -97917.49, -96482.42, -15731.65, -109780.73, -115425.48, 0.000, 0.000, 0.000, 14:01:53.252
94, -25297.84, -90097.40, -187500.02, -97904.30, -96465.81, -15709.63, -109752.56, -115400.78, 0.000, 0.000, 0.000, 14:01:53.252
95, -25289.19, -90115.08, -187500.02, -97920.30, -96483.42, -15721.75, -109764.79, -115416.38, 0.000, 0.000, 0.000, 14:01:53.252
96, -25283.64, -90157.01, -187500.02, -97962.77, -96525.27, -15757.91, -109807.23, -115459.79, 0.000, 0.000, 0.000, 14:01:53.253
97, -25299.13, -90164.52, -187500.02, -97968.84, -96527.63, -15756.17, -109806.23, -115460.21, 0.000, 0.000, 0.000, 14:01:53.253
98, -25303.09, -90162.58, -187500.02, -97960.07, -96517.87, -15742.49, -109788.10, -115442.40, 0.000, 0.000, 0.000, 14:01:53.253
99, -25303.72, -90141.95, -187500.02, -97931.41, -96491.38, -15712.25, -109754.17, -115413.07, 0.112, -0.562, -0.860, 14:01:53.253
100, -25301.06, -90159.98, -187500.02, -97947.69, -96507.63, -15725.75, -109771.11, -115433.59, 0.000, 0.000, 0.000, 14:01:53.253
101, -25306.71, -90164.27, -187500.02, -97953.86, -96508.64, -15725.17, -109772.32, -115436.43, 0.000, 0.000, 0.000, 14:01:53.254
102, -25293.39, -90160.67, -187500.02, -97949.52, -96499.20, -15711.91, -109755.48, -115421.21, 0.000, 0.000, 0.000, 14:01:53.254
103, -25284.74, -90145.34, -187500.02, -97931.17, -96479.31, -15688.62, -109728.04, -115395.91, 0.000, 0.000, 0.000, 14:01:53.254
104, -25297.75, -90128.04, -187500.02, -97907.77, -96457.97, -15666.00, -109707.86, -115378.27, 0.000, 0.000, 0.000, 14:01:53.254
105, -25295.63, -90152.25, -187500.02, -97928.94, -96478.44, -15683.70, -109727.30, -115398.74, 0.000, 0.000, 0.000, 14:01:53.254
106, -25287.58, -90174.89, -187500.02, -97950.44, -96496.79, -15696.36, -109737.96, -115408.96, 0.000, 0.000, 0.000, 14:01:53.255
107, -25293.01, -90177.39, -187500.02, -97951.71, -96494.96, -15691.28, -109727.23, -115401.02, 0.000, 0.000, 0.000, 14:01:53.255
108, -25286.75, -90194.36, -187500.02, -97966.38, -96510.76, -15704.33, -109742.66, -115419.95, 0.000, 0.000, 0.000, 14:01:53.255
109, -25288.40, -90196.04, -187500.02, -97966.93, -96509.29, -15701.05, -109742.68, -115419.17, 0.114, -0.568, -0.864, 14:01:53.255
110, -25311.07, -90215.82, -187500.02, -97985.73, -96525.45, -15711.69, -109752.09, -115427.89, 0.000, 0.000, 0.000, 14:01:53.256
111, -25311.54, -90249.10, -187500.02, -98018.37, -96553.43, -15735.09, -109770.51, -115449.15, 0.000, 0.000, 0.000, 14:01:53.256
112, -25287.49, -90265.66, -187500.02, -98036.18, -96566.80, -15744.81, -109782.42, -115464.80, 0.000, 0.000, 0.000, 14:01:53.256
113, -25293.48, -90261.37, -187500.02, -98030.10, -96558.93, -15732.21, -109775.94, -115459.67, 0.000, 0.000, 0.000, 14:01:53.256
114, -25302.53, -90249.32, -187500.02, -98012.58, -96539.66, -15709.66, -109752.42, -115435.63, 0.000, 0.000, 0.000, 14:01:53.256
115, -25296.52, -90248.43, -187500.02, -98007.45, -96532.09, -15698.48, -109734.99, -115420.47, 0.000, 0.000, 0.000, 14:01:53.257
116, -25291.47, -90245.55, -187500.02, -98000.93, -96525.38, -15689.40, -109725.85, -115415.76, 0.000, 0.000, 0.000, 14:01:53.257
117, -25303.80, -90242.15, -187500.02, -97995.38, -96518.02, -15681.20, -109722.77, -115412.98, 0.000, 0.000, 0.000, 14:01:53.257
118, -25312.28, -90253.91, -187500.02, -98005.45, -96525.47, -15686.25, -109728.04, -115417.32, 0.000, 0.000, 0.000, 14:01:53.257
119, -25312.10, -90262.24, -187500.02, -98014.81, -96529.52, -15687.26, -109722.90, -115411.62, 0.118, -0.566, -0.862, 14:01:53.258
120, -25302.87, -90280.13, -187500.02, -98036.23, -96545.38, -15700.78, -109734.90, -115425.50, 0.000, 0.000, 0.000, 14:01:53.258
121, -25297.73, -90299.23, -187500.02, -98058.26, -96562.13, -15714.35, -109754.37, -115444.95, 0.000, 0.000, 0.000, 14:01:53.258
122, -25306.17, -90268.27, -187500.02, -98027.17, -96528.71, -15677.67, -109717.36, -115407.13, 0.000, 0.000, 0.000, 14:01:53.258
123, -25305.44, -90301.85, -187500.02, -98058.55, -96560.23, -15702.64, -109736.42, -115426.59, 0.000, 0.000, 0.000, 14:01:53.259
124, -25308.23, -90318.08, -187500.02, -98077.57, -96575.58, -15711.89, -109745.43, -115437.01, 0.000, 0.000, 0.000, 14:01:53.259
125, -25307.56, -90321.83, -187500.02, -98084.13, -96581.17, -15713.48, -109753.41, -115446.27, 0.000, 0.000, 0.000, 14:01:53.259
126, -25303.45, -90320.29, -187500.02, -98083.27, -96578.42, -15708.16, -109748.23, -115440.97, 0.000, 0.000, 0.000, 14:01:53.259
127, -25315.41, -90360.05, -187500.02, -98122.92, -96615.16, -15740.46, -109774.46, -115468.03, 0.000, 0.000, 0.000, 14:01:53.259
128, -25319.14, -90376.17, -187500.02, -98137.88, -96627.86, -15748.17, -109778.33, -115473.38, 0.000, 0.000, 0.000, 14:01:53.260
129, -25314.20, -90401.20, -187500.02, -98162.66, -96652.56, -15768.69, -109803.45, -115500.24, 0.118, -0.570, -0.864, 14:01:53.260
130, -25308.81, -90407.70, -187500.02, -98167.96, -96654.75, -15768.40, -109807.30, -115502.28, 0.000, 0.000, 0.000, 14:01:53.260
131, -25305.91, -90437.93, -187500.02, -98197.52, -96678.84, -15787.22, -109826.74, -115520.23, 0.000, 0.000, 0.000, 14:01:53.260
132, -25314.71, -90458.49, -187500.02, -98218.05, -96693.46, -15797.74, -109834.26, -115528.66, 0.000, 0.000, 0.000, 14:01:53.261
133, -25304.77, -90477.98, -187500.02, -98237.86, -96708.53, -15809.19, -109850.02, -115547.20, 0.000, 0.000, 0.000, 14:01:53.261
134, -25299.80, -90469.04, -187500.02, -98229.07, -96696.46, -15792.65, -109839.51, -115536.41, 0.000, 0.000, 0.000, 14:01:53.261
135, -25308.86, -90450.63, -187500.02, -98210.03, -96673.77, -15767.17, -109813.27, -115507.33, 0.000, 0.000, 0.000, 14:01:53.261
136, -25312.75, -90466.88, -187500.02, -98225.90, -96686.09, -15773.85, -109819.37, -115512.36, 0.000, 0.000, 0.000, 14:01:53.261
137, -25300.14, -90465.53, -187500.02, -98225.03, -96683.05, -15765.22, -109815.93, -115510.37, 0.000, 0.000, 0.000, 14:01:53.262
138, -25294.11, -90487.93, -187500.02, -98247.27, -96702.18, -15781.38, -109837.38, -115532.38, 0.000, 0.000, 0.000, 14:01:53.262
139, -25295.45, -90514.28, -187500.02, -98273.38, -96725.23, -15799.67, -109854.53, -115550.38, 0.122, -0.566, -0.860, 14:01:53.262
140, -25306.69, -90483.79, -187500.02, -98242.89, -96689.22, -15760.13, -109809.06, -115505.83, 0.000, 0.000, 0.000, 14:01:53.262
141, -25284.61, -90479.21, -187500.02, -98234.95, -96680.95, -15747.79, -109798.49, -115496.98, 0.000, 0.000, 0.000, 14:01:53.263
142, -25278.75, -90513.21, -187500.02, -98266.80, -96710.92, -15772.04, -109830.77, -115529.55, 0.000, 0.000, 0.000, 14:01:53.263
143, -25292.36, -90532.77, -187500.02, -98284.91, -96725.96, -15780.26, -109840.73, -115540.88, 0.000, 0.000, 0.000, 14:01:53.263
144, -25306.91, -90522.75, -187500.02, -98275.19, -96710.61, -15760.53, -109815.62, -115517.41, 0.000, 0.000, 0.000, 14:01:53.263
145, -25302.20, -90507.02, -187500.02, -98261.41, -96693.35, -15738.02, -109793.30, -115498.52, 0.000, 0.000, 0.000, 14:01:53.263
146, -25284.22, -90529.16, -187500.02, -98282.59, -96712.95, -15754.00, -109816.17, -115522.39, 0.000, 0.000, 0.000, 14:01:53.263
147, -25289.68, -90545.59, -187500.02, -98297.96, -96725.41, -15760.64, -109826.86, -115532.27, 0.000, 0.000, 0.000, 14:01:53.263
148, -25317.26, -90537.19, -187500.02, -98287.88, -96711.91, -15740.88, -109803.68, -115508.94, 0.000, 0.000, 0.000, 14:01:53.264
149, -25315.25, -90520.52, -187500.02, -98267.59, -96691.84, -15716.43, -109776.56, -115483.88, 0.120, -0.564, -0.858, 14:01:53.264
150, -25298.69, -90538.62, -187500.02, -98281.35, -96708.80, -15730.31, -109795.66, -115501.23, 0.000, 0.000, 0.000, 14:01:53.264
151, -25300.14, -90558.67, -187500.02, -98298.74, -96724.66, -15743.27, -109812.91, -115517.30, 0.000, 0.000, 0.000, 14:01:53.264
152, -25304.32, -90565.58, -187500.02, -98305.52, -96724.09, -15740.23, -109805.87, -115510.26, 0.000, 0.000, 0.000, 14:01:53.264
153, -25294.44, -90558.70, -187500.02, -98296.29, -96710.63, -15724.59, -109787.65, -115492.71, 0.000, 0.000, 0.000, 14:01:53.264
154, -25285.10, -90596.63, -187500.02, -98333.12, -96747.09, -15756.97, -109826.66, -115533.28, 0.000, 0.000, 0.000, 14:01:53.264
