%OpenBCI Raw EEG Data
%
%Sample Rate = 250.0 Hz
%First Column = SampleIndex
%Last Column = Timestamp 
%Other Columns = EEG data in microvolts followed by Accel Data (in G) interleaved with Aux Data
0, -26899.14, -94970.57, -187500.02, -179457.20, -159388.94, 13758.95, -84381.92, -187500.02, -0.350, -0.022, -0.954, 12:56:16.117
1, -26802.62, -94974.73, -187500.02, -179507.13, -159449.42, 13791.50, -84343.26, -187500.02, 0.000, 0.000, 0.000, 12:56:16.117
2, -26717.40, -95009.13, -187500.02, -179582.47, -159536.64, 13795.79, -84328.63, -187500.02, 0.000, 0.000, 0.000, 12:56:16.117
3, -26847.48, -95083.80, -187500.02, -179708.84, -159676.86, 13748.71, -84374.39, -187500.02, 0.000, 0.000, 0.000, 12:56:16.117
4, -26909.13, -95085.81, -187500.02, -179764.48, -159744.38, 13772.92, -84351.44, -187500.02, 0.000, 0.000, 0.000, 12:56:16.118
5, -26831.75, -95082.22, -187500.02, -179805.52, -159795.20, 13809.98, -84307.63, -187500.02, 0.000, 0.000, 0.000, 12:56:16.118
6, -26728.35, -95109.30, -187500.02, -179871.66, -159872.45, 13820.11, -84284.18, -187500.02, 0.000, 0.000, 0.000, 12:56:16.118
7, -26819.39, -95216.06, -187500.02, -180029.42, -160043.73, 13740.69, -84360.51, -187500.02, -0.354, -0.022, -0.954, 12:56:16.118
8, -26928.24, -95224.66, -187500.02, -180096.02, -160119.38, 13757.74, -84345.34, -187500.02, 0.000, 0.000, 0.000, 12:56:16.118
9, -26837.36, -95214.43, -187500.02, -180131.61, -160166.16, 13800.12, -84296.67, -187500.02, 0.000, 0.000, 0.000, 12:56:16.118
10, -26721.96, -95222.07, -187500.02, -180177.92, -160223.98, 13830.10, -84252.69, -187500.02, 0.000, 0.000, 0.000, 12:56:16.119
11, -26818.56, -95291.79, -187500.02, -180295.11, -160355.91, 13789.89, -84286.81, -187500.02, 0.000, 0.000, 0.000, 12:56:16.119
12, -26919.37, -95324.46, -187500.02, -180384.19, -160459.50, 13780.61, -84298.48, -187500.02, 0.000, 0.000, 0.000, 12:56:16.119
13, -26833.07, -95370.09, -187500.02, -180480.23, -160566.83, 13766.42, -84310.40, -187500.02, 0.000, 0.000, 0.000, 12:56:16.119
14, -26742.86, -95392.66, -187500.02, -180545.98, -160640.28, 13782.76, -84284.05, -187500.02, 0.000, 0.000, 0.000, 12:56:16.119
15, -26772.56, -95447.13, -187500.02, -180645.70, -160751.77, 13759.62, -84298.57, -187500.02, 0.000, 0.000, 0.000, 12:56:16.119
16, -26891.76, -95477.51, -187500.02, -180730.81, -160849.94, 13753.43, -84305.84, -187500.02, 0.000, 0.000, 0.000, 12:56:16.119
17, -26870.30, -95490.20, -187500.02, -180791.78, -160923.14, 13773.77, -84285.12, -187500.02, -0.352, -0.020, -0.950, 12:56:16.120
18, -26757.07, -95523.89, -187500.02, -180866.00, -161007.45, 13779.65, -84271.08, -187500.02, 0.000, 0.000, 0.000, 12:56:16.120
19, -26777.17, -95591.84, -187500.02, -180980.81, -161131.31, 13746.39, -84297.63, -187500.02, 0.000, 0.000, 0.000, 12:56:16.120
20, -26920.87, -95608.38, -187500.02, -181053.91, -161216.44, 13753.72, -84290.28, -187500.02, 0.000, 0.000, 0.000, 12:56:16.120
21, -26879.36, -95646.45, -187500.02, -181143.16, -161318.22, 13744.89, -84301.44, -187500.02, 0.000, 0.000, 0.000, 12:56:16.120
22, -26772.11, -95662.83, -187500.02, -181201.56, -161387.08, 13767.42, -84274.16, -187500.02, 0.000, 0.000, 0.000, 12:56:16.120
23, -26745.89, -95715.15, -187500.02, -181294.45, -161489.89, 13755.00, -84279.55, -187500.02, 0.000, 0.000, 0.000, 12:56:16.121
24, -26885.06, -95742.94, -187500.02, -181375.50, -161580.59, 13756.85, -84279.71, -187500.02, 0.000, 0.000, 0.000, 12:56:16.121
25, -26912.21, -95744.14, -187500.02, -181427.89, -161645.13, 13784.41, -84253.02, -187500.02, 0.000, 0.000, 0.000, 12:56:16.121
26, -26774.71, -95752.48, -187500.02, -181478.33, -161706.97, 13810.58, -84218.60, -187500.02, -0.354, -0.024, -0.944, 12:56:16.121
27, -26718.51, -95825.10, -187500.02, -181590.91, -161832.06, 13774.71, -84244.93, -187500.02, 0.000, 0.000, 0.000, 12:56:16.121
28, -26843.97, -95880.27, -187500.02, -181698.59, -161953.30, 13746.79, -84273.54, -187500.02, 0.000, 0.000, 0.000, 12:56:16.121
29, -26911.99, -95882.66, -187500.02, -181755.95, -162022.36, 13768.67, -84253.47, -187500.02, 0.000, 0.000, 0.000, 12:56:16.122
30, -26834.39, -95915.58, -187500.02, -181833.88, -162109.53, 13770.71, -84247.09, -187500.02, 0.000, 0.000, 0.000, 12:56:16.122
31, -26726.38, -95936.97, -187500.02, -181896.05, -162179.22, 13789.75, -84218.33, -187500.02, 0.000, 0.000, 0.000, 12:56:16.122
32, -26820.17, -95961.55, -187500.02, -181966.55, -162261.86, 13796.57, -84207.83, -187500.02, 0.000, 0.000, 0.000, 12:56:16.122
33, -26886.82, -95988.58, -187500.02, -182045.23, -162354.84, 13795.61, -84213.19, -187500.02, 0.000, 0.000, 0.000, 12:56:16.122
34, -26833.45, -96008.72, -187500.02, -182111.50, -162433.19, 13807.72, -84198.66, -187500.02, 0.000, 0.000, 0.000, 12:56:16.122
35, -26739.68, -96015.23, -187500.02, -182158.64, -162490.06, 13838.12, -84157.18, -187500.02, 0.000, 0.000, 0.000, 12:56:16.123
36, -26785.75, -96096.12, -187500.02, -182285.73, -162632.56, 13788.08, -84204.20, -187500.02, -0.358, -0.016, -0.950, 12:56:16.123
37, -26889.01, -96100.30, -187500.02, -182344.20, -162705.58, 13808.06, -84186.52, -187500.02, 0.000, 0.000, 0.000, 12:56:16.123
38, -26871.24, -96109.08, -187500.02, -182396.98, -162774.58, 13828.96, -84161.53, -187500.02, 0.000, 0.000, 0.000, 12:56:16.123
39, -26752.73, -96117.73, -187500.02, -182441.91, -162831.33, 13857.79, -84120.59, -187500.02, 0.000, 0.000, 0.000, 12:56:16.123
40, -26787.13, -96159.03, -187500.02, -182524.88, -162927.67, 13846.99, -84119.06, -187500.02, 0.000, 0.000, 0.000, 12:56:16.123
41, -26901.49, -96204.34, -187500.02, -182625.56, -163041.13, 13824.06, -84144.19, -187500.02, 0.000, 0.000, 0.000, 12:56:16.123
42, -26849.56, -96223.48, -187500.02, -182695.00, -163121.70, 13833.11, -84135.70, -187500.02, 0.000, 0.000, 0.000, 12:56:16.123
43, -26748.71, -96272.52, -187500.02, -182785.98, -163221.22, 13821.40, -84138.13, -187500.02, 0.000, 0.000, 0.000, 12:56:16.123
44, -26752.67, -96334.92, -187500.02, -182891.52, -163335.56, 13794.62, -84157.31, -187500.02, 0.000, 0.000, 0.000, 12:56:16.123
45, -26879.00, -96359.24, -187500.02, -182968.77, -163427.25, 13794.24, -84159.55, -187500.02, 0.000, 0.000, 0.000, 12:56:16.124
46, -26898.45, -96360.42, -187500.02, -183018.41, -163489.42, 13821.33, -84131.18, -187500.02, -0.354, -0.014, -0.944, 12:56:16.124
47, -26789.28, -96406.47, -187500.02, -183103.89, -163584.83, 13812.77, -84131.49, -187500.02, 0.000, 0.000, 0.000, 12:56:16.124
48, -26738.92, -96451.48, -187500.02, -183188.72, -163679.09, 13805.08, -84130.73, -187500.02, 0.000, 0.000, 0.000, 12:56:16.124
49, -26849.12, -96488.63, -187500.02, -183279.16, -163781.27, 13793.46, -84143.70, -187500.02, 0.000, 0.000, 0.000, 12:56:16.124
50, -26885.46, -96531.66, -187500.02, -183376.75, -163890.52, 13777.55, -84164.22, -187500.02, 0.000, 0.000, 0.000, 12:56:16.124
51, -26798.98, -96528.87, -187500.02, -183417.09, -163941.81, 13815.19, -84122.38, -187500.02, 0.000, 0.000, 0.000, 12:56:16.124
52, -26724.10, -96555.42, -187500.02, -183480.30, -164018.22, 13823.17, -84101.21, -187500.02, 0.000, 0.000, 0.000, 12:56:16.124
53, -26844.53, -96576.77, -187500.02, -183549.44, -164101.08, 13825.98, -84093.88, -187500.02, 0.000, 0.000, 0.000, 12:56:16.124
54, -26898.69, -96587.74, -187500.02, -183611.39, -164177.94, 13838.70, -84082.16, -187500.02, 0.000, 0.000, 0.000, 12:56:16.125
55, -26822.27, -96594.67, -187500.02, -183660.81, -164238.88, 13864.70, -84050.13, -187500.02, 0.000, 0.000, 0.000, 12:56:16.125
56, -26721.33, -96643.15, -187500.02, -183747.36, -164338.78, 13850.77, -84051.12, -187500.02, -0.352, -0.020, -0.946, 12:56:16.125
57, -26812.08, -96725.05, -187500.02, -183880.55, -164483.86, 13794.69, -84105.68, -187500.02, 0.000, 0.000, 0.000, 12:56:16.125
58, -26908.15, -96747.33, -187500.02, -183959.34, -164572.45, 13795.09, -84110.15, -187500.02, 0.000, 0.000, 0.000, 12:56:16.125
59, -26866.15, -96706.88, -187500.02, -183964.55, -164587.00, 13864.14, -84035.09, -187500.02, 0.000, 0.000, 0.000, 12:56:16.125
60, -26746.97, -96724.98, -187500.02, -184017.14, -164650.52, 13881.39, -84002.63, -187500.02, 0.000, 0.000, 0.000, 12:56:16.125
61, -26770.28, -96779.01, -187500.02, -184112.11, -164759.91, 13856.16, -84019.18, -187500.02, 0.000, 0.000, 0.000, 12:56:16.126
62, -26894.65, -96783.70, -187500.02, -184167.58, -164829.00, 13872.43, -84001.34, -187500.02, 0.000, 0.000, 0.000, 12:56:16.126
63, -26861.88, -96826.52, -187500.02, -184256.75, -164930.86, 13856.94, -84012.09, -187500.02, 0.000, 0.000, 0.000, 12:56:16.127
64, -26751.68, -96848.90, -187500.02, -184320.72, -165001.38, 13871.45, -83987.95, -187500.02, 0.000, 0.000, 0.000, 12:56:16.127
65, -26767.78, -96906.09, -187500.02, -184422.14, -165111.61, 13847.22, -84005.95, -187500.02, 0.000, 0.000, 0.000, 12:56:16.127
66, -26885.21, -96931.51, -187500.02, -184501.64, -165202.47, 13844.38, -84011.66, -187500.02, -0.356, -0.018, -0.952, 12:56:16.127
67, -26879.45, -96963.65, -187500.02, -184585.27, -165295.39, 13840.07, -84018.46, -187500.02, 0.000, 0.000, 0.000, 12:56:16.128
68, -26773.28, -96947.65, -187500.02, -184606.77, -165327.59, 13890.96, -83957.30, -187500.02, 0.000, 0.000, 0.000, 12:56:16.128
69, -26751.15, -97008.78, -187500.02, -184706.31, -165439.63, 13863.85, -83976.09, -187500.02, 0.000, 0.000, 0.000, 12:56:16.128
70, -26874.82, -97056.28, -187500.02, -184804.86, -165552.44, 13840.92, -84003.48, -187500.02, 0.000, 0.000, 0.000, 12:56:16.128
71, -26856.98, -97080.64, -187500.02, -184879.75, -165639.55, 13842.64, -84003.93, -187500.02, 0.000, 0.000, 0.000, 12:56:16.128
72, -26769.95, -97078.02, -187500.02, -184918.56, -165687.50, 13879.49, -83959.38, -187500.02, 0.000, 0.000, 0.000, 12:56:16.128
73, -26718.54, -97122.28, -187500.02, -184999.19, -165782.56, 13869.57, -83957.22, -187500.02, 0.000, 0.000, 0.000, 12:56:16.128
74, -26840.96, -97177.60, -187500.02, -185102.03, -165900.66, 13840.40, -83986.56, -187500.02, 0.000, 0.000, 0.000, 12:56:16.128
75, -26903.27, -97192.00, -187500.02, -185166.84, -165978.64, 13850.21, -83977.76, -187500.02, 0.000, 0.000, 0.000, 12:56:16.128
76, -26802.47, -97204.38, -187500.02, -185223.69, -166044.94, 13868.12, -83951.48, -187500.02, -0.356, -0.024, -0.952, 12:56:16.128
77, -26732.84, -97215.42, -187500.02, -185271.80, -166103.67, 13890.92, -83915.58, -187500.02, 0.000, 0.000, 0.000, 12:56:16.129
78, -26827.14, -97263.79, -187500.02, -185364.59, -166213.88, 13864.90, -83936.92, -187500.02, 0.000, 0.000, 0.000, 12:56:16.129
79, -26874.31, -97306.13, -187500.02, -185458.31, -166324.47, 13842.30, -83961.15, -187500.02, 0.000, 0.000, 0.000, 12:56:16.129
80, -26806.54, -97329.64, -187500.02, -185527.20, -166404.42, 13848.78, -83949.82, -187500.02, 0.000, 0.000, 0.000, 12:56:16.129
81, -26728.60, -97345.45, -187500.02, -185580.42, -166468.52, 13867.54, -83918.73, -187500.02, 0.000, 0.000, 0.000, 12:56:16.129
82, -26821.73, -97428.52, -187500.02, -185711.77, -166610.23, 13811.77, -83973.78, -187500.02, 0.000, 0.000, 0.000, 12:56:16.129
83, -26905.58, -97428.93, -187500.02, -185765.50, -166675.20, 13832.47, -83954.83, -187500.02, 0.000, 0.000, 0.000, 12:56:16.129
84, -26830.79, -97449.42, -187500.02, -185832.23, -166753.75, 13840.62, -83942.84, -187500.02, 0.000, 0.000, 0.000, 12:56:16.129
85, -26729.80, -97455.84, -187500.02, -185875.22, -166808.42, 13870.08, -83902.23, -187500.02, 0.000, 0.000, 0.000, 12:56:16.129
86, -26768.87, -97522.87, -187500.02, -185984.33, -166930.44, 13833.20, -83933.84, -187500.02, -0.352, -0.020, -0.954, 12:56:16.130
87, -26866.55, -97523.70, -187500.02, -186034.72, -166995.17, 13853.59, -83915.30, -187500.02, 0.000, 0.000, 0.000, 12:56:16.130
88, -26827.93, -97547.95, -187500.02, -186106.05, -167076.41, 13854.37, -83912.34, -187500.02, 0.000, 0.000, 0.000, 12:56:16.130
89, -26746.86, -97586.20, -187500.02, -186182.14, -167161.63, 13850.77, -83905.74, -187500.02, 0.000, 0.000, 0.000, 12:56:16.130
90, -26734.34, -97657.25, -187500.02, -186295.22, -167288.19, 13810.65, -83940.07, -187500.02, 0.000, 0.000, 0.000, 12:56:16.130
91, -26837.45, -97701.05, -187500.02, -186391.28, -167399.14, 13789.64, -83965.48, -187500.02, 0.000, 0.000, 0.000, 12:56:16.130
92, -26848.22, -97684.85, -187500.02, -186421.97, -167442.70, 13832.00, -83924.05, -187500.02, 0.000, 0.000, 0.000, 12:56:16.130
93, -26745.13, -97671.78, -187500.02, -186444.52, -167479.81, 13878.44, -83866.47, -187500.02, 0.000, 0.000, 0.000, 12:56:16.130
94, -26727.52, -97747.05, -187500.02, -186557.84, -167606.42, 13837.03, -83898.37, -187500.02, 0.000, 0.000, 0.000, 12:56:16.130
95, -26837.49, -97763.55, -187500.02, -186624.14, -167687.20, 13843.69, -83893.13, -187500.02, 0.000, 0.000, 0.000, 12:56:16.131
96, -26874.51, -97741.94, -187500.02, -186646.88, -167727.48, 13890.51, -83844.99, -187500.02, -0.346, -0.022, -0.952, 12:56:16.131
97, -26793.46, -97727.91, -187500.02, -186667.38, -167763.19, 13936.09, -83786.70, -187500.02, 0.000, 0.000, 0.000, 12:56:16.131
98, -26730.61, -97799.52, -187500.02, -186775.02, -167883.64, 13894.89, -83815.04, -187500.02, 0.000, 0.000, 0.000, 12:56:16.131
99, -26822.43, -97899.68, -187500.02, -186924.08, -168047.20, 13818.43, -83894.38, -187500.02, 0.000, 0.000, 0.000, 12:56:16.131
100, -26875.00, -97902.29, -187500.02, -186975.94, -168112.81, 13840.85, -83876.80, -187500.02, 0.000, 0.000, 0.000, 12:56:16.131
101, -26797.46, -97875.76, -187500.02, -186987.27, -168138.41, 13898.78, -83811.75, -187500.02, 0.000, 0.000, 0.000, 12:56:16.131
102, -26729.45, -97905.73, -187500.02, -187052.00, -168217.88, 13901.80, -83796.42, -187500.02, 0.000, 0.000, 0.000, 12:56:16.131
103, -26819.50, -97972.54, -187500.02, -187166.19, -168346.83, 13859.38, -83837.84, -187500.02, 0.000, 0.000, 0.000, 12:56:16.132
104, -26861.12, -98001.82, -187500.02, -187245.55, -168441.80, 13853.19, -83849.03, -187500.02, 0.000, 0.000, 0.000, 12:56:16.132
105, -26795.70, -98022.50, -187500.02, -187307.98, -168517.17, 13862.73, -83836.54, -187500.02, 0.000, 0.000, 0.000, 12:56:16.132
106, -26714.11, -98049.63, -187500.02, -187371.63, -168590.42, 13871.47, -83818.81, -187500.02, -0.354, -0.018, -0.948, 12:56:16.132
107, -26789.03, -98112.84, -187500.02, -187479.41, -168711.05, 13834.03, -83854.42, -187500.02, 0.000, 0.000, 0.000, 12:56:16.132
108, -26864.43, -98108.02, -187500.02, -187500.02, -168771.63, 13860.00, -83831.82, -187500.02, 0.000, 0.000, 0.000, 12:56:16.132
109, -26803.16, -98144.59, -187500.02, -187500.02, -168865.70, 13853.05, -83838.93, -187500.02, 0.000, 0.000, 0.000, 12:56:16.132
110, -26724.93, -98158.66, -187500.02, -187500.02, -168926.72, 13874.78, -83806.84, -187500.02, 0.000, 0.000, 0.000, 12:56:16.133
111, -26764.87, -98236.67, -187500.02, -187500.02, -169059.33, 13825.85, -83849.30, -187500.02, 0.000, 0.000, 0.000, 12:56:16.133
112, -26871.56, -98246.77, -187500.02, -187500.02, -169133.72, 13837.38, -83840.45, -187500.02, 0.000, 0.000, 0.000, 12:56:16.133
113, -26828.33, -98218.01, -187500.02, -187500.02, -169159.94, 13893.04, -83780.48, -187500.02, 0.000, 0.000, 0.000, 12:56:16.133
114, -26731.70, -98226.55, -187500.02, -187500.02, -169212.02, 13916.33, -83741.66, -187500.02, 0.000, 0.000, 0.000, 12:56:16.133
115, -26725.78, -98308.52, -187500.02, -187500.02, -169346.06, 13863.20, -83785.42, -187500.02, 0.000, 0.000, 0.000, 12:56:16.133
116, -26863.40, -98342.53, -187500.02, -187500.02, -169445.94, 13849.59, -83801.60, -187500.02, -0.356, -0.022, -0.950, 12:56:16.133
117, -26858.01, -98326.35, -187500.02, -187500.02, -169488.28, 13890.40, -83758.24, -187500.02, 0.000, 0.000, 0.000, 12:56:16.133
118, -26749.38, -98342.80, -187500.02, -187500.02, -169552.80, 13905.71, -83729.95, -187500.02, 0.000, 0.000, 0.000, 12:56:16.134
119, -26697.62, -98406.70, -187500.02, -187500.02, -169667.42, 13872.16, -83751.80, -187500.02, 0.000, 0.000, 0.000, 12:56:16.134
120, -26828.28, -98445.64, -187500.02, -187500.02, -169769.94, 13853.23, -83771.41, -187500.02, 0.000, 0.000, 0.000, 12:56:16.597
121, -26864.92, -98481.52, -187500.02, -187500.02, -169867.23, 13840.18, -83787.79, -187500.02, 0.000, 0.000, 0.000, 12:56:16.598
122, -26782.60, -98488.38, -187500.02, -187500.02, -169923.41, 13867.31, -83756.43, -187500.02, 0.000, 0.000, 0.000, 12:56:16.598
123, -26734.56, -98507.58, -187500.02, -187500.02, -169992.03, 13879.56, -83730.57, -187500.02, 0.000, 0.000, 0.000, 12:56:16.598
124, -26835.53, -98556.70, -187500.02, -187500.02, -170104.75, 13851.89, -83756.99, -187500.02, 0.000, 0.000, 0.000, 12:56:16.598
125, -26861.52, -98591.69, -187500.02, -187500.02, -170203.44, 13837.99, -83773.30, -187500.02, 0.000, 0.000, 0.000, 12:56:16.598
126, -26800.70, -98597.41, -187500.02, -187500.02, -170262.27, 13860.12, -83742.95, -187500.02, -0.348, -0.020, -0.950, 12:56:16.599
127, -26727.79, -98601.09, -187500.02, -187500.02, -170311.92, 13890.33, -83700.15, -187500.02, 0.000, 0.000, 0.000, 12:56:16.599
128, -26807.16, -98639.41, -187500.02, -187500.02, -170408.11, 13878.38, -83708.48, -187500.02, 0.000, 0.000, 0.000, 12:56:16.599
129, -26866.51, -98684.91, -187500.02, -187500.02, -170518.09, 13854.01, -83736.78, -187500.02, 0.000, 0.000, 0.000, 12:56:16.599
130, -26811.61, -98708.56, -187500.02, -187500.02, -170594.91, 13858.48, -83729.99, -187500.02, 0.000, 0.000, 0.000, 12:56:16.599
131, -26727.54, -98703.47, -187500.02, -187500.02, -170637.09, 13895.05, -83680.48, -187500.02, 0.000, 0.000, 0.000, 12:56:16.599
132, -26789.50, -98733.13, -187500.02, -187500.02, -170727.06, 13887.45, -83680.57, -187500.02, 0.000, 0.000, 0.000, 12:56:16.599
133, -26879.87, -98744.15, -187500.02, -187500.02, -170804.20, 13892.03, -83675.14, -187500.02, 0.000, 0.000, 0.000, 12:56:16.599
134, -26835.10, -98770.61, -187500.02, -187500.02, -170886.09, 13890.67, -83670.83, -187500.02, 0.000, 0.000, 0.000, 12:56:16.600
135, -26720.84, -98820.52, -187500.02, -187500.02, -170983.69, 13874.91, -83677.82, -187500.02, -0.348, -0.026, -0.956, 12:56:16.600
136, -26748.71, -98872.13, -187500.02, -187500.02, -171088.05, 13851.04, -83697.06, -187500.02, 0.000, 0.000, 0.000, 12:56:16.600
137, -26873.61, -98885.08, -187500.02, -187500.02, -171163.38, 13857.01, -83692.23, -187500.02, 0.000, 0.000, 0.000, 12:56:16.600
138, -26878.66, -98863.38, -187500.02, -187500.02, -171196.34, 13903.75, -83642.02, -187500.02, 0.000, 0.000, 0.000, 12:56:16.600
139, -26759.04, -98868.53, -187500.02, -187500.02, -171248.31, 13928.44, -83603.26, -187500.02, 0.000, 0.000, 0.000, 12:56:16.600
140, -26762.73, -98926.98, -187500.02, -187500.02, -171359.73, 13897.40, -83625.18, -187500.02, 0.000, 0.000, 0.000, 12:56:16.600
141, -26848.85, -98953.00, -187500.02, -187500.02, -171448.30, 13890.92, -83631.09, -187500.02, 0.000, 0.000, 0.000, 12:56:16.600
142, -26810.45, -98971.66, -187500.02, -187500.02, -171525.25, 13894.27, -83624.78, -187500.02, 0.000, 0.000, 0.000, 12:56:16.600
143, -26742.50, -98988.66, -187500.02, -187500.02, -171589.33, 13908.98, -83600.70, -187500.02, 0.000, 0.000, 0.000, 12:56:16.601
144, -26691.65, -99075.20, -187500.02, -187500.02, -171723.47, 13854.01, -83648.02, -187500.02, 0.000, 0.000, 0.000, 12:56:16.601
145, -26822.56, -99113.82, -187500.02, -187500.02, -171822.53, 13838.32, -83665.62, -187500.02, -0.354, -0.022, -0.952, 12:56:16.601
146, -26867.11, -99109.77, -187500.02, -187500.02, -171881.25, 13865.23, -83639.51, -187500.02, 0.000, 0.000, 0.000, 12:56:16.601
147, -26789.84, -99107.50, -187500.02, -187500.02, -171932.56, 13897.71, -83601.18, -187500.02, 0.000, 0.000, 0.000, 12:56:16.601
148, -26706.98, -99148.22, -187500.02, -187500.02, -172023.38, 13888.10, -83600.91, -187500.02, 0.000, 0.000, 0.000, 12:56:16.601
149, -26801.57, -99192.32, -187500.02, -187500.02, -172128.00, 13868.21, -83620.47, -187500.02, 0.000, 0.000, 0.000, 12:56:16.601
150, -26835.46, -99246.21, -187500.02, -187500.02, -172244.28, 13837.27, -83653.77, -187500.02, 0.000, 0.000, 0.000, 12:56:16.601
151, -26777.54, -99287.12, -187500.02, -187500.02, -172337.36, 13828.17, -83661.50, -187500.02, 0.000, 0.000, 0.000, 12:56:16.601
152, -26703.23, -99304.55, -187500.02, -187500.02, -172402.02, 13844.85, -83637.37, -187500.02, 0.000, 0.000, 0.000, 12:56:16.602
153, -26797.08, -99319.10, -187500.02, -187500.02, -172473.08, 13855.44, -83623.23, -187500.02, 0.000, 0.000, 0.000, 12:56:16.602
154, -26874.46, -99314.99, -187500.02, -187500.02, -172531.91, 13878.89, -83600.87, -187500.02, 0.000, 0.000, 0.000, 12:56:16.602
155, -26807.90, -99340.63, -187500.02, -187500.02, -172611.61, 13880.92, -83597.06, -187500.02, -0.356, -0.018, -0.952, 12:56:16.602
156, -26711.52, -99359.13, -187500.02, -187500.02, -172676.97, 13895.23, -83573.39, -187500.02, 0.000, 0.000, 0.000, 12:56:16.602
157, -26765.59, -99425.07, -187500.02, -187500.02, -172796.66, 13858.46, -83609.54, -187500.02, 0.000, 0.000, 0.000, 12:56:16.602
158, -26872.59, -99412.24, -187500.02, -187500.02, -172844.02, 13895.99, -83575.70, -187500.02, 0.000, 0.000, 0.000, 12:56:16.602
159, -26838.25, -99444.27, -187500.02, -187500.02, -172931.22, 13892.41, -83579.41, -187500.02, 0.000, 0.000, 0.000, 12:56:16.602
160, -26719.47, -99470.78, -187500.02, -187500.02, -173006.61, 13897.42, -83565.48, -187500.02, 0.000, 0.000, 0.000, 12:56:16.602
161, -26746.52, -99548.72, -187500.02, -187500.02, -173139.64, 13847.29, -83609.91, -187500.02, 0.000, 0.000, 0.000, 12:56:16.603
162, -26880.68, -99552.68, -187500.02, -187500.02, -173202.41, 13863.96, -83593.63, -187500.02, 0.000, 0.000, 0.000, 12:56:16.603
163, -26852.94, -99526.86, -187500.02, -187500.02, -173230.42, 13913.65, -83540.67, -187500.02, 0.000, 0.000, 0.000, 12:56:16.603
164, -26749.07, -99552.14, -187500.02, -187500.02, -173303.59, 13916.17, -83526.92, -187500.02, 0.000, 0.000, 0.000, 12:56:16.603
165, -26735.61, -99632.16, -187500.02, -187500.02, -173434.64, 13863.85, -83572.09, -187500.02, -0.358, -0.020, -0.948, 12:56:16.603
166, -26867.58, -99658.83, -187500.02, -187500.02, -173523.41, 13859.85, -83579.70, -187500.02, 0.000, 0.000, 0.000, 12:56:16.603
167, -26827.46, -99664.01, -187500.02, -187500.02, -173585.83, 13881.68, -83560.02, -187500.02, 0.000, 0.000, 0.000, 12:56:16.603
168, -26739.44, -99662.65, -187500.02, -187500.02, -173630.94, 13914.34, -83518.50, -187500.02, 0.000, 0.000, 0.000, 12:56:16.603
169, -26729.47, -99735.73, -187500.02, -187500.02, -173754.23, 13872.59, -83554.87, -187500.02, 0.000, 0.000, 0.000, 12:56:16.604
170, -26831.30, -99747.09, -187500.02, -187500.02, -173829.53, 13882.42, -83548.49, -187500.02, 0.000, 0.000, 0.000, 12:56:16.604
171, -26858.86, -99767.70, -187500.02, -187500.02, -173911.05, 13885.44, -83549.09, -187500.02, 0.000, 0.000, 0.000, 12:56:16.604
172, -26766.91, -99767.25, -187500.02, -187500.02, -173960.38, 13916.55, -83513.20, -187500.02, 0.000, 0.000, 0.000, 12:56:16.604
173, -26710.65, -99813.84, -187500.02, -187500.02, -174054.19, 13900.68, -83517.38, -187500.02, 0.000, 0.000, 0.000, 12:56:16.604
174, -26805.53, -99847.90, -187500.02, -187500.02, -174148.02, 13889.93, -83526.01, -187500.02, 0.000, 0.000, 0.000, 12:56:16.604
175, -26857.88, -99851.45, -187500.02, -187500.02, -174214.92, 13905.69, -83510.54, -187500.02, -0.360, -0.022, -0.948, 12:56:16.604
176, -26779.65, -99849.17, -187500.02, -187500.02, -174265.22, 13933.58, -83476.70, -187500.02, 0.000, 0.000, 0.000, 12:56:16.604
177, -26685.39, -99893.52, -187500.02, -187500.02, -174354.70, 13921.00, -83479.65, -187500.02, 0.000, 0.000, 0.000, 12:56:16.604
178, -26778.75, -99979.13, -187500.02, -187500.02, -174496.75, 13861.79, -83539.04, -187500.02, 0.000, 0.000, 0.000, 12:56:16.605
179, -26870.55, -99988.05, -187500.02, -187500.02, -174567.72, 13875.25, -83530.61, -187500.02, 0.000, 0.000, 0.000, 12:56:16.605
180, -26817.09, -99995.69, -187500.02, -187500.02, -174629.95, 13893.71, -83509.63, -187500.02, 0.000, 0.000, 0.000, 12:56:16.605
181, -26712.57, -100012.43, -187500.02, -187500.02, -174693.31, 13905.24, -83487.18, -187500.02, 0.000, 0.000, 0.000, 12:56:16.605
182, -26762.50, -100074.99, -187500.02, -187500.02, -174812.14, 13865.19, -83523.84, -187500.02, 0.000, 0.000, 0.000, 12:56:16.605
183, -26866.08, -100087.55, -187500.02, -187500.02, -174889.25, 13871.67, -83522.90, -187500.02, 0.000, 0.000, 0.000, 12:56:16.605
184, -26832.42, -100069.94, -187500.02, -187500.02, -174926.67, 13914.59, -83478.87, -187500.02, 0.000, 0.000, 0.000, 12:56:16.605
185, -26718.63, -100077.09, -187500.02, -187500.02, -174979.17, 13939.08, -83445.12, -187500.02, -0.354, -0.018, -0.948, 12:56:16.605
186, -26740.15, -100159.20, -187500.02, -187500.02, -175113.39, 13883.85, -83496.10, -187500.02, 0.000, 0.000, 0.000, 12:56:16.605
187, -26843.19, -100193.39, -187500.02, -187500.02, -175211.81, 13869.46, -83517.18, -187500.02, 0.000, 0.000, 0.000, 12:56:16.606
188, -26843.33, -100193.84, -187500.02, -187500.02, -175271.88, 13892.79, -83495.03, -187500.02, 0.000, 0.000, 0.000, 12:56:16.606
189, -26740.75, -100174.05, -187500.02, -187500.02, -175299.92, 13941.41, -83435.57, -187500.02, 0.000, 0.000, 0.000, 12:56:16.606
190, -26721.55, -100227.77, -187500.02, -187500.02, -175403.75, 13913.00, -83453.90, -187500.02, 0.000, 0.000, 0.000, 12:56:16.606
191, -26862.41, -100267.77, -187500.02, -187500.02, -175507.28, 13891.25, -83480.43, -187500.02, 0.000, 0.000, 0.000, 12:56:16.606
192, -26870.64, -100271.09, -187500.02, -187500.02, -175567.69, 13908.28, -83465.95, -187500.02, 0.000, 0.000, 0.000, 12:56:16.606
193, -26764.85, -100285.39, -187500.02, -187500.02, -175627.75, 13923.35, -83444.67, -187500.02, 0.000, 0.000, 0.000, 12:56:16.606
194, -26711.47, -100340.64, -187500.02, -187500.02, -175727.91, 13899.10, -83460.90, -187500.02, 0.000, 0.000, 0.000, 12:56:16.606
195, -26847.15, -100330.85, -187500.02, -187500.02, -175774.61, 13929.14, -83429.65, -187500.02, -0.346, -0.018, -0.946, 12:56:16.606
196, -26859.35, -100336.04, -187500.02, -187500.02, -175839.25, 13942.26, -83415.16, -187500.02, 0.000, 0.000, 0.000, 12:56:16.607
197, -26772.11, -100360.83, -187500.02, -187500.02, -175917.56, 13944.11, -83408.05, -187500.02, 0.000, 0.000, 0.000, 12:56:16.607
198, -26676.34, -100378.77, -187500.02, -187500.02, -175983.06, 13954.19, -83387.25, -187500.02, 0.000, 0.000, 0.000, 12:56:16.607
199, -26797.55, -100411.54, -187500.02, -187500.02, -176074.45, 13941.30, -83398.20, -187500.02, 0.000, 0.000, 0.000, 12:56:16.607
200, -26862.91, -100438.59, -187500.02, -187500.02, -176165.58, 13930.19, -83410.98, -187500.02, 0.000, 0.000, 0.000, 12:56:16.607
201, -26788.50, -100443.06, -187500.02, -187500.02, -176223.06, 13950.24, -83387.47, -187500.02, 0.000, 0.000, 0.000, 12:56:16.607
202, -26716.17, -100454.37, -187500.02, -187500.02, -176278.61, 13969.57, -83358.81, -187500.02, 0.000, 0.000, 0.000, 12:56:16.607
203, -26783.69, -100503.63, -187500.02, -187500.02, -176386.02, 13940.13, -83384.43, -187500.02, 0.000, 0.000, 0.000, 12:56:16.607
204, -26851.04, -100571.52, -187500.02, -187500.02, -176519.03, 13887.88, -83440.38, -187500.02, 0.000, 0.000, 0.000, 12:56:16.608
205, -26807.32, -100576.30, -187500.02, -187500.02, -176576.25, 13908.31, -83418.41, -187500.02, -0.352, -0.016, -0.954, 12:56:16.608
206, -26719.05, -100559.29, -187500.02, -187500.02, -176604.91, 13952.99, -83362.66, -187500.02, 0.000, 0.000, 0.000, 12:56:16.608
207, -26746.37, -100622.84, -187500.02, -187500.02, -176722.98, 13912.55, -83398.63, -187500.02, 0.000, 0.000, 0.000, 12:56:16.608
208, -26865.25, -100673.21, -187500.02, -187500.02, -176837.30, 13881.35, -83437.63, -187500.02, 0.000, 0.000, 0.000, 12:56:16.608
209, -26846.32, -100649.70, -187500.02, -187500.02, -176867.50, 13929.90, -83387.47, -187500.02, 0.000, 0.000, 0.000, 12:56:16.608
210, -26721.98, -100671.16, -187500.02, -187500.02, -176934.28, 13938.84, -83367.00, -187500.02, 0.000, 0.000, 0.000, 12:56:16.608
211, -26748.71, -100738.44, -187500.02, -187500.02, -177054.80, 13897.04, -83403.70, -187500.02, 0.000, 0.000, 0.000, 12:56:16.608
212, -26855.15, -100736.96, -187500.02, -187500.02, -177116.73, 13915.46, -83387.45, -187500.02, 0.000, 0.000, 0.000, 12:56:16.609
213, -26827.46, -100721.36, -187500.02, -187500.02, -177157.27, 13951.15, -83348.80, -187500.02, 0.000, 0.000, 0.000, 12:56:16.609
214, -26716.01, -100742.59, -187500.02, -187500.02, -177225.95, 13956.72, -83333.88, -187500.02, 0.000, 0.000, 0.000, 12:56:16.609
215, -26710.87, -100820.96, -187500.02, -187500.02, -177354.73, 13906.45, -83377.73, -187500.02, -0.356, -0.018, -0.946, 12:56:16.609
216, -26850.68, -100861.05, -187500.02, -187500.02, -177457.63, 13884.14, -83405.87, -187500.02, 0.000, 0.000, 0.000, 12:56:16.609
217, -26860.07, -100854.51, -187500.02, -187500.02, -177507.95, 13910.94, -83381.75, -187500.02, 0.000, 0.000, 0.000, 12:56:16.609
218, -26760.78, -100839.98, -187500.02, -187500.02, -177541.75, 13953.14, -83332.11, -187500.02, 0.000, 0.000, 0.000, 12:56:16.610
219, -26711.59, -100895.62, -187500.02, -187500.02, -177646.50, 13925.78, -83351.77, -187500.02, 0.000, 0.000, 0.000, 12:56:16.610
220, -26827.01, -100964.10, -187500.02, -187500.02, -177776.58, 13875.20, -83406.09, -187500.02, 0.000, 0.000, 0.000, 12:56:16.610
221, -26879.85, -100993.11, -187500.02, -187500.02, -177865.47, 13865.93, -83420.10, -187500.02, 0.000, 0.000, 0.000, 12:56:16.610
222, -26792.03, -100958.94, -187500.02, -187500.02, -177878.80, 13926.77, -83351.93, -187500.02, 0.000, 0.000, 0.000, 12:56:16.610
223, -26702.42, -100983.99, -187500.02, -187500.02, -177949.70, 13929.63, -83339.10, -187500.02, 0.000, 0.000, 0.000, 12:56:16.610
224, -26773.12, -100993.94, -187500.02, -187500.02, -178017.78, 13938.23, -83328.17, -187500.02, 0.000, 0.000, 0.000, 12:56:16.610
225, -26855.49, -101015.55, -187500.02, -187500.02, -178099.45, 13934.10, -83336.33, -187500.02, -0.360, -0.018, -0.948, 12:56:16.610
226, -26804.68, -101029.14, -187500.02, -187500.02, -178162.50, 13945.79, -83322.36, -187500.02, 0.000, 0.000, 0.000, 12:56:16.610
227, -26711.18, -101042.87, -187500.02, -187500.02, -178221.31, 13959.58, -83297.48, -187500.02, 0.000, 0.000, 0.000, 12:56:16.611
228, -26757.07, -101105.68, -187500.02, -187500.02, -178339.89, 13916.04, -83338.19, -187500.02, 0.000, 0.000, 0.000, 12:56:16.611
229, -26846.50, -101106.52, -187500.02, -187500.02, -178403.30, 13930.25, -83326.32, -187500.02, 0.000, 0.000, 0.000, 12:56:16.611
230, -26813.84, -101115.42, -187500.02, -187500.02, -178467.59, 13943.15, -83309.60, -187500.02, 0.000, 0.000, 0.000, 12:56:16.611
231, -26719.92, -101137.15, -187500.02, -187500.02, -178534.91, 13952.03, -83290.22, -187500.02, 0.000, 0.000, 0.000, 12:56:16.611
232, -26746.45, -101183.86, -187500.02, -187500.02, -178634.05, 13930.08, -83308.16, -187500.02, 0.000, 0.000, 0.000, 12:56:16.611
233, -26856.40, -101213.88, -187500.02, -187500.02, -178728.14, 13916.11, -83327.23, -187500.02, 0.000, 0.000, 0.000, 12:56:16.611
234, -26836.62, -101211.71, -187500.02, -187500.02, -178781.27, 13940.16, -83301.62, -187500.02, 0.000, 0.000, 0.000, 12:56:16.611
235, -26716.32, -101229.35, -187500.02, -187500.02, -178843.63, 13949.59, -83280.23, -187500.02, -0.356, -0.016, -0.948, 12:56:16.611
236, -26709.19, -101290.59, -187500.02, -187500.02, -178954.36, 13912.44, -83309.35, -187500.02, 0.000, 0.000, 0.000, 12:56:16.612
237, -26828.28, -101321.68, -187500.02, -187500.02, -179046.00, 13899.75, -83326.49, -187500.02, 0.000, 0.000, 0.000, 12:56:16.612
238, -26841.63, -101298.51, -187500.02, -187500.02, -179076.56, 13947.02, -83281.97, -187500.02, 0.000, 0.000, 0.000, 12:56:16.612
239, -26751.13, -101272.58, -187500.02, -187500.02, -179095.92, 14001.71, -83218.05, -187500.02, 0.000, 0.000, 0.000, 12:56:16.612
240, -26717.02, -101346.88, -187500.02, -187500.02, -179219.81, 13951.98, -83258.41, -187500.02, 0.000, 0.000, 0.000, 12:56:17.077
241, -26825.47, -101367.21, -187500.02, -187500.02, -179300.13, 13947.04, -83261.84, -187500.02, 0.000, 0.000, 0.000, 12:56:17.078
242, -26849.83, -101384.73, -187500.02, -187500.02, -179374.69, 13947.17, -83260.02, -187500.02, 0.000, 0.000, 0.000, 12:56:17.078
243, -26756.87, -101385.70, -187500.02, -187500.02, -179421.98, 13974.09, -83227.26, -187500.02, 0.000, 0.000, 0.000, 12:56:17.078
244, -26687.96, -101423.41, -187500.02, -187500.02, -179504.02, 13964.68, -83226.52, -187500.02, -0.354, -0.020, -0.948, 12:56:17.078
245, -26809.49, -101455.57, -187500.02, -187500.02, -179593.38, 13950.53, -83239.34, -187500.02, 0.000, 0.000, 0.000, 12:56:17.078
246, -26857.05, -101471.20, -187500.02, -187500.02, -179667.00, 13952.27, -83238.16, -187500.02, 0.000, 0.000, 0.000, 12:56:17.078
247, -26761.61, -101472.45, -187500.02, -187500.02, -179714.59, 13978.42, -83205.55, -187500.02, 0.000, 0.000, 0.000, 12:56:17.078
248, -26691.02, -101520.81, -187500.02, -187500.02, -179805.81, 13960.36, -83214.63, -187500.02, 0.000, 0.000, 0.000, 12:56:17.078
249, -26791.36, -101569.05, -187500.02, -187500.02, -179910.17, 13932.47, -83241.85, -187500.02, 0.000, 0.000, 0.000, 12:56:17.079
250, -26865.48, -101599.56, -187500.02, -187500.02, -180002.70, 13919.55, -83258.88, -187500.02, 0.000, 0.000, 0.000, 12:56:17.079
251, -26812.97, -101598.53, -187500.02, -187500.02, -180052.03, 13947.51, -83230.95, -187500.02, 0.000, 0.000, 0.000, 12:56:17.079
252, -26673.81, -101576.96, -187500.02, -187500.02, -180074.56, 13997.65, -83171.30, -187500.02, 0.000, 0.000, 0.000, 12:56:17.079
253, -26742.10, -101620.13, -187500.02, -187500.02, -180172.56, 13974.98, -83188.56, -187500.02, 0.000, 0.000, 0.000, 12:56:17.079
254, -26850.12, -101635.86, -187500.02, -187500.02, -180248.55, 13976.97, -83187.24, -187500.02, -0.354, -0.020, -0.952, 12:56:17.079
255, -26810.83, -101656.06, -187500.02, -187500.02, -180318.27, 13979.43, -83180.88, -187500.02, 0.000, 0.000, 0.000, 12:56:17.079
0, -26699.45, -101652.80, -187500.02, -187500.02, -180356.64, 14010.92, -83138.56, -187500.02, 0.000, 0.000, 0.000, 12:56:17.080
1, -26737.54, -101701.40, -187500.02, -187500.02, -180456.89, 13985.71, -83157.98, -187500.02, 0.000, 0.000, 0.000, 12:56:17.080
2, -26863.87, -101704.62, -187500.02, -187500.02, -180519.41, 13999.86, -83148.24, -187500.02, 0.000, 0.000, 0.000, 12:56:17.080
3, -26823.61, -101710.91, -187500.02, -187500.02, -180580.05, 14014.86, -83134.90, -187500.02, 0.000, 0.000, 0.000, 12:56:17.080
4, -26722.09, -101708.80, -187500.02, -187500.02, -180624.83, 14043.51, -83098.93, -187500.02, 0.000, 0.000, 0.000, 12:56:17.080
5, -26722.67, -101794.67, -187500.02, -187500.02, -180762.31, 13982.54, -83157.59, -187500.02, 0.000, 0.000, 0.000, 12:56:17.080
6, -26835.15, -101807.21, -187500.02, -187500.02, -180833.30, 13991.03, -83155.23, -187500.02, 0.000, 0.000, 0.000, 12:56:17.080
7, -26828.04, -101829.65, -187500.02, -187500.02, -180910.91, 13990.27, -83158.57, -187500.02, 0.000, 0.000, 0.000, 12:56:17.080
8, -26738.34, -101802.85, -187500.02, -187500.02, -180928.58, 14043.00, -83097.57, -187500.02, -0.352, -0.020, -0.952, 12:56:17.080
9, -26708.88, -101833.41, -187500.02, -187500.02, -181005.36, 14036.18, -83094.04, -187500.02, 0.000, 0.000, 0.000, 12:56:17.081
10, -26822.72, -101843.06, -187500.02, -187500.02, -181074.09, 14042.48, -83088.83, -187500.02, 0.000, 0.000, 0.000, 12:56:17.081
11, -26861.95, -101841.30, -187500.02, -187500.02, -181130.55, 14063.34, -83069.79, -187500.02, 0.000, 0.000, 0.000, 12:56:17.081
12, -26780.23, -101831.82, -187500.02, -187500.02, -181169.33, 14097.33, -83029.09, -187500.02, 0.000, 0.000, 0.000, 12:56:17.081
13, -26705.66, -101886.31, -187500.02, -187500.02, -181270.83, 14066.38, -83049.89, -187500.02, 0.000, 0.000, 0.000, 12:56:17.081
14, -26801.17, -101916.98, -187500.02, -187500.02, -181359.61, 14053.21, -83062.55, -187500.02, 0.000, 0.000, 0.000, 12:56:17.081
15, -26842.83, -101940.80, -187500.02, -187500.02, -181443.88, 14046.22, -83071.41, -187500.02, 0.000, 0.000, 0.000, 12:56:17.081
16, -26772.23, -101998.98, -187500.02, -187500.02, -181553.31, 14012.84, -83101.64, -187500.02, 0.000, 0.000, 0.000, 12:56:17.081
17, -26694.49, -102033.32, -187500.02, -187500.02, -181631.70, 14007.75, -83100.48, -187500.02, 0.000, 0.000, 0.000, 12:56:17.081
18, -26782.06, -102058.64, -187500.02, -187500.02, -181711.03, 14003.03, -83104.30, -187500.02, -0.350, -0.020, -0.956, 12:56:17.082
19, -26842.41, -102025.23, -187500.02, -187500.02, -181738.16, 14049.77, -83056.09, -187500.02, 0.000, 0.000, 0.000, 12:56:17.082
20, -26784.92, -102016.24, -187500.02, -187500.02, -181781.84, 14078.45, -83022.22, -187500.02, 0.000, 0.000, 0.000, 12:56:17.082
21, -26683.00, -102039.27, -187500.02, -187500.02, -181848.83, 14083.59, -83008.16, -187500.02, 0.000, 0.000, 0.000, 12:56:17.082
22, -26766.24, -102095.81, -187500.02, -187500.02, -181956.84, 14048.79, -83039.37, -187500.02, 0.000, 0.000, 0.000, 12:56:17.082
23, -26870.33, -102110.30, -187500.02, -187500.02, -182032.63, 14047.62, -83041.22, -187500.02, 0.000, 0.000, 0.000, 12:56:17.082
24, -26834.72, -102087.88, -187500.02, -187500.02, -182063.27, 14089.78, -82995.71, -187500.02, 0.000, 0.000, 0.000, 12:56:17.082
25, -26720.53, -102105.76, -187500.02, -187500.02, -182125.98, 14096.31, -82977.63, -187500.02, 0.000, 0.000, 0.000, 12:56:17.083
26, -26724.10, -102210.66, -187500.02, -187500.02, -182284.64, 14010.90, -83058.79, -187500.02, 0.000, 0.000, 0.000, 12:56:17.083
27, -26841.65, -102219.69, -187500.02, -187500.02, -182352.66, 14019.53, -83054.70, -187500.02, 0.000, 0.000, 0.000, 12:56:17.083
28, -26827.93, -102153.08, -187500.02, -187500.02, -182337.80, 14106.99, -82963.62, -187500.02, -0.356, -0.024, -0.952, 12:56:17.083
29, -26703.79, -102145.81, -187500.02, -187500.02, -182375.72, 14137.37, -82920.43, -187500.02, 0.000, 0.000, 0.000, 12:56:17.084
30, -26711.52, -102203.66, -187500.02, -187500.02, -182484.53, 14099.93, -82949.22, -187500.02, 0.000, 0.000, 0.000, 12:56:17.084
31, -26835.77, -102268.64, -187500.02, -187500.02, -182610.55, 14048.32, -83003.29, -187500.02, 0.000, 0.000, 0.000, 12:56:17.084
32, -26838.65, -102271.43, -187500.02, -187500.02, -182668.00, 14064.12, -82989.32, -187500.02, 0.000, 0.000, 0.000, 12:56:17.084
33, -26744.73, -102256.23, -187500.02, -187500.02, -182696.72, 14104.75, -82941.33, -187500.02, 0.000, 0.000, 0.000, 12:56:17.085
34, -26707.05, -102272.51, -187500.02, -187500.02, -182758.94, 14111.17, -82923.54, -187500.02, 0.000, 0.000, 0.000, 12:56:17.085
35, -26805.57, -102333.66, -187500.02, -187500.02, -182878.17, 14066.73, -82970.16, -187500.02, 0.000, 0.000, 0.000, 12:56:17.085
36, -26854.66, -102318.19, -187500.02, -187500.02, -182917.14, 14101.69, -82937.35, -187500.02, 0.000, 0.000, 0.000, 12:56:17.085
37, -26762.26, -102293.09, -187500.02, -187500.02, -182937.91, 14150.96, -82877.63, -187500.02, 0.000, 0.000, 0.000, 12:56:17.086
38, -26693.73, -102355.52, -187500.02, -187500.02, -183047.22, 14112.47, -82905.43, -187500.02, -0.364, -0.020, -0.950, 12:56:17.086
39, -26793.50, -102402.93, -187500.02, -187500.02, -183149.58, 14083.61, -82934.73, -187500.02, 0.000, 0.000, 0.000, 12:56:17.086
40, -26853.36, -102412.59, -187500.02, -187500.02, -183213.80, 14093.51, -82928.34, -187500.02, 0.000, 0.000, 0.000, 12:56:17.086
41, -26783.00, -102423.38, -187500.02, -187500.02, -183272.92, 14105.51, -82913.08, -187500.02, 0.000, 0.000, 0.000, 12:56:17.087
42, -26695.78, -102417.37, -187500.02, -187500.02, -183310.92, 14135.51, -82871.84, -187500.02, 0.000, 0.000, 0.000, 12:56:17.087
43, -26778.22, -102483.51, -187500.02, -187500.02, -183434.70, 14085.73, -82918.95, -187500.02, 0.000, 0.000, 0.000, 12:56:17.087
44, -26867.40, -102483.08, -187500.02, -187500.02, -183495.28, 14100.87, -82908.67, -187500.02, 0.000, 0.000, 0.000, 12:56:17.087
45, -26795.54, -102468.64, -187500.02, -187500.02, -183530.81, 14136.90, -82869.85, -187500.02, 0.000, 0.000, 0.000, 12:56:17.088
46, -26691.29, -102485.23, -187500.02, -187500.02, -183590.98, 14146.49, -82848.48, -187500.02, 0.000, 0.000, 0.000, 12:56:17.088
47, -26749.76, -102538.04, -187500.02, -187500.02, -183695.66, 14112.04, -82876.35, -187500.02, 0.000, 0.000, 0.000, 12:56:17.088
48, -26864.47, -102554.77, -187500.02, -187500.02, -183769.63, 14109.72, -82880.89, -187500.02, -0.364, -0.020, -0.948, 12:56:17.088
49, -26845.45, -102539.49, -187500.02, -187500.02, -183805.00, 14141.86, -82843.63, -187500.02, 0.000, 0.000, 0.000, 12:56:17.089
50, -26718.89, -102534.66, -187500.02, -187500.02, -183844.13, 14168.17, -82805.59, -187500.02, 0.000, 0.000, 0.000, 12:56:17.089
51, -26704.01, -102601.63, -187500.02, -187500.02, -183961.72, 14120.94, -82847.77, -187500.02, 0.000, 0.000, 0.000, 12:56:17.089
52, -26825.15, -102638.13, -187500.02, -187500.02, -184056.86, 14102.21, -82872.35, -187500.02, 0.000, 0.000, 0.000, 12:56:17.089
53, -26831.39, -102643.48, -187500.02, -187500.02, -184114.42, 14118.08, -82857.34, -187500.02, 0.000, 0.000, 0.000, 12:56:17.090
54, -26720.48, -102616.34, -187500.02, -187500.02, -184131.78, 14168.23, -82796.54, -187500.02, 0.000, 0.000, 0.000, 12:56:17.090
55, -26690.06, -102690.51, -187500.02, -187500.02, -184255.02, 14115.30, -82843.09, -187500.02, 0.000, 0.000, 0.000, 12:56:17.090
56, -26818.40, -102741.71, -187500.02, -187500.02, -184364.05, 14082.02, -82883.88, -187500.02, 0.000, 0.000, 0.000, 12:56:17.090
57, -26832.31, -102743.45, -187500.02, -187500.02, -184418.34, 14100.58, -82869.56, -187500.02, 0.000, 0.000, 0.000, 12:56:17.091
58, -26751.17, -102681.43, -187500.02, -187500.02, -184397.45, 14186.52, -82773.55, -187500.02, -0.356, -0.020, -0.950, 12:56:17.091
59, -26705.28, -102733.24, -187500.02, -187500.02, -184495.38, 14157.73, -82791.55, -187500.02, 0.000, 0.000, 0.000, 12:56:17.091
60, -26832.13, -102773.59, -187500.02, -187500.02, -184593.59, 14133.83, -82816.66, -187500.02, 0.000, 0.000, 0.000, 12:56:17.092
61, -26858.46, -102767.98, -187500.02, -187500.02, -184643.75, 14155.76, -82794.26, -187500.02, 0.000, 0.000, 0.000, 12:56:17.092
62, -26762.23, -102775.09, -187500.02, -187500.02, -184695.13, 14172.19, -82768.44, -187500.02, 0.000, 0.000, 0.000, 12:56:17.092
63, -26684.96, -102849.72, -187500.02, -187500.02, -184813.38, 14120.89, -82810.80, -187500.02, 0.000, 0.000, 0.000, 12:56:17.092
64, -26800.23, -102913.59, -187500.02, -187500.02, -184933.31, 14073.95, -82861.71, -187500.02, 0.000, 0.000, 0.000, 12:56:17.093
65, -26848.89, -102889.68, -187500.02, -187500.02, -184966.00, 14112.91, -82825.15, -187500.02, 0.000, 0.000, 0.000, 12:56:17.093
66, -26765.32, -102919.37, -187500.02, -187500.02, -185045.53, 14103.91, -82829.10, -187500.02, 0.000, 0.000, 0.000, 12:56:17.093
67, -26694.11, -102927.08, -187500.02, -187500.02, -185097.22, 14120.29, -82802.02, -187500.02, 0.000, 0.000, 0.000, 12:56:17.094
68, -26780.72, -102939.86, -187500.02, -187500.02, -185163.34, 14124.36, -82793.70, -187500.02, -0.354, -0.014, -0.946, 12:56:17.094
69, -26854.70, -102957.20, -187500.02, -187500.02, -185240.66, 14119.53, -82800.60, -187500.02, 0.000, 0.000, 0.000, 12:56:17.094
70, -26802.18, -102976.95, -187500.02, -187500.02, -185309.19, 14119.64, -82797.36, -187500.02, 0.000, 0.000, 0.000, 12:56:17.094
71, -26697.57, -102995.98, -187500.02, -187500.02, -185369.97, 14126.15, -82781.05, -187500.02, 0.000, 0.000, 0.000, 12:56:17.095
72, -26750.50, -103076.88, -187500.02, -187500.02, -185503.69, 14066.00, -82839.48, -187500.02, 0.000, 0.000, 0.000, 12:56:17.095
73, -26846.01, -103054.10, -187500.02, -187500.02, -185539.45, 14103.32, -82804.78, -187500.02, 0.000, 0.000, 0.000, 12:56:17.095
74, -26799.16, -103024.38, -187500.02, -187500.02, -185560.13, 14153.01, -82751.95, -187500.02, 0.000, 0.000, 0.000, 12:56:17.095
75, -26707.07, -102998.00, -187500.02, -187500.02, -185577.19, 14203.75, -82687.62, -187500.02, 0.000, 0.000, 0.000, 12:56:17.096
76, -26707.81, -103079.98, -187500.02, -187500.02, -185708.66, 14141.75, -82740.95, -187500.02, 0.000, 0.000, 0.000, 12:56:17.096
77, -26823.86, -103122.43, -187500.02, -187500.02, -185808.95, 14114.32, -82771.73, -187500.02, 0.000, 0.000, 0.000, 12:56:17.096
78, -26828.04, -103088.68, -187500.02, -187500.02, -185826.56, 14166.00, -82718.55, -187500.02, -0.348, -0.012, -0.938, 12:56:17.096
79, -26733.02, -103104.50, -187500.02, -187500.02, -185885.17, 14173.11, -82701.81, -187500.02, 0.000, 0.000, 0.000, 12:56:17.097
80, -26697.55, -103135.59, -187500.02, -187500.02, -185962.19, 14162.22, -82703.15, -187500.02, 0.000, 0.000, 0.000, 12:56:17.097
81, -26812.79, -103165.16, -187500.02, -187500.02, -186048.19, 14146.13, -82720.95, -187500.02, 0.000, 0.000, 0.000, 12:56:17.097
82, -26830.07, -103184.97, -187500.02, -187500.02, -186120.94, 14142.42, -82725.88, -187500.02, 0.000, 0.000, 0.000, 12:56:17.097
83, -26744.51, -103186.02, -187500.02, -187500.02, -186166.08, 14163.67, -82696.80, -187500.02, 0.000, 0.000, 0.000, 12:56:17.098
84, -26692.50, -103209.27, -187500.02, -187500.02, -186233.41, 14163.14, -82687.37, -187500.02, 0.000, 0.000, 0.000, 12:56:17.098
85, -26804.10, -103236.73, -187500.02, -187500.02, -186318.25, 14147.45, -82701.25, -187500.02, 0.000, 0.000, 0.000, 12:56:17.098
86, -26836.26, -103246.28, -187500.02, -187500.02, -186383.41, 14150.64, -82698.30, -187500.02, 0.000, 0.000, 0.000, 12:56:17.098
87, -26766.88, -103239.91, -187500.02, -187500.02, -186421.52, 14177.84, -82662.96, -187500.02, -0.348, -0.016, -0.940, 12:56:17.099
88, -26683.60, -103261.28, -187500.02, -187500.02, -186486.94, 14178.47, -82651.30, -187500.02, 0.000, 0.000, 0.000, 12:56:17.099
89, -26769.03, -103318.74, -187500.02, -187500.02, -186599.22, 14137.46, -82691.44, -187500.02, 0.000, 0.000, 0.000, 12:56:17.099
90, -26845.81, -103324.96, -187500.02, -187500.02, -186661.28, 14146.51, -82685.78, -187500.02, 0.000, 0.000, 0.000, 12:56:17.099
91, -26811.01, -103348.36, -187500.02, -187500.02, -186732.77, 14144.97, -82686.41, -187500.02, 0.000, 0.000, 0.000, 12:56:17.100
92, -26698.26, -103380.01, -187500.02, -187500.02, -186809.53, 14135.71, -82688.42, -187500.02, 0.000, 0.000, 0.000, 12:56:17.100
93, -26734.79, -103397.38, -187500.02, -187500.02, -186880.84, 14134.95, -82686.66, -187500.02, 0.000, 0.000, 0.000, 12:56:17.100
94, -26844.20, -103386.23, -187500.02, -187500.02, -186928.09, 14159.45, -82665.48, -187500.02, 0.000, 0.000, 0.000, 12:56:17.100
95, -26794.53, -103354.73, -187500.02, -187500.02, -186947.66, 14208.49, -82611.40, -187500.02, 0.000, 0.000, 0.000, 12:56:17.101
96, -26681.99, -103389.63, -187500.02, -187500.02, -187029.16, 14194.72, -82614.01, -187500.02, 0.000, 0.000, 0.000, 12:56:17.101
97, -26734.72, -103466.89, -187500.02, -187500.02, -187160.22, 14135.47, -82670.65, -187500.02, -0.350, -0.020, -0.944, 12:56:17.101
98, -26846.59, -103457.52, -187500.02, -187500.02, -187210.25, 14155.27, -82652.77, -187500.02, 0.000, 0.000, 0.000, 12:56:17.101
99, -26801.91, -103454.62, -187500.02, -187500.02, -187260.83, 14171.36, -82631.87, -187500.02, 0.000, 0.000, 0.000, 12:56:17.102
100, -26709.26, -103459.25, -187500.02, -187500.02, -187308.64, 14188.93, -82604.83, -187500.02, 0.000, 0.000, 0.000, 12:56:17.102
101, -26730.99, -103494.88, -187500.02, -187500.02, -187391.08, 14173.26, -82614.15, -187500.02, 0.000, 0.000, 0.000, 12:56:17.102
102, -26819.79, -103498.16, -187500.02, -187500.02, -187452.00, 14182.36, -82605.00, -187500.02, 0.000, 0.000, 0.000, 12:56:17.103
103, -26812.53, -103527.17, -187500.02, -187500.02, -187500.02, 14167.79, -82618.80, -187500.02, 0.000, 0.000, 0.000, 12:56:17.103
104, -26722.40, -103547.63, -187500.02, -187500.02, -187500.02, 14167.16, -82612.18, -187500.02, 0.000, 0.000, 0.000, 12:56:17.556
105, -26712.81, -103599.55, -187500.02, -187500.02, -187500.02, 14134.93, -82635.73, -187500.02, 0.000, 0.000, 0.000, 12:56:17.556
106, -26832.58, -103579.12, -187500.02, -187500.02, -187500.02, 14168.14, -82602.70, -187500.02, 0.000, 0.000, 0.000, 12:56:17.557
107, -26821.18, -103579.74, -187500.02, -187500.02, -187500.02, 14182.65, -82588.89, -187500.02, -0.346, -0.020, -0.952, 12:56:17.557
108, -26735.90, -103588.04, -187500.02, -187500.02, -187500.02, 14198.41, -82567.03, -187500.02, 0.000, 0.000, 0.000, 12:56:17.557
109, -26685.34, -103625.77, -187500.02, -187500.02, -187500.02, 14183.10, -82575.25, -187500.02, 0.000, 0.000, 0.000, 12:56:17.557
110, -26803.94, -103657.75, -187500.02, -187500.02, -187500.02, 14165.28, -82595.23, -187500.02, 0.000, 0.000, 0.000, 12:56:17.557
111, -26827.75, -103672.13, -187500.02, -187500.02, -187500.02, 14165.71, -82598.14, -187500.02, 0.000, 0.000, 0.000, 12:56:17.557
112, -26766.53, -103669.45, -187500.02, -187500.02, -187500.02, 14190.65, -82568.44, -187500.02, 0.000, 0.000, 0.000, 12:56:17.557
113, -26677.54, -103698.84, -187500.02, -187500.02, -187500.02, 14183.54, -82567.25, -187500.02, 0.000, 0.000, 0.000, 12:56:17.558
114, -26764.60, -103726.22, -187500.02, -187500.02, -187500.02, 14170.31, -82579.79, -187500.02, 0.000, 0.000, 0.000, 12:56:17.558
115, -26849.52, -103719.31, -187500.02, -187500.02, -187500.02, 14188.64, -82560.52, -187500.02, 0.000, 0.000, 0.000, 12:56:17.558
116, -26769.83, -103714.46, -187500.02, -187500.02, -187500.02, 14213.94, -82529.52, -187500.02, 0.000, 0.000, 0.000, 12:56:17.558
117, -26691.47, -103747.61, -187500.02, -187500.02, -187500.02, 14203.64, -82530.66, -187500.02, -0.348, -0.018, -0.948, 12:56:17.558
118, -26767.20, -103810.48, -187500.02, -187500.02, -187500.02, 14156.86, -82575.86, -187500.02, 0.000, 0.000, 0.000, 12:56:17.558
119, -26866.77, -103802.91, -187500.02, -187500.02, -187500.02, 14175.99, -82560.45, -187500.02, 0.000, 0.000, 0.000, 12:56:17.559
120, -26818.36, -103781.02, -187500.02, -187500.02, -187500.02, 14215.89, -82519.27, -187500.02, 0.000, 0.000, 0.000, 12:56:17.559
121, -26669.34, -103768.84, -187500.02, -187500.02, -187500.02, 14249.77, -82476.77, -187500.02, 0.000, 0.000, 0.000, 12:56:17.559
122, -26714.38, -103828.50, -187500.02, -187500.02, -187500.02, 14207.53, -82516.24, -187500.02, 0.000, 0.000, 0.000, 12:56:17.559
123, -26837.20, -103851.50, -187500.02, -187500.02, -187500.02, 14195.73, -82529.81, -187500.02, 0.000, 0.000, 0.000, 12:56:17.560
124, -26801.17, -103849.53, -187500.02, -187500.02, -187500.02, 14214.21, -82508.53, -187500.02, 0.000, 0.000, 0.000, 12:56:17.560
125, -26697.17, -103848.93, -187500.02, -187500.02, -187500.02, 14238.49, -82475.21, -187500.02, 0.000, 0.000, 0.000, 12:56:17.560
126, -26707.47, -103871.91, -187500.02, -187500.02, -187500.02, 14234.19, -82472.46, -187500.02, 0.000, 0.000, 0.000, 12:56:17.560
127, -26835.21, -103945.47, -187500.02, -187500.02, -187500.02, 14172.23, -82537.41, -187500.02, -0.352, -0.016, -0.950, 12:56:17.560
128, -26851.11, -103959.44, -187500.02, -187500.02, -187500.02, 14175.25, -82538.55, -187500.02, 0.000, 0.000, 0.000, 12:56:17.560
129, -26728.26, -103924.88, -187500.02, -187500.02, -187500.02, 14234.10, -82473.73, -187500.02, 0.000, 0.000, 0.000, 12:56:17.561
130, -26669.90, -103962.32, -187500.02, -187500.02, -187500.02, 14217.85, -82481.09, -187500.02, 0.000, 0.000, 0.000, 12:56:17.561
131, -26805.46, -104010.17, -187500.02, -187500.02, -187500.02, 14181.94, -82519.44, -187500.02, 0.000, 0.000, 0.000, 12:56:17.568
132, -26841.79, -104016.39, -187500.02, -187500.02, -187500.02, 14190.14, -82513.05, -187500.02, 0.000, 0.000, 0.000, 12:56:17.568
133, -26743.17, -103975.84, -187500.02, -187500.02, -187500.02, 14250.47, -82444.05, -187500.02, 0.000, 0.000, 0.000, 12:56:17.568
134, -26665.03, -104008.05, -187500.02, -187500.02, -187500.02, 14237.19, -82445.57, -187500.02, 0.000, 0.000, 0.000, 12:56:17.568
135, -26785.50, -104087.82, -187500.02, -187500.02, -187500.02, 14170.20, -82515.24, -187500.02, 0.000, 0.000, 0.000, 12:56:17.569
136, -26846.93, -104073.59, -187500.02, -187500.02, -187500.02, 14197.29, -82492.15, -187500.02, 0.000, 0.000, 0.000, 12:56:17.569
137, -26782.87, -104035.30, -187500.02, -187500.02, -187500.02, 14253.68, -82428.07, -187500.02, -0.354, -0.020, -0.952, 12:56:17.569
138, -26676.11, -104084.72, -187500.02, -187500.02, -187500.02, 14224.07, -82443.89, -187500.02, 0.000, 0.000, 0.000, 12:56:17.569
139, -26766.68, -104142.25, -187500.02, -187500.02, -187500.02, 14180.15, -82486.14, -187500.02, 0.000, 0.000, 0.000, 12:56:17.569
140, -26838.65, -104141.55, -187500.02, -187500.02, -187500.02, 14192.42, -82479.05, -187500.02, 0.000, 0.000, 0.000, 12:56:17.569
141, -26770.26, -104138.95, -187500.02, -187500.02, -187500.02, 14212.87, -82454.33, -187500.02, 0.000, 0.000, 0.000, 12:56:17.569
142, -26666.88, -104156.73, -187500.02, -187500.02, -187500.02, 14217.09, -82439.47, -187500.02, 0.000, 0.000, 0.000, 12:56:17.570
143, -26738.27, -104192.01, -187500.02, -187500.02, -187500.02, 14198.07, -82454.66, -187500.02, 0.000, 0.000, 0.000, 12:56:17.570
144, -26832.31, -104203.41, -187500.02, -187500.02, -187500.02, 14196.15, -82457.68, -187500.02, 0.000, 0.000, 0.000, 12:56:17.570
145, -26788.72, -104216.59, -187500.02, -187500.02, -187500.02, 14198.59, -82451.98, -187500.02, 0.000, 0.000, 0.000, 12:56:17.570
146, -26697.08, -104227.61, -187500.02, -187500.02, -187500.02, 14210.37, -82430.15, -187500.02, 0.000, 0.000, 0.000, 12:56:17.570
147, -26729.31, -104294.45, -187500.02, -187500.02, -187500.02, 14160.92, -82476.95, -187500.02, -0.354, -0.022, -0.954, 12:56:17.570
148, -26834.39, -104261.72, -187500.02, -187500.02, -187500.02, 14203.37, -82436.12, -187500.02, 0.000, 0.000, 0.000, 12:56:17.570
149, -26823.72, -104240.53, -187500.02, -187500.02, -187500.02, 14237.52, -82399.05, -187500.02, 0.000, 0.000, 0.000, 12:56:17.570
150, -26724.39, -104277.27, -187500.02, -187500.02, -187500.02, 14221.83, -82408.71, -187500.02, 0.000, 0.000, 0.000, 12:56:17.571
151, -26737.47, -104301.64, -187500.02, -187500.02, -187500.02, 14218.23, -82409.54, -187500.02, 0.000, 0.000, 0.000, 12:56:17.571
152, -26819.10, -104307.70, -187500.02, -187500.02, -187500.02, 14224.72, -82405.45, -187500.02, 0.000, 0.000, 0.000, 12:56:17.571
153, -26792.54, -104318.49, -187500.02, -187500.02, -187500.02, 14228.25, -82404.11, -187500.02, 0.000, 0.000, 0.000, 12:56:17.571
154, -26727.50, -104290.55, -187500.02, -187500.02, -187500.02, 14276.75, -82348.05, -187500.02, 0.000, 0.000, 0.000, 12:56:17.571
155, -26703.43, -104325.11, -187500.02, -187500.02, -187500.02, 14262.00, -82356.01, -187500.02, 0.000, 0.000, 0.000, 12:56:17.571
156, -26808.17, -104360.27, -187500.02, -187500.02, -187500.02, 14238.22, -82380.39, -187500.02, 0.000, 0.000, 0.000, 12:56:17.571
157, -26822.96, -104366.04, -187500.02, -187500.02, -187500.02, 14244.45, -82374.83, -187500.02, -0.352, -0.022, -0.950, 12:56:17.572
158, -26739.21, -104371.71, -187500.02, -187500.02, -187500.02, 14256.97, -82354.35, -187500.02, 0.000, 0.000, 0.000, 12:56:17.572
159, -26665.27, -104407.37, -187500.02, -187500.02, -187500.02, 14238.33, -82360.74, -187500.02, 0.000, 0.000, 0.000, 12:56:17.572
160, -26776.14, -104444.96, -187500.02, -187500.02, -187500.02, 14210.21, -82387.99, -187500.02, 0.000, 0.000, 0.000, 12:56:17.572
161, -26838.43, -104438.09, -187500.02, -187500.02, -187500.02, 14227.02, -82373.46, -187500.02, 0.000, 0.000, 0.000, 12:56:17.572
162, -26761.36, -104437.70, -187500.02, -187500.02, -187500.02, 14245.17, -82349.55, -187500.02, 0.000, 0.000, 0.000, 12:56:17.572
163, -26661.18, -104465.57, -187500.02, -187500.02, -187500.02, 14235.85, -82345.86, -187500.02, 0.000, 0.000, 0.000, 12:56:17.572
164, -26763.58, -104489.06, -187500.02, -187500.02, -187500.02, 14222.71, -82355.34, -187500.02, 0.000, 0.000, 0.000, 12:56:17.572
165, -26840.20, -104478.95, -187500.02, -187500.02, -187500.02, 14241.32, -82337.21, -187500.02, 0.000, 0.000, 0.000, 12:56:17.573
166, -26768.29, -104475.72, -187500.02, -187500.02, -187500.02, 14262.49, -82312.20, -187500.02, 0.000, 0.000, 0.000, 12:56:17.573
167, -26659.01, -104483.18, -187500.02, -187500.02, -187500.02, 14277.09, -82287.36, -187500.02, -0.354, -0.022, -0.944, 12:56:17.573
168, -26718.58, -104549.97, -187500.02, -187500.02, -187500.02, 14226.86, -82335.62, -187500.02, 0.000, 0.000, 0.000, 12:56:17.573
169, -26831.57, -104544.60, -187500.02, -187500.02, -187500.02, 14243.11, -82322.57, -187500.02, 0.000, 0.000, 0.000, 12:56:17.573
170, -26805.98, -104541.59, -187500.02, -187500.02, -187500.02, 14260.97, -82302.12, -187500.02, 0.000, 0.000, 0.000, 12:56:17.573
171, -26707.07, -104524.55, -187500.02, -187500.02, -187500.02, 14297.14, -82254.17, -187500.02, 0.000, 0.000, 0.000, 12:56:17.573
172, -26697.55, -104569.21, -187500.02, -187500.02, -187500.02, 14268.30, -82276.79, -187500.02, 0.000, 0.000, 0.000, 12:56:17.574
173, -26810.65, -104571.20, -187500.02, -187500.02, -187500.02, 14276.35, -82274.04, -187500.02, 0.000, 0.000, 0.000, 12:56:17.574
174, -26795.31, -104597.94, -187500.02, -187500.02, -187500.02, 14262.83, -82287.85, -187500.02, 0.000, 0.000, 0.000, 12:56:17.574
175, -26678.01, -104631.89, -187500.02, -187500.02, -187500.02, 14248.81, -82296.37, -187500.02, 0.000, 0.000, 0.000, 12:56:17.574
176, -26684.41, -104671.07, -187500.02, -187500.02, -187500.02, 14225.63, -82314.30, -187500.02, 0.000, 0.000, 0.000, 12:56:17.574
177, -26835.66, -104681.71, -187500.02, -187500.02, -187500.02, 14226.13, -82317.34, -187500.02, -0.352, -0.026, -0.944, 12:56:17.574
178, -26841.22, -104700.09, -187500.02, -187500.02, -187500.02, 14224.09, -82322.41, -187500.02, 0.000, 0.000, 0.000, 12:56:17.574
179, -26719.14, -104652.97, -187500.02, -187500.02, -187500.02, 14291.33, -82244.38, -187500.02, 0.000, 0.000, 0.000, 12:56:17.575
180, -26664.60, -104699.05, -187500.02, -187500.02, -187500.02, 14262.09, -82259.98, -187500.02, 0.000, 0.000, 0.000, 12:56:17.575
181, -26793.08, -104752.52, -187500.02, -187500.02, -187500.02, 14220.42, -82302.27, -187500.02, 0.000, 0.000, 0.000, 12:56:17.575
182, -26848.80, -104738.17, -187500.02, -187500.02, -187500.02, 14247.20, -82277.87, -187500.02, 0.000, 0.000, 0.000, 12:56:17.575
183, -26745.87, -104729.61, -187500.02, -187500.02, -187500.02, 14272.75, -82243.27, -187500.02, 0.000, 0.000, 0.000, 12:56:17.575
184, -26664.04, -104794.63, -187500.02, -187500.02, -187500.02, 14227.94, -82277.64, -187500.02, 0.000, 0.000, 0.000, 12:56:17.576
185, -26783.45, -104850.04, -187500.02, -187500.02, -187500.02, 14186.90, -82321.78, -187500.02, 0.000, 0.000, 0.000, 12:56:17.576
186, -26826.96, -104817.70, -187500.02, -187500.02, -187500.02, 14230.71, -82281.44, -187500.02, 0.000, 0.000, 0.000, 12:56:17.576
187, -26773.59, -104771.70, -187500.02, -187500.02, -187500.02, 14294.01, -82211.32, -187500.02, -0.356, -0.024, -0.950, 12:56:17.576
188, -26675.82, -104796.42, -187500.02, -187500.02, -187500.02, 14290.32, -82204.04, -187500.02, 0.000, 0.000, 0.000, 12:56:17.576
189, -26754.17, -104852.23, -187500.02, -187500.02, -187500.02, 14248.14, -82246.19, -187500.02, 0.000, 0.000, 0.000, 12:56:17.576
190, -26838.61, -104887.37, -187500.02, -187500.02, -187500.02, 14223.71, -82274.84, -187500.02, 0.000, 0.000, 0.000, 12:56:17.576
191, -26776.36, -104887.28, -187500.02, -187500.02, -187500.02, 14239.20, -82255.34, -187500.02, 0.000, 0.000, 0.000, 12:56:17.577
192, -26666.10, -104901.85, -187500.02, -187500.02, -187500.02, 14246.49, -82239.58, -187500.02, 0.000, 0.000, 0.000, 12:56:17.577
193, -26715.34, -104976.33, -187500.02, -187500.02, -187500.02, 14186.16, -82297.87, -187500.02, 0.000, 0.000, 0.000, 12:56:17.577
194, -26811.12, -105007.55, -187500.02, -187500.02, -187500.02, 14164.34, -82324.47, -187500.02, 0.000, 0.000, 0.000, 12:56:17.577
195, -26803.59, -105018.20, -187500.02, -187500.02, -187500.02, 14169.78, -82319.46, -187500.02, 0.000, 0.000, 0.000, 12:56:17.603
196, -26699.92, -105021.01, -187500.02, -187500.02, -187500.02, 14187.79, -82292.44, -187500.02, -0.356, -0.020, -0.950, 12:56:17.603
197, -26726.65, -105108.34, -187500.02, -187500.02, -187500.02, 14118.79, -82360.05, -187500.02, 0.000, 0.000, 0.000, 12:56:17.603
198, -26837.67, -105077.91, -187500.02, -187500.02, -187500.02, 14160.70, -82322.73, -187500.02, 0.000, 0.000, 0.000, 12:56:17.604
199, -26798.62, -105071.95, -187500.02, -187500.02, -187500.02, 14179.25, -82303.28, -187500.02, 0.000, 0.000, 0.000, 12:56:17.604
200, -26675.64, -105066.43, -187500.02, -187500.02, -187500.02, 14203.95, -82271.70, -187500.02, 0.000, 0.000, 0.000, 12:56:17.604
201, -26674.41, -105100.36, -187500.02, -187500.02, -187500.02, 14186.79, -82280.28, -187500.02, 0.000, 0.000, 0.000, 12:56:17.605
202, -26814.83, -105119.53, -187500.02, -187500.02, -187500.02, 14175.99, -82290.05, -187500.02, 0.000, 0.000, 0.000, 12:56:17.605
203, -26823.97, -105098.70, -187500.02, -187500.02, -187500.02, 14207.28, -82259.47, -187500.02, 0.000, 0.000, 0.000, 12:56:17.605
204, -26725.31, -105066.70, -187500.02, -187500.02, -187500.02, 14255.61, -82201.27, -187500.02, 0.000, 0.000, 0.000, 12:56:17.606
205, -26668.69, -105113.41, -187500.02, -187500.02, -187500.02, 14227.76, -82220.27, -187500.02, 0.000, 0.000, 0.000, 12:56:17.606
206, -26780.85, -105158.41, -187500.02, -187500.02, -187500.02, 14196.93, -82255.65, -187500.02, -0.356, -0.020, -0.948, 12:56:17.606
207, -26832.98, -105141.77, -187500.02, -187500.02, -187500.02, 14226.68, -82226.90, -187500.02, 0.000, 0.000, 0.000, 12:56:17.606
208, -26735.44, -105189.85, -187500.02, -187500.02, -187500.02, 14199.79, -82249.84, -187500.02, 0.000, 0.000, 0.000, 12:56:17.607
209, -26652.33, -105225.41, -187500.02, -187500.02, -187500.02, 14187.61, -82255.49, -187500.02, 0.000, 0.000, 0.000, 12:56:17.607
210, -26770.13, -105248.57, -187500.02, -187500.02, -187500.02, 14177.02, -82264.34, -187500.02, 0.000, 0.000, 0.000, 12:56:17.607
211, -26831.41, -105256.88, -187500.02, -187500.02, -187500.02, 14178.81, -82265.05, -187500.02, 0.000, 0.000, 0.000, 12:56:17.608
212, -26768.02, -105258.90, -187500.02, -187500.02, -187500.02, 14192.75, -82247.63, -187500.02, 0.000, 0.000, 0.000, 12:56:17.608
213, -26668.22, -105278.19, -187500.02, -187500.02, -187500.02, 14195.17, -82237.90, -187500.02, 0.000, 0.000, 0.000, 12:56:17.608
214, -26732.51, -105300.12, -187500.02, -187500.02, -187500.02, 14187.52, -82244.27, -187500.02, 0.000, 0.000, 0.000, 12:56:17.609
215, -26836.58, -105296.96, -187500.02, -187500.02, -187500.02, 14199.06, -82234.32, -187500.02, 0.000, 0.000, 0.000, 12:56:17.609
216, -26790.87, -105309.95, -187500.02, -187500.02, -187500.02, 14201.14, -82232.22, -187500.02, -0.356, -0.020, -0.950, 12:56:17.610
217, -26681.75, -105312.01, -187500.02, -187500.02, -187500.02, 14219.71, -82204.17, -187500.02, 0.000, 0.000, 0.000, 12:56:17.610
218, -26726.25, -105343.59, -187500.02, -187500.02, -187500.02, 14201.83, -82215.39, -187500.02, 0.000, 0.000, 0.000, 12:56:17.610
219, -26829.00, -105347.03, -187500.02, -187500.02, -187500.02, 14203.66, -82211.37, -187500.02, 0.000, 0.000, 0.000, 12:56:17.611
220, -26809.44, -105344.20, -187500.02, -187500.02, -187500.02, 14219.38, -82191.92, -187500.02, 0.000, 0.000, 0.000, 12:56:17.611
221, -26690.91, -105374.66, -187500.02, -187500.02, -187500.02, 14208.89, -82194.45, -187500.02, 0.000, 0.000, 0.000, 12:56:17.611
222, -26692.05, -105428.77, -187500.02, -187500.02, -187500.02, 14172.48, -82227.53, -187500.02, 0.000, 0.000, 0.000, 12:56:17.612
223, -26814.87, -105425.17, -187500.02, -187500.02, -187500.02, 14186.65, -82217.76, -187500.02, 0.000, 0.000, 0.000, 12:56:17.612
224, -26789.26, -105420.77, -187500.02, -187500.02, -187500.02, 14204.94, -82200.41, -187500.02, 0.000, 0.000, 0.000, 12:56:18.037
225, -26684.99, -105407.16, -187500.02, -187500.02, -187500.02, 14239.49, -82159.42, -187500.02, 0.000, 0.000, 0.000, 12:56:18.038
226, -26680.58, -105469.74, -187500.02, -187500.02, -187500.02, 14195.03, -82199.03, -187500.02, -0.348, -0.026, -0.952, 12:56:18.038
227, -26814.85, -105502.20, -187500.02, -187500.02, -187500.02, 14173.58, -82225.41, -187500.02, 0.000, 0.000, 0.000, 12:56:18.038
228, -26818.49, -105503.85, -187500.02, -187500.02, -187500.02, 14185.18, -82216.58, -187500.02, 0.000, 0.000, 0.000, 12:56:18.039
229, -26721.62, -105507.96, -187500.02, -187500.02, -187500.02, 14200.04, -82194.09, -187500.02, 0.000, 0.000, 0.000, 12:56:18.039
230, -26677.83, -105532.26, -187500.02, -187500.02, -187500.02, 14194.99, -82188.03, -187500.02, 0.000, 0.000, 0.000, 12:56:18.040
231, -26797.93, -105534.05, -187500.02, -187500.02, -187500.02, 14202.23, -82176.81, -187500.02, 0.000, 0.000, 0.000, 12:56:18.040
232, -26839.10, -105535.84, -187500.02, -187500.02, -187500.02, 14209.70, -82171.24, -187500.02, 0.000, 0.000, 0.000, 12:56:18.040
233, -26756.29, -105537.49, -187500.02, -187500.02, -187500.02, 14226.28, -82151.64, -187500.02, 0.000, 0.000, 0.000, 12:56:18.041
234, -26660.42, -105574.39, -187500.02, -187500.02, -187500.02, 14208.24, -82161.95, -187500.02, 0.000, 0.000, 0.000, 12:56:18.041
235, -26755.89, -105605.59, -187500.02, -187500.02, -187500.02, 14186.34, -82181.93, -187500.02, 0.000, 0.000, 0.000, 12:56:18.041
236, -26812.82, -105624.95, -187500.02, -187500.02, -187500.02, 14175.99, -82196.44, -187500.02, -0.350, -0.022, -0.956, 12:56:18.042
237, -26774.86, -105599.07, -187500.02, -187500.02, -187500.02, 14216.42, -82151.17, -187500.02, 0.000, 0.000, 0.000, 12:56:18.042
238, -26665.09, -105625.47, -187500.02, -187500.02, -187500.02, 14208.11, -82149.37, -187500.02, 0.000, 0.000, 0.000, 12:56:18.042
239, -26712.70, -105665.84, -187500.02, -187500.02, -187500.02, 14172.68, -82175.34, -187500.02, 0.000, 0.000, 0.000, 12:56:18.042
240, -26815.19, -105649.96, -187500.02, -187500.02, -187500.02, 14182.32, -82153.05, -187500.02, 0.000, 0.000, 0.000, 12:56:18.043
241, -26775.98, -105656.38, -187500.02, -187500.02, -187500.02, 14187.08, -82142.75, -187500.02, 0.000, 0.000, 0.000, 12:56:18.043
242, -26687.42, -105643.35, -187500.02, -187500.02, -187500.02, 14219.82, -82099.67, -187500.02, 0.000, 0.000, 0.000, 12:56:18.043
243, -26737.47, -105671.87, -187500.02, -187500.02, -187500.02, 14204.56, -82107.32, -187500.02, 0.000, 0.000, 0.000, 12:56:18.043
244, -26835.08, -105665.32, -187500.02, -187500.02, -187500.02, 14206.14, -82095.14, -187500.02, 0.000, 0.000, 0.000, 12:56:18.043
245, -26798.89, -105651.62, -187500.02, -187500.02, -187500.02, 14221.48, -82066.08, -187500.02, 0.000, 0.000, 0.000, 12:56:18.044
246, -26693.55, -105635.80, -187500.02, -187500.02, -187500.02, 14255.03, -82021.22, -187500.02, -0.348, -0.016, -0.956, 12:56:18.044
247, -26683.15, -105689.20, -187500.02, -187500.02, -187500.02, 14217.07, -82053.45, -187500.02, 0.000, 0.000, 0.000, 12:56:18.044
248, -26799.85, -105711.25, -187500.02, -187500.02, -187500.02, 14195.19, -82067.60, -187500.02, 0.000, 0.000, 0.000, 12:56:18.044
249, -26796.79, -105722.23, -187500.02, -187500.02, -187500.02, 14185.56, -82064.31, -187500.02, 0.000, 0.000, 0.000, 12:56:18.044
250, -26692.88, -105718.88, -187500.02, -187500.02, -187500.02, 14197.29, -82034.79, -187500.02, 0.000, 0.000, 0.000, 12:56:18.044
251, -26666.79, -105724.95, -187500.02, -187500.02, -187500.02, 14204.04, -82014.72, -187500.02, 0.000, 0.000, 0.000, 12:56:18.045
252, -26806.87, -105762.84, -187500.02, -187500.02, -187500.02, 14174.81, -82046.14, -187500.02, 0.000, 0.000, 0.000, 12:56:18.045
253, -26817.78, -105762.80, -187500.02, -187500.02, -187500.02, 14182.58, -82037.09, -187500.02, 0.000, 0.000, 0.000, 12:56:18.045
254, -26717.87, -105771.38, -187500.02, -187500.02, -187500.02, 14181.15, -82022.70, -187500.02, 0.000, 0.000, 0.000, 12:56:18.045
255, -26657.81, -105803.30, -187500.02, -187500.02, -187500.02, 14162.74, -82028.55, -187500.02, 0.000, 0.000, 0.000, 12:56:18.045
0, -26763.29, -105861.30, -187500.02, -187500.02, -187500.02, 14106.70, -82078.28, -187500.02, -0.352, -0.016, -0.956, 12:56:18.046
1, -26836.67, -105820.91, -187500.02, -187500.02, -187500.02, 14149.35, -82027.93, -187500.02, 0.000, 0.000, 0.000, 12:56:18.046
2, -26747.59, -105778.02, -187500.02, -187500.02, -187500.02, 14209.07, -81960.20, -187500.02, 0.000, 0.000, 0.000, 12:56:18.046
3, -26657.18, -105842.91, -187500.02, -187500.02, -187500.02, 14164.21, -81996.74, -187500.02, 0.000, 0.000, 0.000, 12:56:18.059
4, -26773.66, -105904.30, -187500.02, -187500.02, -187500.02, 14110.19, -82046.75, -187500.02, 0.000, 0.000, 0.000, 12:56:18.059
5, -26852.31, -105852.59, -187500.02, -187500.02, -187500.02, 14158.87, -81986.69, -187500.02, 0.000, 0.000, 0.000, 12:56:18.060
6, -26782.15, -105820.35, -187500.02, -187500.02, -187500.02, 14200.84, -81934.14, -187500.02, 0.000, 0.000, 0.000, 12:56:18.060
7, -26667.71, -105865.99, -187500.02, -187500.02, -187500.02, 14174.54, -81950.99, -187500.02, 0.000, 0.000, 0.000, 12:56:18.060
8, -26737.22, -105920.09, -187500.02, -187500.02, -187500.02, 14128.83, -81987.11, -187500.02, 0.000, 0.000, 0.000, 12:56:18.060
9, -26827.72, -105895.32, -187500.02, -187500.02, -187500.02, 14148.07, -81954.84, -187500.02, 0.000, 0.000, 0.000, 12:56:18.060
10, -26789.59, -105867.73, -187500.02, -187500.02, -187500.02, 14187.46, -81907.43, -187500.02, -0.354, -0.018, -0.958, 12:56:18.060
11, -26684.38, -105885.41, -187500.02, -187500.02, -187500.02, 14192.17, -81895.76, -187500.02, 0.000, 0.000, 0.000, 12:56:18.061
12, -26705.51, -105970.31, -187500.02, -187500.02, -187500.02, 14121.34, -81962.70, -187500.02, 0.000, 0.000, 0.000, 12:56:18.061
13, -26815.41, -105947.96, -187500.02, -187500.02, -187500.02, 14142.24, -81933.55, -187500.02, 0.000, 0.000, 0.000, 12:56:18.061
14, -26791.83, -105934.26, -187500.02, -187500.02, -187500.02, 14167.00, -81905.13, -187500.02, 0.000, 0.000, 0.000, 12:56:18.061
15, -26697.35, -105942.21, -187500.02, -187500.02, -187500.02, 14179.52, -81885.68, -187500.02, 0.000, 0.000, 0.000, 12:56:18.061
16, -26671.55, -106001.83, -187500.02, -187500.02, -187500.02, 14132.47, -81922.31, -187500.02, 0.000, 0.000, 0.000, 12:56:18.061
17, -26802.22, -106013.63, -187500.02, -187500.02, -187500.02, 14114.19, -81929.67, -187500.02, 0.000, 0.000, 0.000, 12:56:18.062
18, -26803.59, -105990.23, -187500.02, -187500.02, -187500.02, 14141.70, -81894.20, -187500.02, 0.000, 0.000, 0.000, 12:56:18.062
19, -26711.88, -105992.17, -187500.02, -187500.02, -187500.02, 14159.05, -81869.85, -187500.02, 0.000, 0.000, 0.000, 12:56:18.062
20, -26685.17, -106014.03, -187500.02, -187500.02, -187500.02, 14154.44, -81868.23, -187500.02, -0.356, -0.018, -0.954, 12:56:18.062
21, -26785.68, -106062.80, -187500.02, -187500.02, -187500.02, 14106.32, -81911.38, -187500.02, 0.000, 0.000, 0.000, 12:56:18.062
22, -26833.07, -106067.09, -187500.02, -187500.02, -187500.02, 14096.42, -81908.66, -187500.02, 0.000, 0.000, 0.000, 12:56:18.062
23, -26759.75, -106008.20, -187500.02, -187500.02, -187500.02, 14166.33, -81826.52, -187500.02, 0.000, 0.000, 0.000, 12:56:18.063
24, -26637.80, -106082.96, -187500.02, -187500.02, -187500.02, 14111.39, -81876.25, -187500.02, 0.000, 0.000, 0.000, 12:56:18.063
25, -26758.37, -106120.80, -187500.02, -187500.02, -187500.02, 14077.33, -81906.83, -187500.02, 0.000, 0.000, 0.000, 12:56:18.063
26, -26810.45, -106119.62, -187500.02, -187500.02, -187500.02, 14080.46, -81901.30, -187500.02, 0.000, 0.000, 0.000, 12:56:18.063
27, -26749.49, -106126.62, -187500.02, -187500.02, -187500.02, 14093.24, -81888.27, -187500.02, 0.000, 0.000, 0.000, 12:56:18.063
28, -26654.14, -106139.06, -187500.02, -187500.02, -187500.02, 14099.30, -81874.26, -187500.02, 0.000, 0.000, 0.000, 12:56:18.063
29, -26744.58, -106180.26, -187500.02, -187500.02, -187500.02, 14055.22, -81904.99, -187500.02, 0.000, 0.000, 0.000, 12:56:18.063
30, -26833.85, -106147.29, -187500.02, -187500.02, -187500.02, 14087.59, -81865.98, -187500.02, -0.352, -0.022, -0.954, 12:56:18.064
31, -26766.17, -106100.69, -187500.02, -187500.02, -187500.02, 14149.35, -81799.18, -187500.02, 0.000, 0.000, 0.000, 12:56:18.064
32, -26649.13, -106103.64, -187500.02, -187500.02, -187500.02, 14165.89, -81772.96, -187500.02, 0.000, 0.000, 0.000, 12:56:18.064
33, -26716.59, -106173.78, -187500.02, -187500.02, -187500.02, 14106.54, -81829.20, -187500.02, 0.000, 0.000, 0.000, 12:56:18.064
34, -26821.76, -106186.48, -187500.02, -187500.02, -187500.02, 14091.46, -81838.45, -187500.02, 0.000, 0.000, 0.000, 12:56:18.064
35, -26779.22, -106172.59, -187500.02, -187500.02, -187500.02, 14114.08, -81809.75, -187500.02, 0.000, 0.000, 0.000, 12:56:18.064
36, -26669.05, -106171.27, -187500.02, -187500.02, -187500.02, 14133.61, -81779.48, -187500.02, 0.000, 0.000, 0.000, 12:56:18.065
37, -26693.95, -106255.48, -187500.02, -187500.02, -187500.02, 14053.28, -81844.13, -187500.02, 0.000, 0.000, 0.000, 12:56:18.065
38, -26810.60, -106238.11, -187500.02, -187500.02, -187500.02, 14071.05, -81821.40, -187500.02, 0.000, 0.000, 0.000, 12:56:18.065
39, -26780.94, -106212.06, -187500.02, -187500.02, -187500.02, 14111.37, -81781.27, -187500.02, 0.000, 0.000, 0.000, 12:56:18.065
40, -26687.49, -106204.22, -187500.02, -187500.02, -187500.02, 14139.94, -81745.49, -187500.02, -0.350, -0.018, -0.948, 12:56:18.065
41, -26682.17, -106262.72, -187500.02, -187500.02, -187500.02, 14097.98, -81782.08, -187500.02, 0.000, 0.000, 0.000, 12:56:18.065
42, -26798.82, -106304.49, -187500.02, -187500.02, -187500.02, 14054.53, -81821.42, -187500.02, 0.000, 0.000, 0.000, 12:56:18.065
43, -26777.34, -106267.23, -187500.02, -187500.02, -187500.02, 14090.72, -81772.24, -187500.02, 0.000, 0.000, 0.000, 12:56:18.066
44, -26705.95, -106250.16, -187500.02, -187500.02, -187500.02, 14126.19, -81729.58, -187500.02, 0.000, 0.000, 0.000, 12:56:18.066
45, -26663.10, -106329.14, -187500.02, -187500.02, -187500.02, 14067.56, -81786.28, -187500.02, 0.000, 0.000, 0.000, 12:56:18.066
46, -26794.35, -106341.21, -187500.02, -187500.02, -187500.02, 14059.76, -81792.14, -187500.02, 0.000, 0.000, 0.000, 12:56:18.066
47, -26818.70, -106303.53, -187500.02, -187500.02, -187500.02, 14099.06, -81745.89, -187500.02, 0.000, 0.000, 0.000, 12:56:18.066
48, -26730.92, -106296.04, -187500.02, -187500.02, -187500.02, 14123.75, -81718.38, -187500.02, 0.000, 0.000, 0.000, 12:56:18.066
49, -26661.36, -106319.24, -187500.02, -187500.02, -187500.02, 14120.71, -81714.24, -187500.02, -0.350, -0.016, -0.948, 12:56:18.067
50, -26753.63, -106373.22, -187500.02, -187500.02, -187500.02, 14069.93, -81758.23, -187500.02, 0.000, 0.000, 0.000, 12:56:18.067
51, -26802.33, -106360.99, -187500.02, -187500.02, -187500.02, 14079.12, -81741.04, -187500.02, 0.000, 0.000, 0.000, 12:56:18.067
52, -26750.81, -106348.84, -187500.02, -187500.02, -187500.02, 14107.82, -81709.26, -187500.02, 0.000, 0.000, 0.000, 12:56:18.067
53, -26668.31, -106384.94, -187500.02, -187500.02, -187500.02, 14093.51, -81719.27, -187500.02, 0.000, 0.000, 0.000, 12:56:18.067
54, -26760.09, -106410.86, -187500.02, -187500.02, -187500.02, 14073.42, -81732.59, -187500.02, 0.000, 0.000, 0.000, 12:56:18.067
55, -26840.09, -106373.45, -187500.02, -187500.02, -187500.02, 14112.85, -81689.79, -187500.02, 0.000, 0.000, 0.000, 12:56:18.068
56, -26761.45, -106374.79, -187500.02, -187500.02, -187500.02, 14128.45, -81674.48, -187500.02, 0.000, 0.000, 0.000, 12:56:18.068
57, -26652.38, -106400.13, -187500.02, -187500.02, -187500.02, 14123.78, -81669.05, -187500.02, 0.000, 0.000, 0.000, 12:56:18.068
58, -26711.54, -106474.50, -187500.02, -187500.02, -187500.02, 14054.82, -81728.30, -187500.02, 0.000, 0.000, 0.000, 12:56:18.068
59, -26829.36, -106463.32, -187500.02, -187500.02, -187500.02, 14059.27, -81714.98, -187500.02, -0.356, -0.018, -0.944, 12:56:18.068
60, -26782.64, -106427.23, -187500.02, -187500.02, -187500.02, 14103.57, -81667.23, -187500.02, 0.000, 0.000, 0.000, 12:56:18.068
61, -26656.22, -106445.98, -187500.02, -187500.02, -187500.02, 14106.43, -81658.66, -187500.02, 0.000, 0.000, 0.000, 12:56:18.069
62, -26677.86, -106475.82, -187500.02, -187500.02, -187500.02, 14093.42, -81669.07, -187500.02, 0.000, 0.000, 0.000, 12:56:18.069
63, -26802.36, -106492.85, -187500.02, -187500.02, -187500.02, 14072.34, -81683.87, -187500.02, 0.000, 0.000, 0.000, 12:56:18.069
64, -26803.16, -106468.82, -187500.02, -187500.02, -187500.02, 14096.08, -81650.63, -187500.02, 0.000, 0.000, 0.000, 12:56:18.069
65, -26690.82, -106462.56, -187500.02, -187500.02, -187500.02, 14117.90, -81620.74, -187500.02, 0.000, 0.000, 0.000, 12:56:18.069
66, -26685.46, -106515.91, -187500.02, -187500.02, -187500.02, 14072.84, -81653.09, -187500.02, 0.000, 0.000, 0.000, 12:56:18.069
67, -26800.68, -106476.94, -187500.02, -187500.02, -187500.02, 14108.91, -81605.01, -187500.02, 0.000, 0.000, 0.000, 12:56:18.070
68, -26795.16, -106464.91, -187500.02, -187500.02, -187500.02, 14131.06, -81581.30, -187500.02, 0.000, 0.000, 0.000, 12:56:18.070
69, -26695.89, -106449.53, -187500.02, -187500.02, -187500.02, 14165.95, -81540.99, -187500.02, -0.356, -0.018, -0.944, 12:56:18.070
70, -26648.46, -106514.04, -187500.02, -187500.02, -187500.02, 14116.15, -81582.41, -187500.02, 0.000, 0.000, 0.000, 12:56:18.070
71, -26765.54, -106563.10, -187500.02, -187500.02, -187500.02, 14066.24, -81626.45, -187500.02, 0.000, 0.000, 0.000, 12:56:18.070
72, -26811.03, -106546.11, -187500.02, -187500.02, -187500.02, 14079.68, -81602.17, -187500.02, 0.000, 0.000, 0.000, 12:56:18.070
73, -26732.08, -106543.88, -187500.02, -187500.02, -187500.02, 14099.17, -81577.18, -187500.02, 0.000, 0.000, 0.000, 12:56:18.071
74, -26654.05, -106545.63, -187500.02, -187500.02, -187500.02, 14118.59, -81549.06, -187500.02, 0.000, 0.000, 0.000, 12:56:18.071
75, -26747.44, -106587.82, -187500.02, -187500.02, -187500.02, 14088.33, -81582.05, -187500.02, 0.000, 0.000, 0.000, 12:56:18.071
76, -26807.92, -106592.16, -187500.02, -187500.02, -187500.02, 14091.12, -81582.34, -187500.02, 0.000, 0.000, 0.000, 12:56:18.071
77, -26749.25, -106575.10, -187500.02, -187500.02, -187500.02, 14112.22, -81546.78, -187500.02, 0.000, 0.000, 0.000, 12:56:18.071
78, -26652.60, -106591.84, -187500.02, -187500.02, -187500.02, 14110.46, -81537.04, -187500.02, 0.000, 0.000, 0.000, 12:56:18.071
79, -26717.64, -106650.70, -187500.02, -187500.02, -187500.02, 14062.29, -81585.79, -187500.02, -0.354, -0.018, -0.946, 12:56:18.072
80, -26808.79, -106639.59, -187500.02, -187500.02, -187500.02, 14080.32, -81570.27, -187500.02, 0.000, 0.000, 0.000, 12:56:18.072
81, -26771.18, -106645.89, -187500.02, -187500.02, -187500.02, 14085.55, -81558.43, -187500.02, 0.000, 0.000, 0.000, 12:56:18.072
82, -26666.35, -106674.93, -187500.02, -187500.02, -187500.02, 14061.17, -81561.45, -187500.02, 0.000, 0.000, 0.000, 12:56:18.072
83, -26701.88, -106731.77, -187500.02, -187500.02, -187500.02, 14008.49, -81604.59, -187500.02, 0.000, 0.000, 0.000, 12:56:18.072
84, -26813.40, -106710.53, -187500.02, -187500.02, -187500.02, 14028.94, -81580.55, -187500.02, 0.000, 0.000, 0.000, 12:56:18.072
85, -26765.34, -106635.79, -187500.02, -187500.02, -187500.02, 14113.36, -81489.85, -187500.02, 0.000, 0.000, 0.000, 12:56:18.072
86, -26653.13, -106651.73, -187500.02, -187500.02, -187500.02, 14114.72, -81479.59, -187500.02, 0.000, 0.000, 0.000, 12:56:18.072
87, -26671.42, -106744.59, -187500.02, -187500.02, -187500.02, 14031.37, -81557.09, -187500.02, 0.000, 0.000, 0.000, 12:56:18.073
88, -26788.36, -106732.73, -187500.02, -187500.02, -187500.02, 14044.07, -81545.40, -187500.02, 0.000, 0.000, 0.000, 12:56:18.073
89, -26779.09, -106748.55, -187500.02, -187500.02, -187500.02, 14032.63, -81554.74, -187500.02, -0.354, -0.016, -0.950, 12:56:18.518
90, -26686.91, -106692.36, -187500.02, -187500.02, -187500.02, 14105.05, -81471.66, -187500.02, 0.000, 0.000, 0.000, 12:56:18.518
91, -26664.89, -106727.66, -187500.02, -187500.02, -187500.02, 14088.35, -81484.11, -187500.02, 0.000, 0.000, 0.000, 12:56:18.519
92, -26770.15, -106773.52, -187500.02, -187500.02, -187500.02, 14046.08, -81525.44, -187500.02, 0.000, 0.000, 0.000, 12:56:18.519
93, -26777.63, -106754.54, -187500.02, -187500.02, -187500.02, 14070.51, -81498.01, -187500.02, 0.000, 0.000, 0.000, 12:56:18.519
94, -26694.35, -106777.66, -187500.02, -187500.02, -187500.02, 14060.54, -81499.55, -187500.02, 0.000, 0.000, 0.000, 12:56:18.520
95, -26647.21, -106799.31, -187500.02, -187500.02, -187500.02, 14047.04, -81497.23, -187500.02, 0.000, 0.000, 0.000, 12:56:18.520
96, -26769.61, -106805.28, -187500.02, -187500.02, -187500.02, 14051.45, -81495.40, -187500.02, 0.000, 0.000, 0.000, 12:56:18.520
97, -26802.96, -106832.23, -187500.02, -187500.02, -187500.02, 14029.32, -81515.16, -187500.02, 0.000, 0.000, 0.000, 12:56:18.520
98, -26732.15, -106761.38, -187500.02, -187500.02, -187500.02, 14109.92, -81421.68, -187500.02, 0.000, 0.000, 0.000, 12:56:18.521
99, -26646.99, -106796.81, -187500.02, -187500.02, -187500.02, 14091.12, -81432.34, -187500.02, -0.350, -0.018, -0.946, 12:56:18.521
100, -26743.32, -106865.61, -187500.02, -187500.02, -187500.02, 14029.23, -81494.26, -187500.02, 0.000, 0.000, 0.000, 12:56:18.521
101, -26790.40, -106886.93, -187500.02, -187500.02, -187500.02, 14003.55, -81511.42, -187500.02, 0.000, 0.000, 0.000, 12:56:18.522
102, -26738.83, -106873.95, -187500.02, -187500.02, -187500.02, 14019.77, -81482.34, -187500.02, 0.000, 0.000, 0.000, 12:56:18.522
103, -26648.55, -106870.95, -187500.02, -187500.02, -187500.02, 14040.23, -81453.87, -187500.02, 0.000, 0.000, 0.000, 12:56:18.522
104, -26720.19, -106907.20, -187500.02, -187500.02, -187500.02, 14017.07, -81480.98, -187500.02, 0.000, 0.000, 0.000, 12:56:18.523
105, -26796.77, -106905.30, -187500.02, -187500.02, -187500.02, 14029.09, -81478.54, -187500.02, 0.000, 0.000, 0.000, 12:56:18.523
106, -26731.19, -106944.22, -187500.02, -187500.02, -187500.02, 13996.46, -81504.16, -187500.02, 0.000, 0.000, 0.000, 12:56:18.523
107, -26661.85, -106924.08, -187500.02, -187500.02, -187500.02, 14023.10, -81457.63, -187500.02, 0.000, 0.000, 0.000, 12:56:18.523
108, -26710.98, -106919.45, -187500.02, -187500.02, -187500.02, 14038.75, -81436.14, -187500.02, 0.000, 0.000, 0.000, 12:56:18.523
109, -26811.54, -106889.55, -187500.02, -187500.02, -187500.02, 14077.93, -81401.90, -187500.02, -0.350, -0.018, -0.948, 12:56:18.523
110, -26777.37, -106912.68, -187500.02, -187500.02, -187500.02, 14066.89, -81413.25, -187500.02, 0.000, 0.000, 0.000, 12:56:18.524
111, -26657.63, -106915.07, -187500.02, -187500.02, -187500.02, 14073.33, -81392.18, -187500.02, 0.000, 0.000, 0.000, 12:56:18.524
112, -26664.51, -106914.63, -187500.02, -187500.02, -187500.02, 14086.14, -81372.35, -187500.02, 0.000, 0.000, 0.000, 12:56:18.524
113, -26800.32, -106931.50, -187500.02, -187500.02, -187500.02, 14075.50, -81387.30, -187500.02, 0.000, 0.000, 0.000, 12:56:18.524
114, -26798.36, -106945.65, -187500.02, -187500.02, -187500.02, 14062.02, -81393.16, -187500.02, 0.000, 0.000, 0.000, 12:56:18.524
115, -26690.98, -106911.30, -187500.02, -187500.02, -187500.02, 14107.35, -81335.34, -187500.02, 0.000, 0.000, 0.000, 12:56:18.525
116, -26668.96, -106977.88, -187500.02, -187500.02, -187500.02, 14057.44, -81380.04, -187500.02, 0.000, 0.000, 0.000, 12:56:18.525
117, -26786.06, -107008.75, -187500.02, -187500.02, -187500.02, 14028.27, -81406.03, -187500.02, 0.000, 0.000, 0.000, 12:56:18.525
118, -26800.77, -106967.64, -187500.02, -187500.02, -187500.02, 14072.46, -81357.48, -187500.02, 0.000, 0.000, 0.000, 12:56:18.525
119, -26711.63, -106973.26, -187500.02, -187500.02, -187500.02, 14087.19, -81339.72, -187500.02, -0.348, -0.020, -0.954, 12:56:18.525
120, -26647.06, -107014.36, -187500.02, -187500.02, -187500.02, 14062.69, -81356.37, -187500.02, 0.000, 0.000, 0.000, 12:56:18.526
121, -26764.07, -107069.81, -187500.02, -187500.02, -187500.02, 14006.16, -81407.91, -187500.02, 0.000, 0.000, 0.000, 12:56:18.526
122, -26827.21, -107045.27, -187500.02, -187500.02, -187500.02, 14028.54, -81378.43, -187500.02, 0.000, 0.000, 0.000, 12:56:18.526
123, -26735.12, -107031.98, -187500.02, -187500.02, -187500.02, 14057.62, -81347.70, -187500.02, 0.000, 0.000, 0.000, 12:56:18.526
124, -26629.55, -107054.26, -187500.02, -187500.02, -187500.02, 14053.95, -81347.18, -187500.02, 0.000, 0.000, 0.000, 12:56:18.526
125, -26729.38, -107098.80, -187500.02, -187500.02, -187500.02, 14009.09, -81385.13, -187500.02, 0.000, 0.000, 0.000, 12:56:18.526
126, -26803.34, -107060.18, -187500.02, -187500.02, -187500.02, 14045.79, -81345.66, -187500.02, 0.000, 0.000, 0.000, 12:56:18.527
127, -26742.16, -107022.85, -187500.02, -187500.02, -187500.02, 14096.46, -81291.75, -187500.02, 0.000, 0.000, 0.000, 12:56:18.527
128, -26650.23, -107038.61, -187500.02, -187500.02, -187500.02, 14098.32, -81282.38, -187500.02, 0.000, 0.000, 0.000, 12:56:18.527
129, -26714.04, -107138.10, -187500.02, -187500.02, -187500.02, 14006.14, -81373.36, -187500.02, -0.354, -0.020, -0.954, 12:56:18.527
130, -26834.14, -107139.71, -187500.02, -187500.02, -187500.02, 13999.61, -81374.67, -187500.02, 0.000, 0.000, 0.000, 12:56:18.527
131, -26754.86, -107065.39, -187500.02, -187500.02, -187500.02, 14080.73, -81285.63, -187500.02, 0.000, 0.000, 0.000, 12:56:18.528
132, -26647.50, -107085.59, -187500.02, -187500.02, -187500.02, 14075.52, -81284.22, -187500.02, 0.000, 0.000, 0.000, 12:56:18.528
133, -26674.01, -107164.07, -187500.02, -187500.02, -187500.02, 14003.17, -81350.22, -187500.02, 0.000, 0.000, 0.000, 12:56:18.528
134, -26806.11, -107123.52, -187500.02, -187500.02, -187500.02, 14041.88, -81305.38, -187500.02, 0.000, 0.000, 0.000, 12:56:18.528
135, -26773.97, -107128.13, -187500.02, -187500.02, -187500.02, 14050.62, -81297.12, -187500.02, 0.000, 0.000, 0.000, 12:56:18.528
136, -26654.21, -107142.03, -187500.02, -187500.02, -187500.02, 14055.80, -81288.22, -187500.02, 0.000, 0.000, 0.000, 12:56:18.528
137, -26662.37, -107212.64, -187500.02, -187500.02, -187500.02, 13993.24, -81341.64, -187500.02, 0.000, 0.000, 0.000, 12:56:18.534
138, -26804.59, -107199.27, -187500.02, -187500.02, -187500.02, 14006.56, -81324.07, -187500.02, 0.000, 0.000, 0.000, 12:56:18.534
139, -26794.58, -107190.78, -187500.02, -187500.02, -187500.02, 14025.74, -81307.09, -187500.02, -0.354, -0.024, -0.948, 12:56:18.535
140, -26685.12, -107194.88, -187500.02, -187500.02, -187500.02, 14033.41, -81287.34, -187500.02, 0.000, 0.000, 0.000, 12:56:18.535
141, -26666.12, -107226.30, -187500.02, -187500.02, -187500.02, 14018.03, -81295.51, -187500.02, 0.000, 0.000, 0.000, 12:56:18.535
142, -26771.69, -107250.55, -187500.02, -187500.02, -187500.02, 14002.05, -81313.72, -187500.02, 0.000, 0.000, 0.000, 12:56:18.535
143, -26779.58, -107239.28, -187500.02, -187500.02, -187500.02, 14012.91, -81294.90, -187500.02, 0.000, 0.000, 0.000, 12:56:18.535
144, -26699.47, -107193.87, -187500.02, -187500.02, -187500.02, 14070.33, -81226.05, -187500.02, 0.000, 0.000, 0.000, 12:56:18.535
145, -26638.00, -107221.59, -187500.02, -187500.02, -187500.02, 14060.45, -81230.64, -187500.02, 0.000, 0.000, 0.000, 12:56:18.536
146, -26759.11, -107259.31, -187500.02, -187500.02, -187500.02, 14026.10, -81262.80, -187500.02, 0.000, 0.000, 0.000, 12:56:18.536
147, -26815.41, -107230.34, -187500.02, -187500.02, -187500.02, 14055.87, -81229.84, -187500.02, 0.000, 0.000, 0.000, 12:56:18.536
148, -26726.81, -107214.14, -187500.02, -187500.02, -187500.02, 14089.38, -81192.82, -187500.02, 0.000, 0.000, 0.000, 12:56:18.536
149, -26635.81, -107245.66, -187500.02, -187500.02, -187500.02, 14080.91, -81197.42, -187500.02, -0.354, -0.018, -0.948, 12:56:18.536
150, -26730.47, -107332.47, -187500.02, -187500.02, -187500.02, 14000.39, -81275.74, -187500.02, 0.000, 0.000, 0.000, 12:56:18.537
151, -26792.86, -107338.73, -187500.02, -187500.02, -187500.02, 13988.39, -81279.88, -187500.02, 0.000, 0.000, 0.000, 12:56:18.537
152, -26747.50, -107291.55, -187500.02, -187500.02, -187500.02, 14042.55, -81215.98, -187500.02, 0.000, 0.000, 0.000, 12:56:18.537
153, -26654.61, -107278.34, -187500.02, -187500.02, -187500.02, 14071.85, -81177.73, -187500.02, 0.000, 0.000, 0.000, 12:56:18.537
154, -26693.37, -107310.48, -187500.02, -187500.02, -187500.02, 14050.10, -81199.19, -187500.02, 0.000, 0.000, 0.000, 12:56:18.537
155, -26798.69, -107280.55, -187500.02, -187500.02, -187500.02, 14086.02, -81170.29, -187500.02, 0.000, 0.000, 0.000, 12:56:18.537
156, -26766.97, -107285.33, -187500.02, -187500.02, -187500.02, 14091.72, -81164.03, -187500.02, 0.000, 0.000, 0.000, 12:56:18.538
157, -26645.47, -107330.75, -187500.02, -187500.02, -187500.02, 14056.27, -81187.50, -187500.02, 0.000, 0.000, 0.000, 12:56:18.538
158, -26673.99, -107355.52, -187500.02, -187500.02, -187500.02, 14032.36, -81197.42, -187500.02, -0.354, -0.020, -0.946, 12:56:18.538
159, -26794.76, -107326.19, -187500.02, -187500.02, -187500.02, 14065.86, -81164.79, -187500.02, 0.000, 0.000, 0.000, 12:56:18.538
160, -26767.96, -107336.36, -187500.02, -187500.02, -187500.02, 14064.19, -81165.82, -187500.02, 0.000, 0.000, 0.000, 12:56:18.538
161, -26678.06, -107343.51, -187500.02, -187500.02, -187500.02, 14069.55, -81149.48, -187500.02, 0.000, 0.000, 0.000, 12:56:18.538
162, -26670.14, -107395.70, -187500.02, -187500.02, -187500.02, 14025.23, -81183.52, -187500.02, 0.000, 0.000, 0.000, 12:56:18.539
163, -26789.28, -107376.57, -187500.02, -187500.02, -187500.02, 14045.86, -81164.59, -187500.02, 0.000, 0.000, 0.000, 12:56:18.539
164, -26768.00, -107352.12, -187500.02, -187500.02, -187500.02, 14082.83, -81133.39, -187500.02, 0.000, 0.000, 0.000, 12:56:18.539
165, -26653.36, -107417.70, -187500.02, -187500.02, -187500.02, 14032.98, -81179.88, -187500.02, 0.000, 0.000, 0.000, 12:56:18.539
166, -26653.25, -107499.55, -187500.02, -187500.02, -187500.02, 13958.08, -81241.44, -187500.02, 0.000, 0.000, 0.000, 12:56:18.539
167, -26781.52, -107474.23, -187500.02, -187500.02, -187500.02, 13981.71, -81211.33, -187500.02, 0.000, 0.000, 0.000, 12:56:18.540
168, -26798.64, -107477.98, -187500.02, -187500.02, -187500.02, 13983.07, -81208.47, -187500.02, -0.352, -0.022, -0.942, 12:56:18.540
169, -26709.87, -107460.41, -187500.02, -187500.02, -187500.02, 14009.80, -81170.49, -187500.02, 0.000, 0.000, 0.000, 12:56:18.540
170, -26634.58, -107475.84, -187500.02, -187500.02, -187500.02, 14013.40, -81161.77, -187500.02, 0.000, 0.000, 0.000, 12:56:18.540
171, -26761.88, -107478.34, -187500.02, -187500.02, -187500.02, 14024.07, -81155.83, -187500.02, 0.000, 0.000, 0.000, 12:56:18.540
172, -26816.28, -107448.79, -187500.02, -187500.02, -187500.02, 14063.16, -81121.18, -187500.02, 0.000, 0.000, 0.000, 12:56:18.541
173, -26706.87, -107499.57, -187500.02, -187500.02, -187500.02, 14022.21, -81158.60, -187500.02, 0.000, 0.000, 0.000, 12:56:18.541
174, -26643.30, -107515.59, -187500.02, -187500.02, -187500.02, 14015.28, -81151.38, -187500.02, 0.000, 0.000, 0.000, 12:56:18.541
175, -26737.42, -107541.80, -187500.02, -187500.02, -187500.02, 13995.28, -81168.21, -187500.02, 0.000, 0.000, 0.000, 12:56:18.542
176, -26809.84, -107552.01, -187500.02, -187500.02, -187500.02, 13983.68, -81177.27, -187500.02, 0.000, 0.000, 0.000, 12:56:18.542
177, -26749.18, -107500.87, -187500.02, -187500.02, -187500.02, 14045.34, -81110.74, -187500.02, 0.000, 0.000, 0.000, 12:56:18.542
178, -26640.48, -107484.71, -187500.02, -187500.02, -187500.02, 14080.26, -81067.27, -187500.02, -0.350, -0.018, -0.940, 12:56:18.542
179, -26715.74, -107533.55, -187500.02, -187500.02, -187500.02, 14041.46, -81105.23, -187500.02, 0.000, 0.000, 0.000, 12:56:18.542
180, -26802.45, -107545.99, -187500.02, -187500.02, -187500.02, 14031.08, -81118.95, -187500.02, 0.000, 0.000, 0.000, 12:56:18.543
181, -26755.71, -107542.45, -187500.02, -187500.02, -187500.02, 14040.07, -81105.02, -187500.02, 0.000, 0.000, 0.000, 12:56:18.543
182, -26657.49, -107555.34, -187500.02, -187500.02, -187500.02, 14043.51, -81092.93, -187500.02, 0.000, 0.000, 0.000, 12:56:18.543
183, -26691.96, -107604.65, -187500.02, -187500.02, -187500.02, 13996.33, -81125.97, -187500.02, 0.000, 0.000, 0.000, 12:56:18.543
184, -26775.42, -107581.70, -187500.02, -187500.02, -187500.02, 14021.65, -81101.70, -187500.02, 0.000, 0.000, 0.000, 12:56:18.543
185, -26766.55, -107583.34, -187500.02, -187500.02, -187500.02, 14035.51, -81095.32, -187500.02, 0.000, 0.000, 0.000, 12:56:18.544
186, -26659.91, -107602.28, -187500.02, -187500.02, -187500.02, 14037.77, -81092.73, -187500.02, 0.000, 0.000, 0.000, 12:56:18.544
187, -26648.31, -107655.03, -187500.02, -187500.02, -187500.02, 13994.94, -81126.59, -187500.02, 0.000, 0.000, 0.000, 12:56:18.544
188, -26776.99, -107639.56, -187500.02, -187500.02, -187500.02, 14006.18, -81109.16, -187500.02, -0.352, -0.020, -0.946, 12:56:18.544
189, -26767.26, -107630.66, -187500.02, -187500.02, -187500.02, 14025.96, -81091.50, -187500.02, 0.000, 0.000, 0.000, 12:56:18.544
190, -26682.33, -107623.71, -187500.02, -187500.02, -187500.02, 14048.03, -81061.37, -187500.02, 0.000, 0.000, 0.000, 12:56:18.544
191, -26658.75, -107644.41, -187500.02, -187500.02, -187500.02, 14036.43, -81060.43, -187500.02, 0.000, 0.000, 0.000, 12:56:18.545
192, -26768.45, -107679.28, -187500.02, -187500.02, -187500.02, 14000.33, -81091.32, -187500.02, 0.000, 0.000, 0.000, 12:56:18.545
193, -26795.58, -107646.87, -187500.02, -187500.02, -187500.02, 14036.63, -81054.93, -187500.02, 0.000, 0.000, 0.000, 12:56:18.545
194, -26700.95, -107639.83, -187500.02, -187500.02, -187500.02, 14059.31, -81031.71, -187500.02, 0.000, 0.000, 0.000, 12:56:18.545
195, -26635.61, -107660.05, -187500.02, -187500.02, -187500.02, 14055.60, -81029.59, -187500.02, 0.000, 0.000, 0.000, 12:56:18.545
196, -26748.82, -107693.92, -187500.02, -187500.02, -187500.02, 14019.97, -81058.98, -187500.02, 0.000, 0.000, 0.000, 12:56:18.545
197, -26808.37, -107677.55, -187500.02, -187500.02, -187500.02, 14034.88, -81042.10, -187500.02, 0.000, 0.000, 0.000, 12:56:18.546
198, -26751.71, -107652.66, -187500.02, -187500.02, -187500.02, 14074.33, -81002.02, -187500.02, -0.352, -0.020, -0.952, 12:56:18.546
199, -26646.34, -107709.12, -187500.02, -187500.02, -187500.02, 14032.58, -81036.72, -187500.02, 0.000, 0.000, 0.000, 12:56:18.546
200, -26719.72, -107741.20, -187500.02, -187500.02, -187500.02, 13999.25, -81059.74, -187500.02, 0.000, 0.000, 0.000, 12:56:18.546
201, -26808.41, -107740.01, -187500.02, -187500.02, -187500.02, 14000.31, -81057.13, -187500.02, 0.000, 0.000, 0.000, 12:56:18.546
202, -26743.86, -107748.50, -187500.02, -187500.02, -187500.02, 14009.04, -81053.46, -187500.02, 0.000, 0.000, 0.000, 12:56:18.546
203, -26656.94, -107771.88, -187500.02, -187500.02, -187500.02, 14003.70, -81055.27, -187500.02, 0.000, 0.000, 0.000, 12:56:18.546
204, -26689.86, -107788.27, -187500.02, -187500.02, -187500.02, 13988.12, -81059.94, -187500.02, 0.000, 0.000, 0.000, 12:56:18.547
205, -26802.96, -107782.68, -187500.02, -187500.02, -187500.02, 13995.88, -81052.36, -187500.02, 0.000, 0.000, 0.000, 12:56:18.547
206, -26774.35, -107793.20, -187500.02, -187500.02, -187500.02, 14002.99, -81052.36, -187500.02, 0.000, 0.000, 0.000, 12:56:18.547
207, -26644.22, -107796.45, -187500.02, -187500.02, -187500.02, 14022.86, -81033.70, -187500.02, 0.000, 0.000, 0.000, 12:56:18.547
208, -26661.90, -107852.44, -187500.02, -187500.02, -187500.02, 13977.01, -81076.59, -187500.02, -0.354, -0.016, -0.948, 12:56:18.547
209, -26792.86, -107872.24, -187500.02, -187500.02, -187500.02, 13950.91, -81096.87, -187500.02, 0.000, 0.000, 0.000, 12:56:18.998
210, -26779.67, -107841.38, -187500.02, -187500.02, -187500.02, 13988.50, -81056.84, -187500.02, 0.000, 0.000, 0.000, 12:56:18.998
211, -26674.32, -107852.20, -187500.02, -187500.02, -187500.02, 13999.28, -81045.66, -187500.02, 0.000, 0.000, 0.000, 12:56:18.998
212, -26652.91, -107897.43, -187500.02, -187500.02, -187500.02, 13972.34, -81072.88, -187500.02, 0.000, 0.000, 0.000, 12:56:18.999
213, -26772.29, -107900.85, -187500.02, -187500.02, -187500.02, 13971.72, -81074.60, -187500.02, 0.000, 0.000, 0.000, 12:56:18.999
214, -26794.62, -107927.32, -187500.02, -187500.02, -187500.02, 13955.07, -81095.95, -187500.02, 0.000, 0.000, 0.000, 12:56:18.999
215, -26692.41, -107888.80, -187500.02, -187500.02, -187500.02, 14008.20, -81033.97, -187500.02, 0.000, 0.000, 0.000, 12:56:19.000
216, -26634.49, -107888.31, -187500.02, -187500.02, -187500.02, 14022.95, -81009.05, -187500.02, 0.000, 0.000, 0.000, 12:56:19.000
217, -26771.22, -107908.90, -187500.02, -187500.02, -187500.02, 14010.01, -81025.79, -187500.02, 0.000, 0.000, 0.000, 12:56:19.000
218, -26815.74, -107912.05, -187500.02, -187500.02, -187500.02, 14004.51, -81025.77, -187500.02, -0.350, -0.016, -0.954, 12:56:19.001
219, -26712.48, -107895.63, -187500.02, -187500.02, -187500.02, 14026.68, -80991.21, -187500.02, 0.000, 0.000, 0.000, 12:56:19.001
220, -26633.09, -107913.91, -187500.02, -187500.02, -187500.02, 14026.30, -80985.42, -187500.02, 0.000, 0.000, 0.000, 12:56:19.001
221, -26746.07, -107958.23, -187500.02, -187500.02, -187500.02, 13986.85, -81022.08, -187500.02, 0.000, 0.000, 0.000, 12:56:19.002
222, -26812.88, -107961.56, -187500.02, -187500.02, -187500.02, 13978.80, -81023.41, -187500.02, 0.000, 0.000, 0.000, 12:56:19.002
223, -26738.18, -107906.28, -187500.02, -187500.02, -187500.02, 14045.37, -80950.28, -187500.02, 0.000, 0.000, 0.000, 12:56:19.002
224, -26630.02, -107934.58, -187500.02, -187500.02, -187500.02, 14038.33, -80952.34, -187500.02, 0.000, 0.000, 0.000, 12:56:19.002
225, -26707.34, -107973.41, -187500.02, -187500.02, -187500.02, 14013.60, -80982.42, -187500.02, 0.000, 0.000, 0.000, 12:56:19.002
226, -26811.34, -108010.45, -187500.02, -187500.02, -187500.02, 13977.22, -81021.27, -187500.02, 0.000, 0.000, 0.000, 12:56:19.002
227, -26780.12, -107987.69, -187500.02, -187500.02, -187500.02, 14001.51, -80985.40, -187500.02, 0.000, 0.000, 0.000, 12:56:19.003
228, -26658.46, -107976.36, -187500.02, -187500.02, -187500.02, 14030.46, -80949.16, -187500.02, -0.354, -0.018, -0.956, 12:56:19.003
229, -26692.16, -108059.30, -187500.02, -187500.02, -187500.02, 13959.96, -81020.42, -187500.02, 0.000, 0.000, 0.000, 12:56:19.003
230, -26790.15, -108052.35, -187500.02, -187500.02, -187500.02, 13966.91, -81013.02, -187500.02, 0.000, 0.000, 0.000, 12:56:19.003
231, -26766.32, -108009.99, -187500.02, -187500.02, -187500.02, 14021.09, -80960.63, -187500.02, 0.000, 0.000, 0.000, 12:56:19.005
232, -26662.54, -107998.02, -187500.02, -187500.02, -187500.02, 14051.67, -80924.80, -187500.02, 0.000, 0.000, 0.000, 12:56:19.006
233, -26678.93, -108043.01, -187500.02, -187500.02, -187500.02, 14010.54, -80952.67, -187500.02, 0.000, 0.000, 0.000, 12:56:19.006
234, -26792.99, -108020.30, -187500.02, -187500.02, -187500.02, 14029.61, -80928.38, -187500.02, 0.000, 0.000, 0.000, 12:56:19.006
235, -26778.95, -108024.19, -187500.02, -187500.02, -187500.02, 14037.10, -80925.25, -187500.02, 0.000, 0.000, 0.000, 12:56:19.006
236, -26689.23, -108011.65, -187500.02, -187500.02, -187500.02, 14067.99, -80889.48, -187500.02, 0.000, 0.000, 0.000, 12:56:19.006
237, -26673.61, -108040.64, -187500.02, -187500.02, -187500.02, 14048.36, -80896.70, -187500.02, 0.000, 0.000, 0.000, 12:56:19.007
238, -26780.54, -108047.14, -187500.02, -187500.02, -187500.02, 14041.92, -80898.31, -187500.02, -0.360, -0.022, -0.952, 12:56:19.007
239, -26787.58, -108040.93, -187500.02, -187500.02, -187500.02, 14055.71, -80886.13, -187500.02, 0.000, 0.000, 0.000, 12:56:19.007
240, -26678.97, -108047.41, -187500.02, -187500.02, -187500.02, 14064.41, -80874.55, -187500.02, 0.000, 0.000, 0.000, 12:56:19.007
241, -26626.31, -108102.20, -187500.02, -187500.02, -187500.02, 14019.19, -80909.04, -187500.02, 0.000, 0.000, 0.000, 12:56:19.007
242, -26765.61, -108090.41, -187500.02, -187500.02, -187500.02, 14026.64, -80893.11, -187500.02, 0.000, 0.000, 0.000, 12:56:19.007
243, -26806.31, -108091.27, -187500.02, -187500.02, -187500.02, 14032.76, -80891.14, -187500.02, 0.000, 0.000, 0.000, 12:56:19.008
244, -26719.34, -108106.06, -187500.02, -187500.02, -187500.02, 14035.29, -80888.34, -187500.02, 0.000, 0.000, 0.000, 12:56:19.008
245, -26631.48, -108131.81, -187500.02, -187500.02, -187500.02, 14017.02, -80890.27, -187500.02, 0.000, 0.000, 0.000, 12:56:19.008
246, -26726.94, -108144.13, -187500.02, -187500.02, -187500.02, 14005.51, -80894.89, -187500.02, 0.000, 0.000, 0.000, 12:56:19.008
247, -26814.25, -108157.43, -187500.02, -187500.02, -187500.02, 13995.90, -80908.55, -187500.02, 0.000, 0.000, 0.000, 12:56:19.008
248, -26732.60, -108137.34, -187500.02, -187500.02, -187500.02, 14020.58, -80874.55, -187500.02, -0.356, -0.022, -0.954, 12:56:19.009
249, -26643.88, -108160.45, -187500.02, -187500.02, -187500.02, 14015.62, -80873.77, -187500.02, 0.000, 0.000, 0.000, 12:56:19.009
250, -26714.78, -108212.30, -187500.02, -187500.02, -187500.02, 13970.60, -80917.42, -187500.02, 0.000, 0.000, 0.000, 12:56:19.009
251, -26788.70, -108204.61, -187500.02, -187500.02, -187500.02, 13984.28, -80910.54, -187500.02, 0.000, 0.000, 0.000, 12:56:19.009
252, -26754.97, -108181.81, -187500.02, -187500.02, -187500.02, 14022.66, -80877.30, -187500.02, 0.000, 0.000, 0.000, 12:56:19.009
253, -26657.96, -108164.42, -187500.02, -187500.02, -187500.02, 14058.22, -80835.46, -187500.02, 0.000, 0.000, 0.000, 12:56:19.010
254, -26699.36, -108235.44, -187500.02, -187500.02, -187500.02, 13989.51, -80896.15, -187500.02, 0.000, 0.000, 0.000, 12:56:19.010
255, -26817.31, -108245.27, -187500.02, -187500.02, -187500.02, 13971.32, -80908.30, -187500.02, 0.000, 0.000, 0.000, 12:56:19.010
0, -26753.23, -108230.43, -187500.02, -187500.02, -187500.02, 13986.25, -80885.98, -187500.02, 0.000, 0.000, 0.000, 12:56:19.010
1, -26667.89, -108192.81, -187500.02, -187500.02, -187500.02, 14038.88, -80825.16, -187500.02, -0.348, -0.020, -0.954, 12:56:19.010
2, -26680.52, -108255.95, -187500.02, -187500.02, -187500.02, 13991.03, -80874.02, -187500.02, 0.000, 0.000, 0.000, 12:56:19.011
3, -26770.21, -108267.91, -187500.02, -187500.02, -187500.02, 13987.50, -80888.34, -187500.02, 0.000, 0.000, 0.000, 12:56:19.011
4, -26774.66, -108261.81, -187500.02, -187500.02, -187500.02, 13995.90, -80878.73, -187500.02, 0.000, 0.000, 0.000, 12:56:19.011
5, -26667.55, -108226.80, -187500.02, -187500.02, -187500.02, 14038.97, -80824.98, -187500.02, 0.000, 0.000, 0.000, 12:56:19.011
6, -26644.20, -108251.30, -187500.02, -187500.02, -187500.02, 14030.82, -80829.74, -187500.02, 0.000, 0.000, 0.000, 12:56:19.011
7, -26774.64, -108302.49, -187500.02, -187500.02, -187500.02, 13986.74, -80882.06, -187500.02, 0.000, 0.000, 0.000, 12:56:19.012
8, -26792.65, -108349.90, -187500.02, -187500.02, -187500.02, 13938.01, -80929.25, -187500.02, 0.000, 0.000, 0.000, 12:56:19.012
9, -26688.63, -108339.44, -187500.02, -187500.02, -187500.02, 13950.86, -80901.94, -187500.02, 0.000, 0.000, 0.000, 12:56:19.012
10, -26623.16, -108349.05, -187500.02, -187500.02, -187500.02, 13955.87, -80889.87, -187500.02, 0.000, 0.000, 0.000, 12:56:19.012
11, -26740.64, -108374.98, -187500.02, -187500.02, -187500.02, 13942.19, -80912.38, -187500.02, -0.350, -0.020, -0.950, 12:56:19.012
12, -26800.17, -108360.00, -187500.02, -187500.02, -187500.02, 13970.09, -80893.55, -187500.02, 0.000, 0.000, 0.000, 12:56:19.012
13, -26723.61, -108375.24, -187500.02, -187500.02, -187500.02, 13965.91, -80893.35, -187500.02, 0.000, 0.000, 0.000, 12:56:19.013
14, -26637.65, -108359.40, -187500.02, -187500.02, -187500.02, 13989.15, -80853.25, -187500.02, 0.000, 0.000, 0.000, 12:56:19.019
15, -26728.60, -108396.50, -187500.02, -187500.02, -187500.02, 13963.49, -80882.51, -187500.02, 0.000, 0.000, 0.000, 12:56:19.019
16, -26809.26, -108356.65, -187500.02, -187500.02, -187500.02, 14013.09, -80841.81, -187500.02, 0.000, 0.000, 0.000, 12:56:19.019
17, -26734.12, -108378.20, -187500.02, -187500.02, -187500.02, 14000.04, -80851.64, -187500.02, 0.000, 0.000, 0.000, 12:56:19.020
18, -26646.21, -108347.82, -187500.02, -187500.02, -187500.02, 14033.61, -80798.70, -187500.02, 0.000, 0.000, 0.000, 12:56:19.020
19, -26717.31, -108382.78, -187500.02, -187500.02, -187500.02, 14006.21, -80821.89, -187500.02, 0.000, 0.000, 0.000, 12:56:19.020
20, -26801.57, -108396.48, -187500.02, -187500.02, -187500.02, 13997.73, -80834.79, -187500.02, 0.000, 0.000, 0.000, 12:56:19.020
21, -26749.61, -108362.08, -187500.02, -187500.02, -187500.02, 14034.95, -80787.47, -187500.02, -0.348, -0.026, -0.954, 12:56:19.020
22, -26642.52, -108368.83, -187500.02, -187500.02, -187500.02, 14045.68, -80769.99, -187500.02, 0.000, 0.000, 0.000, 12:56:19.020
23, -26662.88, -108410.67, -187500.02, -187500.02, -187500.02, 14020.96, -80798.71, -187500.02, 0.000, 0.000, 0.000, 12:56:19.021
24, -26803.41, -108440.13, -187500.02, -187500.02, -187500.02, 13993.04, -80830.09, -187500.02, 0.000, 0.000, 0.000, 12:56:19.021
25, -26762.73, -108423.80, -187500.02, -187500.02, -187500.02, 14010.56, -80803.59, -187500.02, 0.000, 0.000, 0.000, 12:56:19.021
26, -26641.85, -108468.36, -187500.02, -187500.02, -187500.02, 13975.50, -80824.89, -187500.02, 0.000, 0.000, 0.000, 12:56:19.021
27, -26653.76, -108510.25, -187500.02, -187500.02, -187500.02, 13943.33, -80851.38, -187500.02, 0.000, 0.000, 0.000, 12:56:19.021
28, -26784.56, -108478.51, -187500.02, -187500.02, -187500.02, 13984.52, -80821.89, -187500.02, 0.000, 0.000, 0.000, 12:56:19.021
29, -26772.52, -108465.57, -187500.02, -187500.02, -187500.02, 14006.88, -80803.59, -187500.02, 0.000, 0.000, 0.000, 12:56:19.022
30, -26688.59, -108451.15, -187500.02, -187500.02, -187500.02, 14030.46, -80769.45, -187500.02, 0.000, 0.000, 0.000, 12:56:19.022
31, -26638.70, -108486.16, -187500.02, -187500.02, -187500.02, 14008.87, -80786.45, -187500.02, -0.352, -0.028, -0.952, 12:56:19.022
32, -26756.94, -108513.18, -187500.02, -187500.02, -187500.02, 13984.84, -80812.44, -187500.02, 0.000, 0.000, 0.000, 12:56:19.022
33, -26794.35, -108470.60, -187500.02, -187500.02, -187500.02, 14025.79, -80765.12, -187500.02, 0.000, 0.000, 0.000, 12:56:19.022
34, -26715.16, -108459.06, -187500.02, -187500.02, -187500.02, 14051.85, -80734.70, -187500.02, 0.000, 0.000, 0.000, 12:56:19.022
35, -26646.10, -108482.29, -187500.02, -187500.02, -187500.02, 14045.59, -80736.98, -187500.02, 0.000, 0.000, 0.000, 12:56:19.023
36, -26746.48, -108521.56, -187500.02, -187500.02, -187500.02, 14008.49, -80773.75, -187500.02, 0.000, 0.000, 0.000, 12:56:19.023
37, -26805.22, -108465.16, -187500.02, -187500.02, -187500.02, 14062.85, -80712.55, -187500.02, 0.000, 0.000, 0.000, 12:56:19.023
38, -26717.93, -108443.38, -187500.02, -187500.02, -187500.02, 14098.21, -80673.68, -187500.02, 0.000, 0.000, 0.000, 12:56:19.023
39, -26629.78, -108457.34, -187500.02, -187500.02, -187500.02, 14096.48, -80665.09, -187500.02, 0.000, 0.000, 0.000, 12:56:19.023
40, -26716.39, -108513.31, -187500.02, -187500.02, -187500.02, 14040.87, -80713.84, -187500.02, 0.000, 0.000, 0.000, 12:56:19.023
41, -26786.69, -108506.02, -187500.02, -187500.02, -187500.02, 14049.03, -80708.75, -187500.02, -0.360, -0.028, -0.950, 12:56:19.024
42, -26743.06, -108505.13, -187500.02, -187500.02, -187500.02, 14059.81, -80696.41, -187500.02, 0.000, 0.000, 0.000, 12:56:19.024
43, -26638.58, -108533.07, -187500.02, -187500.02, -187500.02, 14042.15, -80703.43, -187500.02, 0.000, 0.000, 0.000, 12:56:19.024
44, -26696.92, -108594.18, -187500.02, -187500.02, -187500.02, 13992.15, -80755.40, -187500.02, 0.000, 0.000, 0.000, 12:56:19.024
45, -26800.86, -108562.62, -187500.02, -187500.02, -187500.02, 14019.59, -80724.98, -187500.02, 0.000, 0.000, 0.000, 12:56:19.024
46, -26757.52, -108550.80, -187500.02, -187500.02, -187500.02, 14039.00, -80704.88, -187500.02, 0.000, 0.000, 0.000, 12:56:19.025
47, -26659.93, -108574.73, -187500.02, -187500.02, -187500.02, 14034.15, -80707.43, -187500.02, 0.000, 0.000, 0.000, 12:56:19.025
48, -26664.20, -108607.57, -187500.02, -187500.02, -187500.02, 14005.76, -80726.59, -187500.02, 0.000, 0.000, 0.000, 12:56:19.025
49, -26788.77, -108617.98, -187500.02, -187500.02, -187500.02, 13994.74, -80738.23, -187500.02, 0.000, 0.000, 0.000, 12:56:19.025
50, -26784.47, -108586.02, -187500.02, -187500.02, -187500.02, 14040.49, -80698.76, -187500.02, 0.000, 0.000, 0.000, 12:56:19.025
51, -26661.94, -108554.30, -187500.02, -187500.02, -187500.02, 14092.24, -80644.35, -187500.02, -0.350, -0.028, -0.946, 12:56:19.026
52, -26646.52, -108632.78, -187500.02, -187500.02, -187500.02, 14024.33, -80709.30, -187500.02, 0.000, 0.000, 0.000, 12:56:19.026
53, -26784.34, -108652.97, -187500.02, -187500.02, -187500.02, 13998.03, -80730.68, -187500.02, 0.000, 0.000, 0.000, 12:56:19.026
54, -26802.22, -108633.16, -187500.02, -187500.02, -187500.02, 14021.00, -80703.85, -187500.02, 0.000, 0.000, 0.000, 12:56:19.026
55, -26680.63, -108566.76, -187500.02, -187500.02, -187500.02, 14106.10, -80614.58, -187500.02, 0.000, 0.000, 0.000, 12:56:19.026
56, -26617.15, -108648.85, -187500.02, -187500.02, -187500.02, 14038.59, -80677.63, -187500.02, 0.000, 0.000, 0.000, 12:56:19.026
57, -26754.19, -108716.89, -187500.02, -187500.02, -187500.02, 13968.16, -80745.72, -187500.02, 0.000, 0.000, 0.000, 12:56:19.027
58, -26796.75, -108688.33, -187500.02, -187500.02, -187500.02, 14003.43, -80713.58, -187500.02, 0.000, 0.000, 0.000, 12:56:19.027
59, -26692.18, -108674.18, -187500.02, -187500.02, -187500.02, 14032.74, -80680.67, -187500.02, 0.000, 0.000, 0.000, 12:56:19.027
60, -26622.36, -108682.29, -187500.02, -187500.02, -187500.02, 14031.71, -80666.82, -187500.02, 0.000, 0.000, 0.000, 12:56:19.027
61, -26759.75, -108683.25, -187500.02, -187500.02, -187500.02, 14034.41, -80663.69, -187500.02, -0.350, -0.026, -0.950, 12:56:19.027
62, -26819.54, -108668.01, -187500.02, -187500.02, -187500.02, 14058.96, -80648.13, -187500.02, 0.000, 0.000, 0.000, 12:56:19.028
63, -26724.46, -108659.88, -187500.02, -187500.02, -187500.02, 14084.79, -80624.59, -187500.02, 0.000, 0.000, 0.000, 12:56:19.028
64, -26619.50, -108713.78, -187500.02, -187500.02, -187500.02, 14042.91, -80656.70, -187500.02, 0.000, 0.000, 0.000, 12:56:19.028
65, -26719.50, -108785.13, -187500.02, -187500.02, -187500.02, 13966.33, -80722.56, -187500.02, 0.000, 0.000, 0.000, 12:56:19.028
66, -26791.63, -108760.92, -187500.02, -187500.02, -187500.02, 13990.02, -80699.25, -187500.02, 0.000, 0.000, 0.000, 12:56:19.028
67, -26730.27, -108745.03, -187500.02, -187500.02, -187500.02, 14021.03, -80671.29, -187500.02, 0.000, 0.000, 0.000, 12:56:19.028
68, -26633.91, -108727.64, -187500.02, -187500.02, -187500.02, 14056.14, -80632.40, -187500.02, 0.000, 0.000, 0.000, 12:56:19.029
69, -26689.37, -108758.73, -187500.02, -187500.02, -187500.02, 14028.42, -80653.80, -187500.02, 0.000, 0.000, 0.000, 12:56:19.029
70, -26807.59, -108736.07, -187500.02, -187500.02, -187500.02, 14044.45, -80632.26, -187500.02, 0.000, 0.000, 0.000, 12:56:19.029
71, -26753.00, -108728.76, -187500.02, -187500.02, -187500.02, 14055.87, -80616.64, -187500.02, -0.350, -0.022, -0.944, 12:56:19.029
72, -26643.64, -108735.09, -187500.02, -187500.02, -187500.02, 14063.61, -80599.85, -187500.02, 0.000, 0.000, 0.000, 12:56:19.030
73, -26644.20, -108817.70, -187500.02, -187500.02, -187500.02, 13994.70, -80670.20, -187500.02, 0.000, 0.000, 0.000, 12:56:19.477
74, -26762.57, -108867.23, -187500.02, -187500.02, -187500.02, 13941.07, -80722.90, -187500.02, 0.000, 0.000, 0.000, 12:56:19.477
75, -26760.71, -108824.18, -187500.02, -187500.02, -187500.02, 13987.16, -80672.12, -187500.02, 0.000, 0.000, 0.000, 12:56:19.477
76, -26660.24, -108774.91, -187500.02, -187500.02, -187500.02, 14052.38, -80602.00, -187500.02, 0.000, 0.000, 0.000, 12:56:19.477
77, -26652.20, -108817.07, -187500.02, -187500.02, -187500.02, 14023.04, -80628.20, -187500.02, 0.000, 0.000, 0.000, 12:56:19.478
78, -26772.85, -108863.20, -187500.02, -187500.02, -187500.02, 13976.70, -80675.09, -187500.02, 0.000, 0.000, 0.000, 12:56:19.478
79, -26771.71, -108818.19, -187500.02, -187500.02, -187500.02, 14023.01, -80625.11, -187500.02, 0.000, 0.000, 0.000, 12:56:19.478
80, -26685.43, -108822.77, -187500.02, -187500.02, -187500.02, 14035.87, -80609.91, -187500.02, 0.000, 0.000, 0.000, 12:56:19.478
81, -26641.02, -108887.55, -187500.02, -187500.02, -187500.02, 13986.69, -80657.43, -187500.02, -0.350, -0.018, -0.950, 12:56:19.478
82, -26753.99, -108904.60, -187500.02, -187500.02, -187500.02, 13964.74, -80675.20, -187500.02, 0.000, 0.000, 0.000, 12:56:19.478
83, -26785.55, -108871.45, -187500.02, -187500.02, -187500.02, 14000.13, -80640.87, -187500.02, 0.000, 0.000, 0.000, 12:56:19.478
84, -26686.24, -108817.77, -187500.02, -187500.02, -187500.02, 14071.41, -80571.22, -187500.02, 0.000, 0.000, 0.000, 12:56:19.478
85, -26617.62, -108841.19, -187500.02, -187500.02, -187500.02, 14064.50, -80574.88, -187500.02, 0.000, 0.000, 0.000, 12:56:19.479
86, -26715.59, -108882.43, -187500.02, -187500.02, -187500.02, 14032.89, -80612.19, -187500.02, 0.000, 0.000, 0.000, 12:56:19.479
87, -26793.15, -108871.07, -187500.02, -187500.02, -187500.02, 14041.34, -80600.43, -187500.02, 0.000, 0.000, 0.000, 12:56:19.479
88, -26735.35, -108843.07, -187500.02, -187500.02, -187500.02, 14069.51, -80557.54, -187500.02, 0.000, 0.000, 0.000, 12:56:19.479
89, -26631.41, -108863.70, -187500.02, -187500.02, -187500.02, 14065.19, -80556.45, -187500.02, 0.000, 0.000, 0.000, 12:56:19.479
90, -26687.98, -108885.54, -187500.02, -187500.02, -187500.02, 14053.55, -80571.04, -187500.02, 0.000, 0.000, 0.000, 12:56:19.479
91, -26792.90, -108869.45, -187500.02, -187500.02, -187500.02, 14066.09, -80558.34, -187500.02, -0.342, -0.024, -0.946, 12:56:19.479
92, -26729.76, -108850.78, -187500.02, -187500.02, -187500.02, 14093.51, -80530.07, -187500.02, 0.000, 0.000, 0.000, 12:56:19.479
93, -26623.70, -108887.30, -187500.02, -187500.02, -187500.02, 14071.47, -80544.89, -187500.02, 0.000, 0.000, 0.000, 12:56:19.480
94, -26660.58, -108943.13, -187500.02, -187500.02, -187500.02, 14012.17, -80591.91, -187500.02, 0.000, 0.000, 0.000, 12:56:19.480
95, -26786.44, -108891.88, -187500.02, -187500.02, -187500.02, 14061.73, -80540.62, -187500.02, 0.000, 0.000, 0.000, 12:56:19.480
96, -26740.15, -108897.54, -187500.02, -187500.02, -187500.02, 14067.05, -80538.83, -187500.02, 0.000, 0.000, 0.000, 12:56:19.480
97, -26632.10, -108930.75, -187500.02, -187500.02, -187500.02, 14048.14, -80553.74, -187500.02, 0.000, 0.000, 0.000, 12:56:19.480
98, -26658.46, -108946.20, -187500.02, -187500.02, -187500.02, 14032.42, -80555.55, -187500.02, 0.000, 0.000, 0.000, 12:56:19.480
99, -26791.67, -108933.50, -187500.02, -187500.02, -187500.02, 14042.86, -80544.53, -187500.02, 0.000, 0.000, 0.000, 12:56:19.480
100, -26777.01, -108923.09, -187500.02, -187500.02, -187500.02, 14063.78, -80530.05, -187500.02, 0.000, 0.000, 0.000, 12:56:19.480
101, -26653.83, -108910.55, -187500.02, -187500.02, -187500.02, 14092.17, -80499.49, -187500.02, -0.342, -0.020, -0.940, 12:56:19.481
102, -26643.35, -108976.09, -187500.02, -187500.02, -187500.02, 14034.12, -80550.30, -187500.02, 0.000, 0.000, 0.000, 12:56:19.481
103, -26770.91, -108973.16, -187500.02, -187500.02, -187500.02, 14028.94, -80546.90, -187500.02, 0.000, 0.000, 0.000, 12:56:19.481
104, -26771.51, -108942.89, -187500.02, -187500.02, -187500.02, 14064.10, -80511.56, -187500.02, 0.000, 0.000, 0.000, 12:56:19.481
105, -26668.27, -108936.30, -187500.02, -187500.02, -187500.02, 14088.97, -80487.42, -187500.02, 0.000, 0.000, 0.000, 12:56:19.481
106, -26626.94, -109006.05, -187500.02, -187500.02, -187500.02, 14035.51, -80542.14, -187500.02, 0.000, 0.000, 0.000, 12:56:19.481
107, -26751.62, -109038.71, -187500.02, -187500.02, -187500.02, 14000.48, -80574.26, -187500.02, 0.000, 0.000, 0.000, 12:56:19.481
108, -26799.12, -109017.12, -187500.02, -187500.02, -187500.02, 14017.85, -80552.53, -187500.02, 0.000, 0.000, 0.000, 12:56:19.481
109, -26714.29, -108965.22, -187500.02, -187500.02, -187500.02, 14082.31, -80484.85, -187500.02, 0.000, 0.000, 0.000, 12:56:19.482
110, -26629.31, -109004.40, -187500.02, -187500.02, -187500.02, 14059.60, -80503.20, -187500.02, -0.346, -0.022, -0.948, 12:56:19.482
111, -26741.49, -109040.01, -187500.02, -187500.02, -187500.02, 14027.71, -80535.92, -187500.02, 0.000, 0.000, 0.000, 12:56:19.482
112, -26798.06, -109020.05, -187500.02, -187500.02, -187500.02, 14044.58, -80517.06, -187500.02, 0.000, 0.000, 0.000, 12:56:19.482
113, -26710.89, -109018.98, -187500.02, -187500.02, -187500.02, 14057.59, -80505.93, -187500.02, 0.000, 0.000, 0.000, 12:56:19.482
114, -26623.03, -109046.87, -187500.02, -187500.02, -187500.02, 14046.22, -80514.73, -187500.02, 0.000, 0.000, 0.000, 12:56:19.482
115, -26698.42, -109075.81, -187500.02, -187500.02, -187500.02, 14018.30, -80537.69, -187500.02, 0.000, 0.000, 0.000, 12:56:19.482
116, -26788.39, -109081.09, -187500.02, -187500.02, -187500.02, 14008.53, -80545.65, -187500.02, 0.000, 0.000, 0.000, 12:56:19.482
117, -26724.73, -109074.74, -187500.02, -187500.02, -187500.02, 14023.06, -80528.88, -187500.02, 0.000, 0.000, 0.000, 12:56:19.483
118, -26616.77, -109043.63, -187500.02, -187500.02, -187500.02, 14063.58, -80474.37, -187500.02, 0.000, 0.000, 0.000, 12:56:19.483
119, -26680.29, -109115.85, -187500.02, -187500.02, -187500.02, 14002.12, -80536.88, -187500.02, 0.000, 0.000, 0.000, 12:56:19.483
120, -26783.45, -109127.59, -187500.02, -187500.02, -187500.02, 13994.56, -80552.42, -187500.02, -0.356, -0.018, -0.954, 12:56:19.484
121, -26754.39, -109093.09, -187500.02, -187500.02, -187500.02, 14028.76, -80511.05, -187500.02, 0.000, 0.000, 0.000, 12:56:19.484
122, -26642.45, -109073.24, -187500.02, -187500.02, -187500.02, 14062.00, -80470.14, -187500.02, 0.000, 0.000, 0.000, 12:56:19.485
123, -26652.64, -109119.94, -187500.02, -187500.02, -187500.02, 14029.30, -80502.30, -187500.02, 0.000, 0.000, 0.000, 12:56:19.485
124, -26786.46, -109175.10, -187500.02, -187500.02, -187500.02, 13972.95, -80559.80, -187500.02, 0.000, 0.000, 0.000, 12:56:19.485
125, -26775.53, -109137.55, -187500.02, -187500.02, -187500.02, 14010.05, -80516.88, -187500.02, 0.000, 0.000, 0.000, 12:56:19.486
126, -26673.34, -109120.92, -187500.02, -187500.02, -187500.02, 14042.30, -80480.56, -187500.02, 0.000, 0.000, 0.000, 12:56:19.486
127, -26640.80, -109169.85, -187500.02, -187500.02, -187500.02, 14008.82, -80513.53, -187500.02, 0.000, 0.000, 0.000, 12:56:19.486
128, -26762.90, -109178.37, -187500.02, -187500.02, -187500.02, 14000.01, -80523.07, -187500.02, 0.000, 0.000, 0.000, 12:56:19.487
129, -26797.06, -109140.95, -187500.02, -187500.02, -187500.02, 14040.05, -80484.23, -187500.02, 0.000, 0.000, 0.000, 12:56:19.487
130, -26669.07, -109164.11, -187500.02, -187500.02, -187500.02, 14033.74, -80493.08, -187500.02, -0.356, -0.016, -0.960, 12:56:19.488
131, -26624.64, -109202.38, -187500.02, -187500.02, -187500.02, 14010.54, -80511.30, -187500.02, 0.000, 0.000, 0.000, 12:56:19.488
132, -26747.37, -109183.38, -187500.02, -187500.02, -187500.02, 14024.62, -80488.83, -187500.02, 0.000, 0.000, 0.000, 12:56:19.488
133, -26776.67, -109162.45, -187500.02, -187500.02, -187500.02, 14048.25, -80467.84, -187500.02, 0.000, 0.000, 0.000, 12:56:19.489
134, -26698.40, -109149.71, -187500.02, -187500.02, -187500.02, 14077.44, -80440.08, -187500.02, 0.000, 0.000, 0.000, 12:56:19.489
135, -26625.31, -109175.88, -187500.02, -187500.02, -187500.02, 14068.70, -80446.83, -187500.02, 0.000, 0.000, 0.000, 12:56:19.489
136, -26722.16, -109234.02, -187500.02, -187500.02, -187500.02, 14010.50, -80502.80, -187500.02, 0.000, 0.000, 0.000, 12:56:19.490
137, -26801.26, -109209.81, -187500.02, -187500.02, -187500.02, 14029.81, -80477.92, -187500.02, 0.000, 0.000, 0.000, 12:56:19.490
138, -26714.92, -109207.60, -187500.02, -187500.02, -187500.02, 14045.14, -80461.88, -187500.02, 0.000, 0.000, 0.000, 12:56:19.490
139, -26618.58, -109230.52, -187500.02, -187500.02, -187500.02, 14040.69, -80464.94, -187500.02, 0.000, 0.000, 0.000, 12:56:19.491
140, -26704.86, -109261.54, -187500.02, -187500.02, -187500.02, 14011.10, -80489.23, -187500.02, -0.356, -0.016, -0.958, 12:56:19.491
141, -26788.14, -109277.66, -187500.02, -187500.02, -187500.02, 13995.46, -80508.32, -187500.02, 0.000, 0.000, 0.000, 12:56:19.492
142, -26737.13, -109321.98, -187500.02, -187500.02, -187500.02, 13958.22, -80546.09, -187500.02, 0.000, 0.000, 0.000, 12:56:19.492
143, -26641.20, -109295.53, -187500.02, -187500.02, -187500.02, 13995.19, -80498.64, -187500.02, 0.000, 0.000, 0.000, 12:56:19.492
144, -26677.79, -109333.82, -187500.02, -187500.02, -187500.02, 13971.38, -80528.21, -187500.02, 0.000, 0.000, 0.000, 12:56:19.496
145, -26792.83, -109315.67, -187500.02, -187500.02, -187500.02, 13991.99, -80512.30, -187500.02, 0.000, 0.000, 0.000, 12:56:19.496
146, -26769.86, -109257.38, -187500.02, -187500.02, -187500.02, 14057.44, -80445.55, -187500.02, 0.000, 0.000, 0.000, 12:56:19.497
147, -26650.65, -109226.31, -187500.02, -187500.02, -187500.02, 14104.04, -80395.96, -187500.02, 0.000, 0.000, 0.000, 12:56:19.497
148, -26649.74, -109286.98, -187500.02, -187500.02, -187500.02, 14055.18, -80447.45, -187500.02, 0.000, 0.000, 0.000, 12:56:19.498
