%OpenBCI Raw EEG Data
%
%Sample Rate = 250.0 Hz
%First Column = SampleIndex
%Last Column = Timestamp 
%Other Columns = EEG data in microvolts followed by Accel Data (in G) interleaved with Aux Data
0, -21313.75, -98264.34, -187500.02, -108049.83, -102240.25, -3166.46, -98665.31, -125686.45, 0.754, 0.022, 0.690, 13:38:06.189
1, -21280.56, -98316.27, -187500.02, -108096.70, -102293.25, -3213.31, -98715.00, -125737.09, 0.000, 0.000, 0.000, 13:38:06.670
2, -21275.33, -98350.00, -187500.02, -108126.25, -102325.59, -3239.91, -98746.12, -125766.76, 0.000, 0.000, 0.000, 13:38:06.670
3, -21302.53, -98330.51, -187500.02, -108109.91, -102309.90, -3221.65, -98728.88, -125750.38, 0.000, 0.000, 0.000, 13:38:06.670
4, -21330.07, -98289.63, -187500.02, -108071.64, -102274.52, -3185.97, -98692.25, -125716.76, 0.000, 0.000, 0.000, 13:38:06.670
5, -21296.81, -98299.52, -187500.02, -108078.41, -102284.44, -3193.89, -98702.04, -125728.65, 0.000, 0.000, 0.000, 13:38:06.670
6, -21292.09, -98324.45, -187500.02, -108099.91, -102305.98, -3213.04, -98724.73, -125751.05, 0.000, 0.000, 0.000, 13:38:06.671
7, -21333.20, -98292.98, -187500.02, -108068.65, -102273.24, -3181.19, -98692.23, -125719.22, 0.754, 0.020, 0.682, 13:38:06.671
8, -21342.47, -98260.88, -187500.02, -108038.36, -102243.49, -3154.66, -98662.98, -125689.82, 0.000, 0.000, 0.000, 13:38:06.671
9, -21284.54, -98295.80, -187500.02, -108072.85, -102281.83, -3190.33, -98700.20, -125726.86, 0.000, 0.000, 0.000, 13:38:06.671
10, -21269.18, -98347.36, -187500.02, -108120.08, -102333.91, -3234.79, -98748.02, -125775.97, 0.000, 0.000, 0.000, 13:38:06.671
11, -21336.51, -98303.04, -187500.02, -108075.73, -102292.38, -3190.55, -98703.04, -125732.27, 0.000, 0.000, 0.000, 13:38:06.671
12, -21359.01, -98239.04, -187500.02, -108014.42, -102234.59, -3135.68, -98645.94, -125675.79, 0.000, 0.000, 0.000, 13:38:06.679
13, -21286.28, -98237.92, -187500.02, -108014.63, -102237.01, -3138.45, -98649.02, -125678.31, 0.000, 0.000, 0.000, 13:38:06.679
14, -21244.28, -98291.26, -187500.02, -108062.39, -102288.62, -3184.07, -98699.58, -125726.45, 0.000, 0.000, 0.000, 13:38:06.679
15, -21290.82, -98336.81, -187500.02, -108105.91, -102332.18, -3223.48, -98742.85, -125769.73, 0.000, 0.000, 0.000, 13:38:06.680
16, -21315.05, -98307.93, -187500.02, -108080.11, -102304.31, -3198.49, -98714.82, -125745.48, 0.000, 0.000, 0.000, 13:38:06.680
17, -21278.86, -98269.35, -187500.02, -108046.01, -102268.52, -3165.50, -98680.53, -125713.02, 0.752, 0.018, 0.702, 13:38:06.680
18, -21254.00, -98317.72, -187500.02, -108093.13, -102316.67, -3209.51, -98726.40, -125757.34, 0.000, 0.000, 0.000, 13:38:06.680
19, -21278.26, -98383.95, -187500.02, -108159.40, -102384.66, -3270.75, -98789.92, -125819.89, 0.000, 0.000, 0.000, 13:38:06.680
20, -21315.88, -98335.13, -187500.02, -108114.27, -102340.07, -3223.59, -98741.51, -125775.43, 0.000, 0.000, 0.000, 13:38:06.680
21, -21303.16, -98294.77, -187500.02, -108075.80, -102303.91, -3186.96, -98702.93, -125740.67, 0.000, 0.000, 0.000, 13:38:06.680
22, -21268.11, -98353.57, -187500.02, -108128.95, -102361.06, -3236.80, -98757.70, -125793.58, 0.000, 0.000, 0.000, 13:38:06.680
23, -21276.47, -98338.44, -187500.02, -108109.59, -102341.55, -3213.98, -98735.61, -125770.71, 0.000, 0.000, 0.000, 13:38:06.680
24, -21333.33, -98315.20, -187500.02, -108089.08, -102321.19, -3193.21, -98713.21, -125752.63, 0.000, 0.000, 0.000, 13:38:06.681
25, -21332.93, -98307.08, -187500.02, -108087.09, -102318.44, -3191.40, -98711.09, -125755.18, 0.000, 0.000, 0.000, 13:38:06.681
26, -21261.13, -98346.38, -187500.02, -108122.34, -102356.59, -3225.71, -98749.35, -125791.08, 0.000, 0.000, 0.000, 13:38:06.681
27, -21266.05, -98414.86, -187500.02, -108182.84, -102421.84, -3282.67, -98815.47, -125851.20, 0.746, 0.024, 0.708, 13:38:06.681
28, -21307.60, -98371.63, -187500.02, -108138.79, -102376.93, -3236.13, -98770.23, -125805.20, 0.000, 0.000, 0.000, 13:38:06.681
29, -21325.35, -98288.46, -187500.02, -108057.02, -102293.74, -3157.05, -98687.95, -125726.13, 0.000, 0.000, 0.000, 13:38:06.681
30, -21295.74, -98340.79, -187500.02, -108106.76, -102349.13, -3208.19, -98741.13, -125778.65, 0.000, 0.000, 0.000, 13:38:06.681
31, -21281.86, -98412.73, -187500.02, -108174.88, -102420.98, -3271.98, -98809.17, -125845.55, 0.000, 0.000, 0.000, 13:38:06.681
32, -21313.91, -98407.10, -187500.02, -108167.46, -102413.25, -3262.73, -98799.71, -125839.20, 0.000, 0.000, 0.000, 13:38:06.682
33, -21346.16, -98310.23, -187500.02, -108070.23, -102316.34, -3168.61, -98702.04, -125746.71, 0.000, 0.000, 0.000, 13:38:06.682
34, -21312.68, -98313.90, -187500.02, -108071.35, -102323.06, -3171.62, -98706.33, -125753.55, 0.000, 0.000, 0.000, 13:38:06.682
35, -21272.33, -98399.26, -187500.02, -108151.46, -102411.15, -3252.36, -98791.40, -125836.79, 0.000, 0.000, 0.000, 13:38:06.682
36, -21292.27, -98427.94, -187500.02, -108179.24, -102442.51, -3278.96, -98820.23, -125866.22, 0.746, 0.022, 0.690, 13:38:06.682
37, -21350.54, -98339.09, -187500.02, -108094.13, -102352.14, -3191.02, -98728.86, -125780.19, 0.000, 0.000, 0.000, 13:38:06.682
38, -21322.04, -98311.80, -187500.02, -108066.27, -102325.99, -3165.39, -98701.12, -125757.19, 0.000, 0.000, 0.000, 13:38:06.682
39, -21256.98, -98425.70, -187500.02, -108175.76, -102440.81, -3275.54, -98815.98, -125869.59, 0.000, 0.000, 0.000, 13:38:06.682
40, -21268.15, -98487.13, -187500.02, -108234.66, -102501.38, -3333.67, -98874.26, -125928.02, 0.000, 0.000, 0.000, 13:38:06.682
41, -21345.92, -98404.02, -187500.02, -108154.59, -102417.09, -3251.31, -98788.16, -125848.23, 0.000, 0.000, 0.000, 13:38:06.683
42, -21354.12, -98356.97, -187500.02, -108110.78, -102371.08, -3206.51, -98742.05, -125806.95, 0.000, 0.000, 0.000, 13:38:06.683
43, -21264.35, -98450.47, -187500.02, -108199.41, -102466.18, -3296.12, -98837.09, -125900.98, 0.000, 0.000, 0.000, 13:38:06.683
44, -21261.29, -98482.14, -187500.02, -108226.25, -102499.04, -3322.23, -98866.12, -125931.78, 0.000, 0.000, 0.000, 13:38:06.683
45, -21316.52, -98417.37, -187500.02, -108162.45, -102433.95, -3256.67, -98797.19, -125867.72, 0.000, 0.000, 0.000, 13:38:06.683
46, -21333.46, -98352.19, -187500.02, -108098.24, -102371.08, -3193.55, -98731.95, -125805.38, 0.752, 0.026, 0.698, 13:38:06.683
47, -21273.47, -98398.19, -187500.02, -108141.38, -102421.77, -3236.69, -98779.98, -125850.73, 0.000, 0.000, 0.000, 13:38:06.683
48, -21293.25, -98438.80, -187500.02, -108180.02, -102463.90, -3272.70, -98819.25, -125887.73, 0.000, 0.000, 0.000, 13:38:06.684
49, -21338.79, -98386.43, -187500.02, -108127.14, -102409.48, -3218.67, -98762.12, -125835.66, 0.000, 0.000, 0.000, 13:38:06.684
50, -21314.31, -98299.84, -187500.02, -108036.52, -102321.68, -3133.76, -98671.13, -125753.13, 0.000, 0.000, 0.000, 13:38:06.684
51, -21268.06, -98359.14, -187500.02, -108091.76, -102385.88, -3191.85, -98733.59, -125814.97, 0.000, 0.000, 0.000, 13:38:06.684
52, -21265.96, -98453.69, -187500.02, -108180.36, -102483.28, -3284.30, -98831.56, -125908.69, 0.000, 0.000, 0.000, 13:38:06.684
53, -21314.87, -98445.73, -187500.02, -108171.64, -102473.52, -3274.96, -98820.48, -125900.31, 0.000, 0.000, 0.000, 13:38:06.684
54, -21346.90, -98365.06, -187500.02, -108093.34, -102390.23, -3196.14, -98735.81, -125821.41, 0.000, 0.000, 0.000, 13:38:06.684
55, -21313.68, -98354.91, -187500.02, -108084.05, -102382.50, -3188.41, -98729.71, -125813.92, 0.000, 0.000, 0.000, 13:38:06.685
56, -21281.74, -98406.32, -187500.02, -108134.72, -102436.41, -3235.28, -98783.89, -125864.37, 0.748, 0.026, 0.706, 13:38:06.685
57, -21304.30, -98381.16, -187500.02, -108106.76, -102408.41, -3206.02, -98753.52, -125838.57, 0.000, 0.000, 0.000, 13:38:06.685
58, -21333.02, -98314.03, -187500.02, -108038.36, -102338.09, -3139.57, -98681.59, -125775.07, 0.000, 0.000, 0.000, 13:38:06.685
59, -21297.84, -98336.52, -187500.02, -108058.30, -102364.57, -3163.98, -98708.41, -125803.66, 0.000, 0.000, 0.000, 13:38:06.685
60, -21265.02, -98445.91, -187500.02, -108166.63, -102481.85, -3271.71, -98825.73, -125916.96, 0.000, 0.000, 0.000, 13:38:06.685
61, -21307.52, -98442.65, -187500.02, -108163.71, -102480.33, -3264.49, -98821.40, -125915.11, 0.000, 0.000, 0.000, 13:38:06.685
62, -21364.76, -98347.18, -187500.02, -108066.75, -102380.10, -3166.66, -98717.80, -125819.82, 0.000, 0.000, 0.000, 13:38:06.685
63, -21318.56, -98326.02, -187500.02, -108044.41, -102359.05, -3146.90, -98696.56, -125804.30, 0.000, 0.000, 0.000, 13:38:06.686
64, -21265.14, -98442.66, -187500.02, -108160.36, -102483.80, -3262.57, -98819.54, -125926.73, 0.000, 0.000, 0.000, 13:38:06.686
65, -21285.28, -98461.40, -187500.02, -108180.20, -102504.27, -3277.30, -98838.52, -125945.80, 0.000, 0.000, 0.000, 13:38:06.686
66, -21343.88, -98361.06, -187500.02, -108083.47, -102401.18, -3174.77, -98732.93, -125846.87, 0.744, 0.020, 0.696, 13:38:06.686
67, -21329.15, -98288.71, -187500.02, -108011.80, -102330.71, -3105.89, -98659.63, -125779.56, 0.000, 0.000, 0.000, 13:38:06.687
68, -21262.68, -98402.30, -187500.02, -108121.89, -102452.16, -3220.75, -98781.07, -125899.26, 0.000, 0.000, 0.000, 13:38:06.687
69, -21273.54, -98466.41, -187500.02, -108183.06, -102519.00, -3282.04, -98846.70, -125965.42, 0.000, 0.000, 0.000, 13:38:06.687
70, -21337.78, -98412.88, -187500.02, -108132.26, -102463.12, -3227.70, -98787.20, -125912.20, 0.000, 0.000, 0.000, 13:38:06.687
71, -21338.34, -98356.12, -187500.02, -108079.40, -102408.23, -3172.76, -98729.98, -125859.52, 0.000, 0.000, 0.000, 13:38:06.687
72, -21270.19, -98400.51, -187500.02, -108126.41, -102460.08, -3217.11, -98782.05, -125907.39, 0.000, 0.000, 0.000, 13:38:06.687
73, -21275.64, -98419.13, -187500.02, -108146.05, -102481.54, -3233.83, -98804.14, -125926.91, 0.000, 0.000, 0.000, 13:38:06.687
74, -21335.32, -98377.34, -187500.02, -108105.02, -102438.47, -3191.83, -98758.30, -125888.30, 0.000, 0.000, 0.000, 13:38:06.687
75, -21357.56, -98331.96, -187500.02, -108057.91, -102391.35, -3149.09, -98708.30, -125848.56, 0.000, 0.000, 0.000, 13:38:06.688
76, -21298.26, -98410.52, -187500.02, -108139.50, -102480.33, -3232.17, -98797.97, -125936.92, 0.750, 0.020, 0.692, 13:38:06.688
77, -21267.62, -98490.19, -187500.02, -108221.42, -102567.93, -3311.46, -98887.09, -126022.33, 0.000, 0.000, 0.000, 13:38:06.688
78, -21297.32, -98457.62, -187500.02, -108190.27, -102533.53, -3276.85, -98850.59, -125990.45, 0.000, 0.000, 0.000, 13:38:06.688
79, -21347.28, -98334.64, -187500.02, -108070.26, -102405.12, -3155.33, -98721.41, -125870.00, 0.000, 0.000, 0.000, 13:38:06.688
80, -21277.43, -98344.32, -187500.02, -108083.22, -102418.51, -3169.05, -98736.55, -125886.30, 0.000, 0.000, 0.000, 13:38:06.688
81, -21246.23, -98438.42, -187500.02, -108178.23, -102520.45, -3263.94, -98838.31, -125985.76, 0.000, 0.000, 0.000, 13:38:06.688
82, -21305.39, -98414.52, -187500.02, -108155.38, -102496.36, -3238.68, -98810.13, -125964.15, 0.000, 0.000, 0.000, 13:38:06.688
83, -21363.01, -98318.84, -187500.02, -108060.24, -102397.67, -3143.15, -98706.57, -125870.76, 0.000, 0.000, 0.000, 13:38:06.689
84, -21322.02, -98328.61, -187500.02, -108068.94, -102413.88, -3156.40, -98720.01, -125887.19, 0.000, 0.000, 0.000, 13:38:06.689
85, -21250.74, -98420.34, -187500.02, -108161.79, -102517.62, -3249.88, -98823.25, -125988.48, 0.000, 0.000, 0.000, 13:38:06.689
86, -21287.40, -98444.68, -187500.02, -108184.48, -102544.10, -3271.16, -98847.44, -126014.26, 0.748, 0.018, 0.688, 13:38:06.689
87, -21334.81, -98349.30, -187500.02, -108086.95, -102441.66, -3170.30, -98741.13, -125917.05, 0.000, 0.000, 0.000, 13:38:06.689
88, -21289.28, -98338.66, -187500.02, -108072.40, -102432.84, -3159.06, -98728.75, -125909.30, 0.000, 0.000, 0.000, 13:38:06.689
89, -21255.12, -98448.10, -187500.02, -108180.67, -102550.94, -3269.23, -98846.48, -126022.20, 0.000, 0.000, 0.000, 13:38:06.689
90, -21291.87, -98486.01, -187500.02, -108219.74, -102589.50, -3305.62, -98886.15, -126061.51, 0.000, 0.000, 0.000, 13:38:06.690
91, -21346.18, -98405.63, -187500.02, -108140.28, -102503.09, -3221.04, -98797.99, -125979.19, 0.000, 0.000, 0.000, 13:38:06.690
92, -21340.26, -98341.88, -187500.02, -108074.28, -102436.95, -3155.31, -98728.26, -125914.73, 0.000, 0.000, 0.000, 13:38:06.690
93, -21267.51, -98415.51, -187500.02, -108147.33, -102518.44, -3231.44, -98809.55, -125991.68, 0.000, 0.000, 0.000, 13:38:06.690
94, -21270.79, -98481.34, -187500.02, -108211.05, -102587.59, -3295.81, -98878.17, -126058.49, 0.000, 0.000, 0.000, 13:38:06.690
95, -21337.18, -98435.56, -187500.02, -108166.03, -102536.10, -3245.00, -98825.04, -126012.27, 0.000, 0.000, 0.000, 13:38:06.690
96, -21358.70, -98342.33, -187500.02, -108073.09, -102437.04, -3149.92, -98725.87, -125919.64, 0.750, 0.024, 0.698, 13:38:06.690
97, -21279.78, -98363.70, -187500.02, -108091.06, -102464.73, -3173.23, -98754.36, -125945.91, 0.000, 0.000, 0.000, 13:38:06.690
98, -21244.24, -98436.95, -187500.02, -108160.94, -102542.70, -3245.50, -98830.73, -126022.51, 0.000, 0.000, 0.000, 13:38:06.691
99, -21320.93, -98387.88, -187500.02, -108111.41, -102491.06, -3193.66, -98774.88, -125973.80, 0.000, 0.000, 0.000, 13:38:06.691
100, -21349.36, -98302.45, -187500.02, -108024.57, -102402.26, -3108.43, -98683.66, -125890.70, 0.000, 0.000, 0.000, 13:38:06.691
101, -21268.85, -98377.98, -187500.02, -108100.01, -102484.82, -3186.40, -98767.52, -125972.84, 0.000, 0.000, 0.000, 13:38:06.691
102, -21238.13, -98445.15, -187500.02, -108167.04, -102559.01, -3253.92, -98842.63, -126045.73, 0.000, 0.000, 0.000, 13:38:06.691
103, -21297.61, -98420.29, -187500.02, -108142.43, -102534.31, -3228.46, -98816.55, -126024.59, 0.000, 0.000, 0.000, 13:38:06.691
104, -21339.25, -98320.72, -187500.02, -108042.30, -102432.77, -3128.51, -98709.75, -125926.73, 0.000, 0.000, 0.000, 13:38:06.691
105, -21295.78, -98342.82, -187500.02, -108062.63, -102461.31, -3153.09, -98736.39, -125953.10, 0.000, 0.000, 0.000, 13:38:06.691
106, -21264.64, -98444.55, -187500.02, -108164.87, -102572.73, -3257.27, -98849.87, -126060.68, 0.748, 0.024, 0.692, 13:38:06.691
107, -21293.21, -98469.09, -187500.02, -108189.84, -102597.56, -3279.18, -98874.26, -126087.13, 0.000, 0.000, 0.000, 13:38:06.692
108, -21316.01, -98390.97, -187500.02, -108112.05, -102511.18, -3195.96, -98786.03, -126008.54, 0.000, 0.000, 0.000, 13:38:06.692
109, -21298.96, -98387.32, -187500.02, -108109.73, -102508.07, -3192.45, -98783.45, -126010.44, 0.000, 0.000, 0.000, 13:38:06.692
110, -21237.15, -98467.23, -187500.02, -108190.80, -102596.78, -3275.56, -98875.64, -126098.16, 0.000, 0.000, 0.000, 13:38:06.692
111, -21272.24, -98481.07, -187500.02, -108204.59, -102612.83, -3289.60, -98892.25, -126115.96, 0.000, 0.000, 0.000, 13:38:06.692
112, -21333.73, -98391.52, -187500.02, -108114.02, -102517.10, -3198.62, -98793.81, -126026.41, 0.000, 0.000, 0.000, 13:38:06.692
113, -21309.06, -98389.23, -187500.02, -108110.22, -102516.77, -3198.00, -98791.55, -126031.00, 0.000, 0.000, 0.000, 13:38:06.692
114, -21251.28, -98496.40, -187500.02, -108214.89, -102633.09, -3305.96, -98907.05, -126145.06, 0.000, 0.000, 0.000, 13:38:06.692
115, -21280.40, -98531.25, -187500.02, -108247.88, -102671.37, -3337.14, -98942.90, -126182.50, 0.000, 0.000, 0.000, 13:38:06.693
116, -21325.96, -98475.21, -187500.02, -108191.60, -102609.86, -3276.14, -98877.72, -126125.57, 0.744, 0.026, 0.700, 13:38:06.693
117, -21339.54, -98390.68, -187500.02, -108106.94, -102523.65, -3190.15, -98788.78, -126042.94, 0.000, 0.000, 0.000, 13:38:06.693
118, -21276.45, -98444.30, -187500.02, -108160.47, -102585.67, -3244.56, -98852.64, -126101.38, 0.000, 0.000, 0.000, 13:38:06.693
119, -21288.11, -98535.90, -187500.02, -108253.36, -102683.04, -3334.92, -98950.74, -126197.70, 0.000, 0.000, 0.000, 13:38:06.693
120, -21342.61, -98460.02, -187500.02, -108178.13, -102602.20, -3254.70, -98867.95, -126122.28, 0.000, 0.000, 0.000, 13:38:06.693
121, -21336.59, -98361.04, -187500.02, -108075.22, -102496.98, -3153.81, -98761.13, -126023.06, 0.000, 0.000, 0.000, 13:38:06.693
122, -21249.60, -98451.81, -187500.02, -108164.80, -102595.62, -3246.30, -98859.57, -126120.88, 0.000, 0.000, 0.000, 13:38:07.149
123, -21253.80, -98521.39, -187500.02, -108234.43, -102667.80, -3312.68, -98934.30, -126194.10, 0.000, 0.000, 0.000, 13:38:07.149
124, -21343.79, -98460.15, -187500.02, -108175.04, -102602.59, -3248.51, -98869.30, -126131.94, 0.000, 0.000, 0.000, 13:38:07.149
125, -21362.37, -98383.55, -187500.02, -108097.15, -102522.69, -3171.29, -98785.81, -126055.99, 0.748, 0.024, 0.694, 13:38:07.149
126, -21256.11, -98443.98, -187500.02, -108156.76, -102591.40, -3232.80, -98854.16, -126122.44, 0.000, 0.000, 0.000, 13:38:07.150
127, -21235.90, -98518.44, -187500.02, -108232.26, -102675.23, -3308.71, -98938.77, -126204.59, 0.000, 0.000, 0.000, 13:38:07.150
128, -21272.87, -98481.42, -187500.02, -108195.67, -102635.09, -3268.99, -98897.57, -126169.00, 0.000, 0.000, 0.000, 13:38:07.150
129, -21323.76, -98397.88, -187500.02, -108112.95, -102544.97, -3183.65, -98803.91, -126086.84, 0.000, 0.000, 0.000, 13:38:07.151
130, -21274.43, -98428.77, -187500.02, -108146.70, -102581.12, -3216.82, -98840.39, -126123.73, 0.000, 0.000, 0.000, 13:38:07.151
131, -21248.37, -98496.84, -187500.02, -108215.52, -102658.07, -3284.95, -98918.18, -126195.73, 0.000, 0.000, 0.000, 13:38:07.151
132, -21311.65, -98474.54, -187500.02, -108190.15, -102632.01, -3258.44, -98892.16, -126170.20, 0.000, 0.000, 0.000, 13:38:07.151
133, -21355.62, -98392.24, -187500.02, -108105.86, -102542.45, -3175.29, -98801.23, -126087.28, 0.000, 0.000, 0.000, 13:38:07.151
134, -21297.66, -98375.23, -187500.02, -108087.91, -102528.05, -3161.48, -98785.68, -126075.59, 0.000, 0.000, 0.000, 13:38:07.151
135, -21234.36, -98454.63, -187500.02, -108165.41, -102613.41, -3240.69, -98872.24, -126159.57, 0.746, 0.028, 0.690, 13:38:07.152
136, -21282.12, -98469.51, -187500.02, -108176.80, -102626.94, -3250.19, -98885.12, -126173.38, 0.000, 0.000, 0.000, 13:38:07.152
137, -21340.93, -98392.58, -187500.02, -108098.38, -102545.33, -3171.20, -98800.49, -126097.61, 0.000, 0.000, 0.000, 13:38:07.152
138, -21329.62, -98333.12, -187500.02, -108037.45, -102487.08, -3113.62, -98739.84, -126043.07, 0.000, 0.000, 0.000, 13:38:07.152
139, -21296.83, -98402.32, -187500.02, -108106.84, -102565.71, -3185.03, -98819.00, -126118.69, 0.000, 0.000, 0.000, 13:38:07.153
140, -21307.11, -98472.57, -187500.02, -108177.77, -102640.01, -3255.40, -98894.02, -126194.91, 0.000, 0.000, 0.000, 13:38:07.153
141, -21339.03, -98424.14, -187500.02, -108128.33, -102585.65, -3202.87, -98838.34, -126149.13, 0.000, 0.000, 0.000, 13:38:07.153
142, -21341.20, -98329.84, -187500.02, -108031.81, -102488.69, -3108.28, -98739.21, -126058.45, 0.000, 0.000, 0.000, 13:38:07.153
143, -21277.05, -98401.14, -187500.02, -108101.73, -102568.13, -3181.23, -98819.56, -126136.52, 0.000, 0.000, 0.000, 13:38:07.160
144, -21289.16, -98466.90, -187500.02, -108167.27, -102639.12, -3243.89, -98888.92, -126206.51, 0.000, 0.000, 0.000, 13:38:07.160
145, -21349.80, -98416.59, -187500.02, -108117.20, -102584.36, -3189.53, -98832.33, -126157.53, 0.748, 0.024, 0.690, 13:38:07.160
146, -21374.14, -98332.02, -187500.02, -108032.59, -102492.96, -3105.33, -98739.99, -126074.59, 0.000, 0.000, 0.000, 13:38:07.160
147, -21278.90, -98344.12, -187500.02, -108045.24, -102509.97, -3121.11, -98757.96, -126091.04, 0.000, 0.000, 0.000, 13:38:07.160
148, -21260.35, -98392.58, -187500.02, -108093.88, -102565.58, -3170.86, -98814.22, -126142.60, 0.000, 0.000, 0.000, 13:38:07.160
149, -21320.59, -98403.66, -187500.02, -108101.62, -102572.69, -3177.17, -98819.59, -126152.05, 0.000, 0.000, 0.000, 13:38:07.160
150, -21354.45, -98338.84, -187500.02, -108036.64, -102501.90, -3110.11, -98745.65, -126086.30, 0.000, 0.000, 0.000, 13:38:07.160
151, -21287.00, -98372.64, -187500.02, -108071.82, -102542.02, -3147.17, -98785.90, -126124.56, 0.000, 0.000, 0.000, 13:38:07.160
152, -21250.85, -98465.89, -187500.02, -108166.55, -102643.92, -3241.32, -98888.72, -126222.78, 0.000, 0.000, 0.000, 13:38:07.160
153, -21297.01, -98418.35, -187500.02, -108119.12, -102594.26, -3189.91, -98837.71, -126174.09, 0.000, 0.000, 0.000, 13:38:07.161
154, -21333.38, -98326.28, -187500.02, -108026.23, -102497.03, -3098.67, -98738.56, -126083.50, 0.000, 0.000, 0.000, 13:38:07.161
155, -21284.29, -98341.91, -187500.02, -108040.48, -102517.48, -3116.59, -98758.45, -126107.04, 0.744, 0.022, 0.690, 13:38:07.161
156, -21237.93, -98455.01, -187500.02, -108152.84, -102638.73, -3229.51, -98882.02, -126228.12, 0.000, 0.000, 0.000, 13:38:07.161
157, -21292.20, -98444.39, -187500.02, -108139.68, -102624.95, -3213.04, -98868.00, -126216.70, 0.000, 0.000, 0.000, 13:38:07.161
158, -21356.69, -98324.41, -187500.02, -108019.65, -102496.96, -3089.15, -98737.82, -126093.96, 0.000, 0.000, 0.000, 13:38:07.161
159, -21317.19, -98298.56, -187500.02, -107990.84, -102470.81, -3064.22, -98712.27, -126070.14, 0.000, 0.000, 0.000, 13:38:07.161
160, -21245.04, -98409.25, -187500.02, -108099.56, -102588.42, -3175.71, -98832.70, -126185.67, 0.000, 0.000, 0.000, 13:38:07.162
161, -21284.76, -98429.08, -187500.02, -108117.87, -102606.91, -3193.26, -98851.28, -126203.84, 0.000, 0.000, 0.000, 13:38:07.162
162, -21339.66, -98337.77, -187500.02, -108026.36, -102507.00, -3098.82, -98750.59, -126109.68, 0.000, 0.000, 0.000, 13:38:07.162
163, -21337.40, -98315.64, -187500.02, -108005.32, -102482.25, -3076.52, -98725.46, -126091.59, 0.000, 0.000, 0.000, 13:38:07.162
164, -21259.32, -98438.58, -187500.02, -108129.06, -102614.64, -3201.13, -98857.27, -126220.52, 0.000, 0.000, 0.000, 13:38:07.162
165, -21258.77, -98467.52, -187500.02, -108158.70, -102648.10, -3228.69, -98888.31, -126253.58, 0.748, 0.024, 0.702, 13:38:07.162
166, -21334.11, -98383.86, -187500.02, -108075.17, -102560.02, -3143.37, -98796.70, -126169.85, 0.000, 0.000, 0.000, 13:38:07.162
167, -21329.31, -98332.14, -187500.02, -108023.05, -102505.74, -3092.63, -98740.59, -126119.29, 0.000, 0.000, 0.000, 13:38:07.162
168, -21257.09, -98399.66, -187500.02, -108093.26, -102579.70, -3162.68, -98817.13, -126191.38, 0.000, 0.000, 0.000, 13:38:07.162
169, -21263.79, -98441.48, -187500.02, -108136.30, -102623.05, -3203.50, -98862.81, -126235.36, 0.000, 0.000, 0.000, 13:38:07.163
170, -21327.79, -98437.62, -187500.02, -108133.53, -102617.41, -3196.55, -98853.13, -126232.26, 0.000, 0.000, 0.000, 13:38:07.163
171, -21349.45, -98367.88, -187500.02, -108064.11, -102545.40, -3125.42, -98777.18, -126165.22, 0.000, 0.000, 0.000, 13:38:07.163
172, -21294.44, -98398.39, -187500.02, -108096.07, -102584.42, -3160.27, -98818.89, -126203.42, 0.000, 0.000, 0.000, 13:38:07.163
173, -21273.54, -98488.80, -187500.02, -108185.44, -102681.43, -3249.88, -98918.23, -126298.28, 0.000, 0.000, 0.000, 13:38:07.163
174, -21325.96, -98480.91, -187500.02, -108176.94, -102670.32, -3238.25, -98905.15, -126290.05, 0.000, 0.000, 0.000, 13:38:07.163
175, -21371.26, -98374.52, -187500.02, -108069.20, -102557.42, -3130.25, -98790.02, -126182.90, 0.742, 0.028, 0.710, 13:38:07.163
176, -21300.07, -98391.75, -187500.02, -108083.55, -102580.00, -3148.65, -98813.91, -126205.19, 0.000, 0.000, 0.000, 13:38:07.163
177, -21261.34, -98505.95, -187500.02, -108197.28, -102701.81, -3262.62, -98935.66, -126324.10, 0.000, 0.000, 0.000, 13:38:07.163
178, -21309.04, -98495.06, -187500.02, -108185.79, -102688.49, -3249.03, -98919.07, -126315.00, 0.000, 0.000, 0.000, 13:38:07.163
179, -21368.74, -98403.20, -187500.02, -108095.80, -102590.44, -3155.31, -98818.38, -126225.13, 0.000, 0.000, 0.000, 13:38:07.164
180, -21301.35, -98402.21, -187500.02, -108096.92, -102593.27, -3155.44, -98819.49, -126228.73, 0.000, 0.000, 0.000, 13:38:07.164
181, -21230.29, -98468.05, -187500.02, -108163.26, -102666.97, -3221.76, -98894.44, -126297.73, 0.000, 0.000, 0.000, 13:38:07.164
182, -21263.91, -98509.81, -187500.02, -108205.06, -102707.80, -3261.10, -98937.27, -126342.45, 0.000, 0.000, 0.000, 13:38:07.164
183, -21329.31, -98431.94, -187500.02, -108125.63, -102623.12, -3179.94, -98850.52, -126265.20, 0.000, 0.000, 0.000, 13:38:07.164
184, -21308.05, -98434.64, -187500.02, -108128.86, -102625.93, -3181.46, -98852.64, -126271.66, 0.000, 0.000, 0.000, 13:38:07.164
185, -21264.15, -98519.09, -187500.02, -108216.34, -102717.55, -3265.50, -98946.66, -126361.07, 0.750, 0.032, 0.708, 13:38:07.164
186, -21294.89, -98542.67, -187500.02, -108241.42, -102743.16, -3286.47, -98971.98, -126387.76, 0.000, 0.000, 0.000, 13:38:07.164
187, -21350.63, -98449.40, -187500.02, -108150.48, -102644.77, -3191.29, -98872.94, -126296.29, 0.000, 0.000, 0.000, 13:38:07.164
188, -21352.98, -98356.05, -187500.02, -108054.19, -102550.31, -3099.16, -98777.81, -126206.15, 0.000, 0.000, 0.000, 13:38:07.164
189, -21238.29, -98439.91, -187500.02, -108137.71, -102642.02, -3185.30, -98872.52, -126295.87, 0.000, 0.000, 0.000, 13:38:07.165
190, -21237.49, -98501.48, -187500.02, -108200.81, -102706.69, -3245.43, -98938.63, -126360.71, 0.000, 0.000, 0.000, 13:38:07.165
191, -21337.22, -98421.08, -187500.02, -108124.30, -102621.52, -3163.04, -98852.82, -126279.23, 0.000, 0.000, 0.000, 13:38:07.165
192, -21350.14, -98356.63, -187500.02, -108059.64, -102554.96, -3100.86, -98784.49, -126216.09, 0.000, 0.000, 0.000, 13:38:07.165
193, -21260.55, -98430.42, -187500.02, -108134.20, -102637.30, -3177.88, -98868.34, -126297.59, 0.000, 0.000, 0.000, 13:38:07.165
194, -21250.09, -98524.36, -187500.02, -108229.31, -102738.92, -3272.27, -98968.76, -126396.96, 0.000, 0.000, 0.000, 13:38:07.165
195, -21322.60, -98455.09, -187500.02, -108162.23, -102667.51, -3200.79, -98894.20, -126326.34, 0.754, 0.028, 0.702, 13:38:07.166
196, -21344.62, -98364.01, -187500.02, -108070.68, -102574.77, -3108.52, -98797.73, -126236.66, 0.000, 0.000, 0.000, 13:38:07.166
197, -21275.13, -98412.80, -187500.02, -108122.20, -102633.87, -3162.06, -98857.00, -126293.84, 0.000, 0.000, 0.000, 13:38:07.166
198, -21247.68, -98507.53, -187500.02, -108219.70, -102736.48, -3259.44, -98962.70, -126395.02, 0.000, 0.000, 0.000, 13:38:07.166
199, -21297.99, -98485.49, -187500.02, -108199.02, -102712.45, -3235.64, -98936.91, -126374.16, 0.000, 0.000, 0.000, 13:38:07.166
200, -21341.69, -98409.09, -187500.02, -108123.14, -102631.25, -3157.27, -98851.59, -126298.05, 0.000, 0.000, 0.000, 13:38:07.166
201, -21282.77, -98397.59, -187500.02, -108110.55, -102624.21, -3148.38, -98844.41, -126290.48, 0.000, 0.000, 0.000, 13:38:07.166
202, -21263.08, -98492.98, -187500.02, -108205.95, -102729.33, -3245.56, -98949.31, -126392.13, 0.000, 0.000, 0.000, 13:38:07.167
203, -21323.18, -98499.10, -187500.02, -108212.03, -102734.73, -3247.82, -98951.48, -126397.99, 0.000, 0.000, 0.000, 13:38:07.167
204, -21376.40, -98403.77, -187500.02, -108115.77, -102632.45, -3151.08, -98847.91, -126303.22, 0.000, 0.000, 0.000, 13:38:07.167
205, -21297.59, -98377.53, -187500.02, -108091.60, -102609.50, -3128.55, -98826.36, -126282.68, 0.748, 0.026, 0.706, 13:38:07.168
206, -21245.60, -98456.52, -187500.02, -108171.69, -102696.63, -3210.40, -98915.34, -126364.95, 0.000, 0.000, 0.000, 13:38:07.168
207, -21284.89, -98478.92, -187500.02, -108191.40, -102717.57, -3230.61, -98937.18, -126384.94, 0.000, 0.000, 0.000, 13:38:07.168
208, -21348.44, -98403.88, -187500.02, -108115.77, -102634.05, -3153.85, -98851.16, -126307.27, 0.000, 0.000, 0.000, 13:38:07.168
209, -21300.68, -98372.93, -187500.02, -108084.63, -102600.72, -3122.99, -98818.11, -126277.54, 0.000, 0.000, 0.000, 13:38:07.168
210, -21231.97, -98473.91, -187500.02, -108186.62, -102711.23, -3224.28, -98929.91, -126385.63, 0.000, 0.000, 0.000, 13:38:07.168
211, -21270.63, -98534.38, -187500.02, -108247.15, -102773.25, -3281.24, -98993.64, -126449.40, 0.000, 0.000, 0.000, 13:38:07.168
212, -21352.20, -98436.38, -187500.02, -108150.50, -102668.42, -3182.28, -98887.27, -126352.91, 0.000, 0.000, 0.000, 13:38:07.168
213, -21329.46, -98339.29, -187500.02, -108054.74, -102569.34, -3088.85, -98785.41, -126257.65, 0.000, 0.000, 0.000, 13:38:07.168
214, -21237.04, -98409.48, -187500.02, -108124.84, -102649.42, -3163.26, -98867.28, -126335.20, 0.000, 0.000, 0.000, 13:38:07.169
215, -21238.20, -98494.05, -187500.02, -108208.75, -102738.59, -3245.94, -98958.88, -126424.91, 0.750, 0.028, 0.704, 13:38:07.169
216, -21320.52, -98438.80, -187500.02, -108152.53, -102679.15, -3185.86, -98897.32, -126368.42, 0.000, 0.000, 0.000, 13:38:07.169
217, -21348.06, -98381.27, -187500.02, -108096.81, -102617.21, -3126.58, -98834.38, -126312.68, 0.000, 0.000, 0.000, 13:38:07.169
218, -21291.49, -98437.95, -187500.02, -108157.65, -102682.91, -3184.16, -98899.42, -126373.43, 0.000, 0.000, 0.000, 13:38:07.169
219, -21261.96, -98529.44, -187500.02, -108248.69, -102781.63, -3273.01, -98997.86, -126466.32, 0.000, 0.000, 0.000, 13:38:07.169
220, -21309.88, -98488.33, -187500.02, -108206.78, -102736.75, -3225.89, -98950.43, -126424.13, 0.000, 0.000, 0.000, 13:38:07.169
221, -21341.91, -98388.76, -187500.02, -108107.16, -102631.00, -3123.34, -98843.44, -126324.30, 0.000, 0.000, 0.000, 13:38:07.169
222, -21256.66, -98434.15, -187500.02, -108154.41, -102679.26, -3171.60, -98895.63, -126374.55, 0.000, 0.000, 0.000, 13:38:07.169
223, -21242.02, -98550.34, -187500.02, -108272.45, -102800.12, -3286.76, -99019.90, -126494.53, 0.000, 0.000, 0.000, 13:38:07.170
224, -21317.91, -98542.34, -187500.02, -108263.17, -102788.12, -3272.52, -99007.70, -126484.47, 0.750, 0.026, 0.694, 13:38:07.170
225, -21359.48, -98418.88, -187500.02, -108136.87, -102655.88, -3144.35, -98873.72, -126358.27, 0.000, 0.000, 0.000, 13:38:07.170
226, -21272.91, -98429.32, -187500.02, -108145.60, -102670.14, -3156.96, -98888.61, -126373.38, 0.000, 0.000, 0.000, 13:38:07.170
227, -21231.90, -98533.28, -187500.02, -108252.24, -102783.20, -3263.04, -99003.56, -126483.98, 0.000, 0.000, 0.000, 13:38:07.170
228, -21278.28, -98508.88, -187500.02, -108227.39, -102756.24, -3235.46, -98975.84, -126458.72, 0.000, 0.000, 0.000, 13:38:07.170
229, -21352.24, -98424.38, -187500.02, -108140.89, -102660.69, -3148.09, -98879.94, -126369.70, 0.000, 0.000, 0.000, 13:38:07.170
230, -21313.66, -98390.79, -187500.02, -108106.94, -102626.38, -3117.11, -98847.50, -126338.11, 0.000, 0.000, 0.000, 13:38:07.170
231, -21209.30, -98481.07, -187500.02, -108197.84, -102723.85, -3207.14, -98946.79, -126432.05, 0.000, 0.000, 0.000, 13:38:07.170
232, -21244.53, -98528.63, -187500.02, -108244.16, -102770.28, -3249.30, -98992.25, -126480.25, 0.000, 0.000, 0.000, 13:38:07.171
233, -21334.14, -98478.56, -187500.02, -108193.08, -102713.37, -3194.44, -98931.37, -126428.81, 0.000, 0.000, 0.000, 13:38:07.171
234, -21320.86, -98408.02, -187500.02, -108123.79, -102643.90, -3123.48, -98858.21, -126360.13, 0.750, 0.028, 0.698, 13:38:07.171
235, -21243.52, -98470.63, -187500.02, -108185.95, -102715.07, -3186.11, -98930.25, -126429.20, 0.000, 0.000, 0.000, 13:38:07.171
236, -21271.37, -98535.34, -187500.02, -108249.27, -102783.84, -3248.54, -98996.86, -126497.66, 0.000, 0.000, 0.000, 13:38:07.171
237, -21340.30, -98463.56, -187500.02, -108175.71, -102707.31, -3174.10, -98913.73, -126422.89, 0.000, 0.000, 0.000, 13:38:07.171
238, -21328.91, -98397.31, -187500.02, -108106.29, -102638.70, -3107.07, -98840.93, -126356.42, 0.000, 0.000, 0.000, 13:38:07.171
239, -21245.09, -98475.28, -187500.02, -108182.35, -102722.89, -3185.50, -98928.13, -126438.38, 0.000, 0.000, 0.000, 13:38:07.171
240, -21254.07, -98587.20, -187500.02, -108292.99, -102837.02, -3296.30, -99043.88, -126552.33, 0.000, 0.000, 0.000, 13:38:07.172
241, -21339.43, -98527.63, -187500.02, -108234.23, -102770.52, -3233.83, -98976.56, -126490.64, 0.000, 0.000, 0.000, 13:38:07.172
242, -21348.17, -98432.01, -187500.02, -108139.44, -102669.13, -3138.79, -98876.38, -126396.23, 0.000, 0.000, 0.000, 13:38:07.629
243, -21272.15, -98530.51, -187500.02, -108240.04, -102776.42, -3241.05, -98985.41, -126502.42, 0.000, 0.000, 0.000, 13:38:07.629
244, -21272.11, -98593.85, -187500.02, -108304.48, -102846.30, -3303.68, -99055.80, -126568.42, 0.750, 0.020, 0.700, 13:38:07.630
245, -21327.99, -98533.02, -187500.02, -108241.98, -102779.84, -3237.43, -98987.78, -126504.34, 0.000, 0.000, 0.000, 13:38:07.630
246, -21362.57, -98450.06, -187500.02, -108157.72, -102692.23, -3152.87, -98895.16, -126421.87, 0.000, 0.000, 0.000, 13:38:07.630
247, -21297.35, -98498.91, -187500.02, -108208.63, -102749.58, -3203.76, -98950.81, -126478.02, 0.000, 0.000, 0.000, 13:38:07.630
248, -21268.89, -98578.50, -187500.02, -108291.00, -102838.14, -3282.22, -99038.25, -126562.10, 0.000, 0.000, 0.000, 13:38:07.630
249, -21306.67, -98562.31, -187500.02, -108276.59, -102820.26, -3261.72, -99016.70, -126545.27, 0.000, 0.000, 0.000, 13:38:07.630
250, -21355.50, -98454.38, -187500.02, -108171.58, -102705.95, -3153.79, -98897.95, -126436.08, 0.000, 0.000, 0.000, 13:38:07.630
251, -21299.63, -98462.09, -187500.02, -108181.91, -102718.63, -3164.43, -98909.30, -126448.69, 0.000, 0.000, 0.000, 13:38:07.630
252, -21265.81, -98534.17, -187500.02, -108255.95, -102799.09, -3235.84, -98992.34, -126525.48, 0.000, 0.000, 0.000, 13:38:07.630
253, -21307.89, -98517.97, -187500.02, -108242.95, -102784.52, -3218.58, -98976.72, -126511.02, 0.000, 0.000, 0.000, 13:38:07.630
254, -21320.48, -98438.87, -187500.02, -108163.95, -102698.13, -3138.10, -98887.51, -126429.71, 0.756, 0.022, 0.694, 13:38:07.630
255, -21286.88, -98417.25, -187500.02, -108141.58, -102679.02, -3119.77, -98867.44, -126410.66, 0.000, 0.000, 0.000, 13:38:07.631
0, -21240.46, -98542.73, -187500.02, -108271.17, -102816.77, -3247.98, -99006.96, -126543.55, 0.000, 0.000, 0.000, 13:38:07.631
1, -21251.39, -98569.16, -187500.02, -108303.20, -102847.41, -3273.17, -99036.58, -126572.16, 0.000, 0.000, 0.000, 13:38:07.631
2, -21316.23, -98472.51, -187500.02, -108208.23, -102746.18, -3174.26, -98932.23, -126473.61, 0.000, 0.000, 0.000, 13:38:07.631
3, -21305.99, -98388.06, -187500.02, -108120.03, -102661.70, -3090.04, -98845.53, -126388.94, 0.000, 0.000, 0.000, 13:38:07.631
4, -21251.57, -98499.64, -187500.02, -108230.61, -102785.34, -3204.99, -98970.93, -126506.98, 0.000, 0.000, 0.000, 13:38:07.631
5, -21249.65, -98562.49, -187500.02, -108291.20, -102848.17, -3264.11, -99035.41, -126571.76, 0.000, 0.000, 0.000, 13:38:07.631
6, -21330.29, -98529.68, -187500.02, -108256.16, -102807.56, -3226.50, -98991.98, -126535.81, 0.000, 0.000, 0.000, 13:38:07.631
7, -21330.07, -98442.02, -187500.02, -108168.63, -102715.41, -3137.27, -98898.06, -126447.97, 0.000, 0.000, 0.000, 13:38:07.631
8, -21249.24, -98495.91, -187500.02, -108222.13, -102777.52, -3193.37, -98960.13, -126507.25, 0.752, 0.024, 0.702, 13:38:07.631
9, -21241.38, -98539.41, -187500.02, -108265.45, -102826.05, -3237.11, -99008.55, -126553.98, 0.000, 0.000, 0.000, 13:38:07.631
10, -21318.89, -98483.84, -187500.02, -108206.96, -102764.63, -3179.38, -98945.23, -126495.58, 0.000, 0.000, 0.000, 13:38:07.632
11, -21345.92, -98444.14, -187500.02, -108166.37, -102721.51, -3138.03, -98899.18, -126454.72, 0.000, 0.000, 0.000, 13:38:07.632
12, -21269.40, -98504.27, -187500.02, -108227.43, -102788.88, -3199.74, -98964.63, -126518.78, 0.000, 0.000, 0.000, 13:38:07.632
13, -21250.05, -98560.15, -187500.02, -108283.38, -102848.95, -3254.41, -99024.08, -126575.84, 0.000, 0.000, 0.000, 13:38:07.632
14, -21296.47, -98544.95, -187500.02, -108267.76, -102828.34, -3235.28, -99001.73, -126558.79, 0.000, 0.000, 0.000, 13:38:07.632
15, -21332.93, -98482.63, -187500.02, -108206.71, -102761.23, -3170.59, -98930.09, -126497.55, 0.000, 0.000, 0.000, 13:38:07.632
16, -21282.68, -98493.61, -187500.02, -108218.67, -102779.91, -3183.87, -98944.73, -126512.26, 0.000, 0.000, 0.000, 13:38:07.639
17, -21259.88, -98583.05, -187500.02, -108310.29, -102879.29, -3274.78, -99043.64, -126606.58, 0.000, 0.000, 0.000, 13:38:07.639
18, -21294.93, -98549.93, -187500.02, -108279.42, -102845.11, -3238.37, -99005.46, -126574.13, 0.756, 0.026, 0.706, 13:38:07.640
19, -21346.23, -98424.45, -187500.02, -108154.57, -102713.80, -3111.14, -98871.20, -126449.42, 0.000, 0.000, 0.000, 13:38:07.640
20, -21287.29, -98432.19, -187500.02, -108161.36, -102725.40, -3121.35, -98883.98, -126461.07, 0.000, 0.000, 0.000, 13:38:07.640
21, -21209.26, -98512.29, -187500.02, -108240.29, -102814.27, -3203.59, -98973.79, -126543.59, 0.000, 0.000, 0.000, 13:38:07.640
22, -21271.86, -98559.19, -187500.02, -108285.50, -102861.20, -3248.47, -99020.59, -126590.53, 0.000, 0.000, 0.000, 13:38:07.640
23, -21319.81, -98448.50, -187500.02, -108173.14, -102742.85, -3134.81, -98898.13, -126477.05, 0.000, 0.000, 0.000, 13:38:07.641
24, -21278.77, -98426.20, -187500.02, -108153.36, -102724.23, -3116.19, -98876.20, -126457.67, 0.000, 0.000, 0.000, 13:38:07.641
25, -21234.04, -98508.43, -187500.02, -108238.72, -102815.70, -3200.01, -98968.05, -126543.48, 0.000, 0.000, 0.000, 13:38:07.641
26, -21266.34, -98559.84, -187500.02, -108290.94, -102868.83, -3250.50, -99021.47, -126597.46, 0.000, 0.000, 0.000, 13:38:07.641
27, -21323.99, -98479.23, -187500.02, -108209.38, -102781.07, -3166.12, -98931.74, -126515.79, 0.000, 0.000, 0.000, 13:38:07.641
28, -21315.45, -98431.85, -187500.02, -108162.03, -102731.20, -3118.34, -98880.11, -126467.87, 0.750, 0.028, 0.702, 13:38:07.642
29, -21243.86, -98480.09, -187500.02, -108212.86, -102786.73, -3170.48, -98936.33, -126518.78, 0.000, 0.000, 0.000, 13:38:07.642
30, -21263.08, -98543.95, -187500.02, -108275.52, -102851.70, -3232.87, -99002.94, -126582.26, 0.000, 0.000, 0.000, 13:38:07.642
31, -21347.97, -98491.02, -187500.02, -108219.97, -102791.51, -3174.91, -98938.98, -126525.89, 0.000, 0.000, 0.000, 13:38:07.642
32, -21357.00, -98425.12, -187500.02, -108153.61, -102721.55, -3108.79, -98865.25, -126459.93, 0.000, 0.000, 0.000, 13:38:07.643
33, -21254.45, -98486.07, -187500.02, -108215.27, -102790.26, -3171.96, -98933.94, -126526.38, 0.000, 0.000, 0.000, 13:38:07.643
34, -21244.97, -98541.46, -187500.02, -108267.35, -102849.85, -3226.21, -98993.39, -126585.01, 0.000, 0.000, 0.000, 13:38:07.643
35, -21310.73, -98507.80, -187500.02, -108233.45, -102812.97, -3190.76, -98953.85, -126552.91, 0.000, 0.000, 0.000, 13:38:07.643
36, -21351.14, -98411.51, -187500.02, -108135.92, -102713.46, -3094.96, -98851.57, -126458.30, 0.000, 0.000, 0.000, 13:38:07.643
37, -21267.01, -98486.55, -187500.02, -108210.58, -102796.02, -3174.53, -98934.77, -126538.61, 0.000, 0.000, 0.000, 13:38:07.643
38, -21247.32, -98596.67, -187500.02, -108322.63, -102911.09, -3282.93, -99050.12, -126649.96, 0.754, 0.030, 0.700, 13:38:07.644
39, -21302.66, -98565.55, -187500.02, -108293.44, -102875.60, -3249.05, -99012.41, -126615.19, 0.000, 0.000, 0.000, 13:38:07.644
40, -21338.65, -98499.35, -187500.02, -108230.77, -102803.96, -3182.49, -98938.79, -126549.90, 0.000, 0.000, 0.000, 13:38:07.644
41, -21272.40, -98570.27, -187500.02, -108305.06, -102878.98, -3254.95, -99015.01, -126625.80, 0.000, 0.000, 0.000, 13:38:07.644
42, -21245.80, -98668.45, -187500.02, -108403.99, -102982.82, -3351.76, -99121.63, -126726.07, 0.000, 0.000, 0.000, 13:38:07.644
43, -21295.51, -98648.33, -187500.02, -108382.76, -102957.77, -3325.81, -99098.22, -126703.90, 0.000, 0.000, 0.000, 13:38:07.645
44, -21361.12, -98537.15, -187500.02, -108269.39, -102836.59, -3210.29, -98976.77, -126588.09, 0.000, 0.000, 0.000, 13:38:07.645
45, -21287.46, -98529.21, -187500.02, -108262.03, -102831.70, -3202.85, -98972.31, -126581.03, 0.000, 0.000, 0.000, 13:38:07.645
46, -21212.68, -98624.14, -187500.02, -108357.72, -102937.76, -3299.32, -99077.05, -126680.02, 0.000, 0.000, 0.000, 13:38:07.645
47, -21264.40, -98656.04, -187500.02, -108387.77, -102969.50, -3328.78, -99106.78, -126711.30, 0.000, 0.000, 0.000, 13:38:07.645
48, -21327.56, -98549.17, -187500.02, -108279.02, -102854.14, -3218.63, -98987.11, -126600.12, 0.752, 0.026, 0.698, 13:38:07.645
49, -21312.30, -98458.76, -187500.02, -108185.16, -102762.32, -3129.38, -98892.56, -126509.48, 0.000, 0.000, 0.000, 13:38:07.646
50, -21243.03, -98526.35, -187500.02, -108249.72, -102837.02, -3199.07, -98969.41, -126581.59, 0.000, 0.000, 0.000, 13:38:07.646
51, -21248.64, -98579.37, -187500.02, -108303.07, -102891.65, -3250.75, -99024.73, -126635.05, 0.000, 0.000, 0.000, 13:38:07.646
52, -21304.54, -98509.12, -187500.02, -108232.87, -102814.80, -3176.74, -98945.88, -126562.57, 0.000, 0.000, 0.000, 13:38:07.646
53, -21294.64, -98460.82, -187500.02, -108183.84, -102765.92, -3129.38, -98894.93, -126517.06, 0.000, 0.000, 0.000, 13:38:07.646
54, -21234.58, -98552.10, -187500.02, -108278.09, -102868.34, -3223.05, -98998.80, -126615.19, 0.000, 0.000, 0.000, 13:38:07.647
55, -21252.06, -98636.81, -187500.02, -108363.29, -102955.64, -3305.09, -99086.38, -126701.40, 0.000, 0.000, 0.000, 13:38:07.647
56, -21293.21, -98601.77, -187500.02, -108328.69, -102912.79, -3264.92, -99043.02, -126663.95, 0.000, 0.000, 0.000, 13:38:07.647
57, -21312.63, -98510.37, -187500.02, -108238.01, -102814.98, -3171.35, -98946.30, -126571.64, 0.000, 0.000, 0.000, 13:38:07.647
58, -21263.73, -98564.84, -187500.02, -108292.55, -102875.63, -3226.88, -99009.59, -126630.70, 0.752, 0.030, 0.700, 13:38:07.647
59, -21260.29, -98633.44, -187500.02, -108362.62, -102951.33, -3297.24, -99084.30, -126702.71, 0.000, 0.000, 0.000, 13:38:07.648
60, -21319.56, -98558.16, -187500.02, -108286.40, -102871.76, -3220.71, -99003.07, -126626.47, 0.000, 0.000, 0.000, 13:38:07.648
61, -21341.58, -98427.80, -187500.02, -108152.47, -102733.33, -3089.95, -98864.31, -126494.89, 0.000, 0.000, 0.000, 13:38:07.648
62, -21281.41, -98503.80, -187500.02, -108226.52, -102815.20, -3168.56, -98947.46, -126575.22, 0.000, 0.000, 0.000, 13:38:07.648
63, -21276.47, -98625.88, -187500.02, -108348.16, -102944.51, -3289.46, -99076.95, -126700.88, 0.000, 0.000, 0.000, 13:38:07.648
64, -21317.64, -98590.57, -187500.02, -108310.65, -102905.91, -3249.14, -99035.59, -126661.90, 0.000, 0.000, 0.000, 13:38:07.648
65, -21359.64, -98515.63, -187500.02, -108234.77, -102825.66, -3171.13, -98954.05, -126586.95, 0.000, 0.000, 0.000, 13:38:07.649
66, -21290.95, -98539.77, -187500.02, -108259.59, -102855.15, -3197.39, -98981.48, -126614.00, 0.000, 0.000, 0.000, 13:38:07.649
67, -21247.95, -98643.37, -187500.02, -108362.35, -102966.13, -3301.29, -99092.19, -126720.39, 0.754, 0.032, 0.690, 13:38:07.649
68, -21295.38, -98612.45, -187500.02, -108329.96, -102932.28, -3266.13, -99056.78, -126688.09, 0.000, 0.000, 0.000, 13:38:07.649
69, -21346.29, -98510.55, -187500.02, -108225.60, -102822.40, -3158.10, -98942.81, -126582.23, 0.000, 0.000, 0.000, 13:38:07.649
70, -21303.92, -98492.53, -187500.02, -108202.87, -102804.27, -3138.23, -98922.72, -126562.77, 0.000, 0.000, 0.000, 13:38:07.650
71, -21252.46, -98602.93, -187500.02, -108311.05, -102921.38, -3247.95, -99041.74, -126674.91, 0.000, 0.000, 0.000, 13:38:07.650
72, -21281.30, -98603.51, -187500.02, -108308.66, -102922.00, -3244.45, -99040.29, -126672.92, 0.000, 0.000, 0.000, 13:38:07.650
73, -21356.00, -98529.15, -187500.02, -108234.67, -102842.43, -3168.14, -98958.05, -126598.09, 0.000, 0.000, 0.000, 13:38:07.650
74, -21332.37, -98512.72, -187500.02, -108217.55, -102826.65, -3152.71, -98941.24, -126584.95, 0.000, 0.000, 0.000, 13:38:07.651
75, -21235.12, -98590.75, -187500.02, -108295.25, -102911.83, -3231.66, -99029.27, -126666.41, 0.000, 0.000, 0.000, 13:38:07.651
76, -21250.90, -98625.55, -187500.02, -108331.55, -102949.13, -3266.46, -99067.53, -126702.70, 0.000, 0.000, 0.000, 13:38:07.651
77, -21322.49, -98537.55, -187500.02, -108244.78, -102856.98, -3178.44, -98972.34, -126614.63, 0.760, 0.036, 0.694, 13:38:07.651
78, -21317.95, -98474.05, -187500.02, -108179.96, -102792.36, -3117.31, -98904.97, -126553.25, 0.000, 0.000, 0.000, 13:38:07.651
79, -21249.40, -98552.73, -187500.02, -108258.81, -102881.43, -3199.76, -98993.39, -126639.10, 0.000, 0.000, 0.000, 13:38:07.652
80, -21265.27, -98598.23, -187500.02, -108303.95, -102931.61, -3244.60, -99043.73, -126687.38, 0.000, 0.000, 0.000, 13:38:07.652
81, -21323.41, -98540.10, -187500.02, -108246.34, -102870.15, -3186.04, -98980.02, -126629.65, 0.000, 0.000, 0.000, 13:38:07.652
82, -21332.64, -98468.33, -187500.02, -108174.37, -102795.09, -3114.80, -98902.60, -126560.00, 0.000, 0.000, 0.000, 13:38:07.652
83, -21279.42, -98519.22, -187500.02, -108225.02, -102854.05, -3167.94, -98962.73, -126616.98, 0.000, 0.000, 0.000, 13:38:07.652
84, -21270.25, -98592.00, -187500.02, -108296.99, -102935.23, -3241.76, -99044.58, -126695.85, 0.000, 0.000, 0.000, 13:38:07.652
85, -21322.07, -98569.54, -187500.02, -108272.25, -102907.63, -3216.62, -99016.80, -126673.97, 0.000, 0.000, 0.000, 13:38:07.653
86, -21340.35, -98496.11, -187500.02, -108198.82, -102826.60, -3143.35, -98935.68, -126600.03, 0.000, 0.000, 0.000, 13:38:07.653
87, -21273.29, -98512.16, -187500.02, -108215.23, -102848.02, -3161.83, -98957.12, -126618.47, 0.754, 0.030, 0.698, 13:38:07.653
88, -21265.11, -98623.29, -187500.02, -108324.77, -102965.77, -3272.27, -99076.36, -126731.75, 0.000, 0.000, 0.000, 13:38:07.653
89, -21307.94, -98615.76, -187500.02, -108317.17, -102956.06, -3262.33, -99066.75, -126724.04, 0.000, 0.000, 0.000, 13:38:07.653
90, -21348.82, -98528.43, -187500.02, -108228.62, -102860.24, -3171.87, -98968.72, -126634.19, 0.000, 0.000, 0.000, 13:38:07.654
91, -21292.03, -98543.83, -187500.02, -108242.27, -102878.52, -3188.28, -98987.31, -126653.07, 0.000, 0.000, 0.000, 13:38:07.654
92, -21261.34, -98662.36, -187500.02, -108359.58, -103008.01, -3309.33, -99117.16, -126779.29, 0.000, 0.000, 0.000, 13:38:07.654
93, -21306.78, -98643.72, -187500.02, -108340.29, -102989.59, -3286.62, -99095.30, -126760.96, 0.000, 0.000, 0.000, 13:38:07.654
94, -21338.74, -98526.24, -187500.02, -108220.02, -102865.88, -3166.53, -98968.31, -126640.62, 0.000, 0.000, 0.000, 13:38:07.654
95, -21318.06, -98519.55, -187500.02, -108211.79, -102862.03, -3162.19, -98962.93, -126636.22, 0.000, 0.000, 0.000, 13:38:07.654
96, -21252.26, -98650.60, -187500.02, -108345.56, -103003.56, -3295.70, -99103.92, -126773.23, 0.000, 0.000, 0.000, 13:38:07.655
97, -21255.55, -98720.37, -187500.02, -108414.59, -103073.45, -3361.28, -99172.02, -126843.44, 0.756, 0.030, 0.698, 13:38:07.655
98, -21323.61, -98619.73, -187500.02, -108312.52, -102963.40, -3254.17, -99057.48, -126739.05, 0.000, 0.000, 0.000, 13:38:07.655
99, -21310.91, -98535.90, -187500.02, -108226.45, -102877.63, -3169.07, -98967.91, -126656.13, 0.000, 0.000, 0.000, 13:38:07.655
100, -21225.46, -98639.92, -187500.02, -108328.91, -102990.89, -3274.35, -99081.57, -126764.77, 0.000, 0.000, 0.000, 13:38:07.655
101, -21262.41, -98700.65, -187500.02, -108389.91, -103054.52, -3331.89, -99145.20, -126826.37, 0.000, 0.000, 0.000, 13:38:07.656
102, -21326.67, -98618.66, -187500.02, -108307.59, -102965.37, -3243.84, -99052.91, -126741.07, 0.000, 0.000, 0.000, 13:38:07.656
103, -21312.16, -98561.18, -187500.02, -108251.30, -102907.74, -3187.00, -98991.67, -126687.02, 0.000, 0.000, 0.000, 13:38:07.656
104, -21241.13, -98635.95, -187500.02, -108325.80, -102992.66, -3263.94, -99076.79, -126768.18, 0.000, 0.000, 0.000, 13:38:07.656
105, -21247.93, -98694.33, -187500.02, -108383.80, -103056.70, -3322.83, -99141.07, -126829.41, 0.000, 0.000, 0.000, 13:38:07.656
106, -21310.35, -98640.01, -187500.02, -108327.77, -102996.12, -3266.22, -99081.19, -126773.26, 0.000, 0.000, 0.000, 13:38:08.109
107, -21329.69, -98557.64, -187500.02, -108245.00, -102907.70, -3184.52, -98993.68, -126692.01, 0.750, 0.028, 0.698, 13:38:08.109
108, -21258.65, -98585.63, -187500.02, -108274.88, -102943.48, -3217.11, -99031.57, -126726.14, 0.000, 0.000, 0.000, 13:38:08.109
109, -21245.62, -98643.03, -187500.02, -108332.58, -103006.60, -3275.07, -99095.59, -126784.66, 0.000, 0.000, 0.000, 13:38:08.109
110, -21303.34, -98602.28, -187500.02, -108293.15, -102962.44, -3232.15, -99049.78, -126743.38, 0.000, 0.000, 0.000, 13:38:08.109
111, -21333.67, -98507.95, -187500.02, -108197.17, -102863.06, -3136.20, -98948.17, -126649.47, 0.000, 0.000, 0.000, 13:38:08.109
112, -21275.87, -98554.90, -187500.02, -108242.99, -102915.61, -3185.26, -99001.64, -126700.70, 0.000, 0.000, 0.000, 13:38:08.109
113, -21248.19, -98656.04, -187500.02, -108343.51, -103021.58, -3284.90, -99110.41, -126803.95, 0.000, 0.000, 0.000, 13:38:08.109
114, -21296.14, -98654.30, -187500.02, -108340.33, -103015.81, -3278.60, -99103.36, -126801.33, 0.000, 0.000, 0.000, 13:38:08.109
115, -21352.22, -98562.49, -187500.02, -108248.76, -102916.75, -3183.69, -99001.26, -126708.21, 0.000, 0.000, 0.000, 13:38:08.110
116, -21292.52, -98513.88, -187500.02, -108198.45, -102869.12, -3136.91, -98954.43, -126661.61, 0.000, 0.000, 0.000, 13:38:08.110
117, -21265.61, -98615.06, -187500.02, -108300.97, -102979.09, -3241.07, -99066.55, -126767.52, 0.758, 0.024, 0.704, 13:38:08.110
118, -21304.05, -98642.67, -187500.02, -108331.46, -103007.32, -3267.71, -99094.78, -126797.82, 0.000, 0.000, 0.000, 13:38:08.110
119, -21356.09, -98538.53, -187500.02, -108225.73, -102896.25, -3160.09, -98981.37, -126693.69, 0.000, 0.000, 0.000, 13:38:08.110
120, -21326.34, -98502.75, -187500.02, -108187.34, -102859.73, -3123.43, -98945.73, -126660.54, 0.000, 0.000, 0.000, 13:38:08.110
121, -21249.24, -98587.84, -187500.02, -108271.63, -102950.25, -3208.46, -99039.33, -126748.87, 0.000, 0.000, 0.000, 13:38:08.110
122, -21288.49, -98640.50, -187500.02, -108322.25, -103002.73, -3258.88, -99091.52, -126799.63, 0.000, 0.000, 0.000, 13:38:08.110
123, -21327.63, -98590.05, -187500.02, -108271.55, -102942.81, -3204.75, -99031.28, -126745.20, 0.000, 0.000, 0.000, 13:38:08.110
124, -21310.80, -98545.13, -187500.02, -108229.09, -102894.45, -3161.16, -98982.33, -126700.93, 0.000, 0.000, 0.000, 13:38:08.111
125, -21248.01, -98597.72, -187500.02, -108284.07, -102956.69, -3217.04, -99043.35, -126757.56, 0.000, 0.000, 0.000, 13:38:08.111
126, -21252.31, -98661.63, -187500.02, -108346.39, -103024.46, -3277.86, -99108.13, -126820.53, 0.000, 0.000, 0.000, 13:38:08.111
127, -21320.70, -98584.13, -187500.02, -108269.90, -102941.89, -3196.32, -99022.72, -126739.05, 0.752, 0.026, 0.696, 13:38:08.111
128, -21339.48, -98521.93, -187500.02, -108207.85, -102878.13, -3134.52, -98957.38, -126677.50, 0.000, 0.000, 0.000, 13:38:08.111
129, -21250.63, -98618.64, -187500.02, -108304.52, -102981.10, -3231.97, -99062.13, -126779.45, 0.000, 0.000, 0.000, 13:38:08.111
130, -21247.10, -98658.74, -187500.02, -108344.89, -103022.36, -3271.33, -99104.66, -126820.02, 0.000, 0.000, 0.000, 13:38:08.111
131, -21312.81, -98624.37, -187500.02, -108310.49, -102981.99, -3234.81, -99062.26, -126782.20, 0.000, 0.000, 0.000, 13:38:08.111
132, -21332.62, -98577.83, -187500.02, -108266.17, -102933.00, -3186.44, -99008.21, -126734.21, 0.000, 0.000, 0.000, 13:38:08.111
133, -21264.20, -98602.73, -187500.02, -108294.02, -102965.23, -3212.82, -99039.13, -126761.70, 0.000, 0.000, 0.000, 13:38:08.111
134, -21241.35, -98658.70, -187500.02, -108352.60, -103026.02, -3268.52, -99100.19, -126818.77, 0.000, 0.000, 0.000, 13:38:08.112
135, -21297.03, -98679.46, -187500.02, -108373.57, -103042.95, -3284.95, -99114.29, -126836.47, 0.000, 0.000, 0.000, 13:38:08.112
136, -21346.72, -98586.43, -187500.02, -108281.81, -102944.78, -3190.26, -99012.62, -126741.20, 0.000, 0.000, 0.000, 13:38:08.112
137, -21276.96, -98582.01, -187500.02, -108280.32, -102946.39, -3186.84, -99014.36, -126739.33, 0.752, 0.030, 0.698, 13:38:08.112
138, -21235.83, -98675.70, -187500.02, -108374.62, -103045.98, -3279.81, -99116.84, -126835.73, 0.000, 0.000, 0.000, 13:38:08.113
139, -21281.74, -98684.49, -187500.02, -108382.98, -103050.79, -3285.62, -99122.30, -126844.67, 0.000, 0.000, 0.000, 13:38:08.113
140, -21344.44, -98585.02, -187500.02, -108282.89, -102943.52, -3184.32, -99012.21, -126742.21, 0.000, 0.000, 0.000, 13:38:08.113
141, -21294.97, -98567.97, -187500.02, -108264.18, -102928.64, -3170.06, -98996.72, -126726.98, 0.000, 0.000, 0.000, 13:38:08.113
142, -21265.25, -98639.79, -187500.02, -108338.61, -103011.05, -3246.61, -99079.22, -126804.51, 0.000, 0.000, 0.000, 13:38:08.114
143, -21305.73, -98643.25, -187500.02, -108343.84, -103017.06, -3249.52, -99083.36, -126807.97, 0.000, 0.000, 0.000, 13:38:08.114
144, -21356.71, -98578.59, -187500.02, -108279.87, -102948.60, -3180.79, -99010.98, -126740.24, 0.000, 0.000, 0.000, 13:38:08.114
145, -21346.45, -98556.62, -187500.02, -108260.47, -102928.84, -3160.98, -98989.10, -126720.82, 0.000, 0.000, 0.000, 13:38:08.114
146, -21248.48, -98661.49, -187500.02, -108368.09, -103043.15, -3268.70, -99104.59, -126830.92, 0.000, 0.000, 0.000, 13:38:08.115
147, -21249.27, -98683.09, -187500.02, -108391.12, -103067.82, -3288.79, -99127.73, -126853.41, 0.750, 0.030, 0.700, 13:38:08.115
148, -21321.75, -98612.45, -187500.02, -108321.38, -102990.20, -3215.57, -99047.46, -126779.16, 0.000, 0.000, 0.000, 13:38:08.115
149, -21313.77, -98569.11, -187500.02, -108276.38, -102943.62, -3171.80, -98999.25, -126735.30, 0.000, 0.000, 0.000, 13:38:08.115
150, -21243.92, -98638.16, -187500.02, -108345.43, -103017.22, -3239.55, -99074.77, -126805.66, 0.000, 0.000, 0.000, 13:38:08.117
151, -21271.57, -98673.29, -187500.02, -108381.21, -103052.11, -3270.19, -99111.30, -126841.27, 0.000, 0.000, 0.000, 13:38:08.117
152, -21349.13, -98623.41, -187500.02, -108331.88, -102996.90, -3215.52, -99053.80, -126791.25, 0.000, 0.000, 0.000, 13:38:08.118
153, -21311.40, -98546.13, -187500.02, -108253.05, -102917.22, -3136.49, -98971.24, -126714.70, 0.000, 0.000, 0.000, 13:38:08.118
154, -21252.08, -98594.97, -187500.02, -108301.38, -102973.66, -3187.98, -99027.73, -126768.09, 0.000, 0.000, 0.000, 13:38:08.118
155, -21271.08, -98669.70, -187500.02, -108377.34, -103052.18, -3261.99, -99107.38, -126845.16, 0.000, 0.000, 0.000, 13:38:08.118
156, -21302.35, -98596.18, -187500.02, -108303.61, -102973.61, -3185.95, -99028.59, -126770.57, 0.750, 0.030, 0.700, 13:38:08.119
157, -21319.67, -98497.30, -187500.02, -108201.77, -102869.54, -3086.49, -98920.75, -126671.94, 0.000, 0.000, 0.000, 13:38:08.119
158, -21253.49, -98540.63, -187500.02, -108245.63, -102919.45, -3131.08, -98971.02, -126720.06, 0.000, 0.000, 0.000, 13:38:08.119
159, -21247.46, -98647.88, -187500.02, -108353.36, -103031.41, -3237.29, -99086.17, -126829.60, 0.000, 0.000, 0.000, 13:38:08.119
160, -21309.37, -98635.65, -187500.02, -108339.70, -103013.89, -3221.24, -99068.56, -126815.05, 0.000, 0.000, 0.000, 13:38:08.120
161, -21333.33, -98542.47, -187500.02, -108242.99, -102914.29, -3125.82, -98964.78, -126720.22, 0.000, 0.000, 0.000, 13:38:08.120
162, -21269.96, -98607.94, -187500.02, -108308.64, -102986.38, -3194.42, -99036.35, -126791.14, 0.000, 0.000, 0.000, 13:38:08.120
163, -21235.41, -98701.95, -187500.02, -108403.54, -103088.63, -3288.10, -99140.35, -126887.79, 0.000, 0.000, 0.000, 13:38:08.120
164, -21290.91, -98683.15, -187500.02, -108386.45, -103069.52, -3267.18, -99121.52, -126866.91, 0.000, 0.000, 0.000, 13:38:08.121
165, -21344.15, -98558.49, -187500.02, -108263.95, -102937.58, -3140.89, -98987.49, -126739.13, 0.000, 0.000, 0.000, 13:38:08.121
166, -21269.99, -98551.77, -187500.02, -108258.39, -102933.52, -3136.58, -98984.49, -126736.47, 0.754, 0.028, 0.694, 13:38:08.121
167, -21220.10, -98655.37, -187500.02, -108364.85, -103045.80, -3241.94, -99099.25, -126844.63, 0.000, 0.000, 0.000, 13:38:08.121
168, -21274.05, -98668.46, -187500.02, -108377.62, -103058.08, -3253.07, -99110.67, -126857.88, 0.000, 0.000, 0.000, 13:38:08.122
169, -21349.92, -98590.66, -187500.02, -108297.51, -102972.78, -3170.80, -99021.55, -126776.30, 0.000, 0.000, 0.000, 13:38:08.122
170, -21335.90, -98550.41, -187500.02, -108255.75, -102931.10, -3128.57, -98979.18, -126734.03, 0.000, 0.000, 0.000, 13:38:08.122
171, -21245.24, -98641.71, -187500.02, -108347.33, -103029.89, -3220.64, -99079.60, -126828.40, 0.000, 0.000, 0.000, 13:38:08.122
172, -21267.97, -98659.19, -187500.02, -108363.78, -103047.44, -3236.20, -99096.97, -126845.23, 0.000, 0.000, 0.000, 13:38:08.123
173, -21345.92, -98609.39, -187500.02, -108313.84, -102990.40, -3184.27, -99036.71, -126794.47, 0.000, 0.000, 0.000, 13:38:08.123
174, -21337.67, -98578.30, -187500.02, -108284.61, -102959.20, -3155.51, -99003.16, -126767.52, 0.000, 0.000, 0.000, 13:38:08.123
175, -21280.94, -98676.42, -187500.02, -108387.05, -103067.76, -3256.90, -99113.17, -126874.30, 0.000, 0.000, 0.000, 13:38:08.123
176, -21322.76, -98710.64, -187500.02, -108420.62, -103104.88, -3288.54, -99150.05, -126910.63, 0.750, 0.028, 0.694, 13:38:08.123
177, -21362.81, -98627.20, -187500.02, -108335.66, -103014.98, -3200.32, -99057.95, -126824.38, 0.000, 0.000, 0.000, 13:38:08.126
178, -21335.66, -98552.73, -187500.02, -108260.91, -102938.92, -3126.00, -98978.46, -126750.14, 0.000, 0.000, 0.000, 13:38:08.127
179, -21257.36, -98640.68, -187500.02, -108350.99, -103038.56, -3218.14, -99079.27, -126844.54, 0.000, 0.000, 0.000, 13:38:08.127
180, -21263.86, -98686.26, -187500.02, -108397.28, -103089.23, -3263.71, -99133.36, -126893.51, 0.000, 0.000, 0.000, 13:38:08.127
181, -21338.25, -98637.20, -187500.02, -108350.44, -103034.97, -3212.10, -99080.83, -126843.48, 0.000, 0.000, 0.000, 13:38:08.127
182, -21367.62, -98537.51, -187500.02, -108250.84, -102931.70, -3111.47, -98973.66, -126742.10, 0.000, 0.000, 0.000, 13:38:08.128
183, -21262.68, -98582.32, -187500.02, -108294.69, -102981.63, -3158.01, -99023.45, -126789.20, 0.000, 0.000, 0.000, 13:38:08.128
184, -21246.38, -98693.14, -187500.02, -108406.27, -103097.44, -3269.52, -99141.98, -126903.19, 0.000, 0.000, 0.000, 13:38:08.128
185, -21313.84, -98666.59, -187500.02, -108381.23, -103068.96, -3240.09, -99111.14, -126876.79, 0.000, 0.000, 0.000, 13:38:08.129
186, -21368.11, -98547.23, -187500.02, -108260.38, -102943.75, -3118.47, -98982.80, -126757.16, 0.752, 0.026, 0.692, 13:38:08.129
187, -21306.17, -98538.87, -187500.02, -108250.30, -102939.46, -3112.73, -98980.45, -126752.91, 0.000, 0.000, 0.000, 13:38:08.129
188, -21261.16, -98657.94, -187500.02, -108368.72, -103066.57, -3232.00, -99108.97, -126877.15, 0.000, 0.000, 0.000, 13:38:08.129
189, -21317.60, -98684.87, -187500.02, -108395.16, -103090.66, -3253.61, -99133.02, -126902.85, 0.000, 0.000, 0.000, 13:38:08.129
190, -21328.97, -98575.23, -187500.02, -108287.54, -102972.47, -3138.79, -99012.46, -126790.96, 0.000, 0.000, 0.000, 13:38:08.130
191, -21274.57, -98520.92, -187500.02, -108233.11, -102919.23, -3087.60, -98958.30, -126738.81, 0.000, 0.000, 0.000, 13:38:08.130
192, -21226.04, -98632.43, -187500.02, -108345.45, -103040.24, -3201.80, -99079.18, -126854.51, 0.000, 0.000, 0.000, 13:38:08.130
193, -21280.40, -98625.70, -187500.02, -108339.10, -103033.16, -3191.72, -99071.47, -126847.38, 0.000, 0.000, 0.000, 13:38:08.130
194, -21344.06, -98510.20, -187500.02, -108220.15, -102909.40, -3073.34, -98945.27, -126728.06, 0.000, 0.000, 0.000, 13:38:08.131
195, -21280.87, -98510.55, -187500.02, -108222.23, -102909.82, -3075.35, -98944.84, -126729.07, 0.000, 0.000, 0.000, 13:38:08.131
196, -21217.71, -98635.43, -187500.02, -108351.27, -103042.01, -3200.01, -99078.80, -126856.92, 0.750, 0.030, 0.696, 13:38:08.131
197, -21244.71, -98710.48, -187500.02, -108429.07, -103118.52, -3271.67, -99156.02, -126933.14, 0.000, 0.000, 0.000, 13:38:08.131
198, -21335.92, -98631.12, -187500.02, -108351.30, -103033.13, -3187.47, -99068.49, -126849.21, 0.000, 0.000, 0.000, 13:38:08.132
199, -21342.14, -98546.06, -187500.02, -108265.61, -102943.73, -3101.08, -98978.86, -126762.69, 0.000, 0.000, 0.000, 13:38:08.132
200, -21249.89, -98621.84, -187500.02, -108343.22, -103027.44, -3177.50, -99064.16, -126842.81, 0.000, 0.000, 0.000, 13:38:08.132
201, -21248.86, -98673.74, -187500.02, -108395.43, -103083.13, -3228.89, -99120.02, -126894.89, 0.000, 0.000, 0.000, 13:38:08.132
202, -21334.09, -98626.27, -187500.02, -108347.87, -103030.56, -3178.78, -99063.20, -126844.85, 0.000, 0.000, 0.000, 13:38:08.132
203, -21351.77, -98554.80, -187500.02, -108278.30, -102955.08, -3106.45, -98985.55, -126772.30, 0.000, 0.000, 0.000, 13:38:08.133
204, -21275.98, -98575.98, -187500.02, -108300.66, -102982.89, -3129.89, -99016.41, -126797.02, 0.000, 0.000, 0.000, 13:38:08.133
205, -21258.39, -98667.62, -187500.02, -108393.57, -103079.70, -3221.38, -99115.16, -126891.63, 0.000, 0.000, 0.000, 13:38:08.133
206, -21325.89, -98656.10, -187500.02, -108381.10, -103064.88, -3205.04, -99096.59, -126877.30, 0.748, 0.030, 0.694, 13:38:08.134
207, -21361.27, -98514.88, -187500.02, -108237.73, -102916.48, -3061.09, -98943.50, -126732.35, 0.000, 0.000, 0.000, 13:38:08.134
208, -21296.21, -98518.26, -187500.02, -108241.65, -102926.65, -3066.97, -98952.89, -126739.37, 0.000, 0.000, 0.000, 13:38:08.134
209, -21268.94, -98668.17, -187500.02, -108392.45, -103085.35, -3216.91, -99111.63, -126894.73, 0.000, 0.000, 0.000, 13:38:08.134
210, -21282.12, -98714.29, -187500.02, -108439.08, -103129.73, -3261.05, -99153.56, -126941.68, 0.000, 0.000, 0.000, 13:38:08.135
211, -21329.91, -98578.77, -187500.02, -108305.53, -102986.87, -3125.47, -99008.48, -126805.94, 0.000, 0.000, 0.000, 13:38:08.135
212, -21287.89, -98567.99, -187500.02, -108291.92, -102976.80, -3117.38, -98999.49, -126797.91, 0.000, 0.000, 0.000, 13:38:08.135
213, -21241.49, -98674.61, -187500.02, -108395.14, -103087.74, -3225.60, -99114.85, -126907.21, 0.000, 0.000, 0.000, 13:38:08.135
214, -21278.19, -98665.76, -187500.02, -108384.99, -103076.85, -3214.67, -99105.20, -126898.38, 0.000, 0.000, 0.000, 13:38:08.136
215, -21325.53, -98584.24, -187500.02, -108302.96, -102988.38, -3129.33, -99014.40, -126814.30, 0.000, 0.000, 0.000, 13:38:08.136
216, -21295.67, -98557.64, -187500.02, -108276.90, -102962.99, -3104.55, -98987.73, -126789.62, 0.748, 0.030, 0.694, 13:38:08.136
217, -21241.35, -98652.37, -187500.02, -108372.85, -103068.00, -3202.31, -99091.78, -126888.52, 0.000, 0.000, 0.000, 13:38:08.136
218, -21262.01, -98695.48, -187500.02, -108415.44, -103113.22, -3244.09, -99135.15, -126930.50, 0.000, 0.000, 0.000, 13:38:08.136
219, -21329.17, -98647.79, -187500.02, -108369.28, -103058.10, -3192.25, -99078.59, -126878.87, 0.000, 0.000, 0.000, 13:38:08.137
220, -21308.86, -98557.48, -187500.02, -108279.91, -102965.92, -3102.85, -98984.52, -126787.61, 0.000, 0.000, 0.000, 13:38:08.137
221, -21240.77, -98636.61, -187500.02, -108359.45, -103055.09, -3185.17, -99070.88, -126869.21, 0.000, 0.000, 0.000, 13:38:08.137
222, -21269.96, -98699.42, -187500.02, -108419.01, -103120.30, -3244.91, -99135.33, -126930.73, 0.000, 0.000, 0.000, 13:38:08.137
223, -21302.46, -98608.16, -187500.02, -108323.45, -103021.42, -3149.18, -99036.11, -126835.84, 0.000, 0.000, 0.000, 13:38:08.138
224, -21300.00, -98592.24, -187500.02, -108307.66, -103002.16, -3134.01, -99017.45, -126821.83, 0.000, 0.000, 0.000, 13:38:08.138
225, -21252.64, -98676.82, -187500.02, -108395.16, -103096.10, -3221.76, -99113.33, -126911.23, 0.000, 0.000, 0.000, 13:38:08.138
226, -21262.03, -98731.59, -187500.02, -108450.15, -103152.78, -3273.35, -99172.36, -126966.48, 0.750, 0.028, 0.694, 13:38:08.590
227, -21313.55, -98660.80, -187500.02, -108380.19, -103076.81, -3198.56, -99093.02, -126893.06, 0.000, 0.000, 0.000, 13:38:08.590
228, -21326.31, -98580.42, -187500.02, -108299.09, -102991.54, -3118.43, -99006.06, -126813.02, 0.000, 0.000, 0.000, 13:38:08.591
229, -21265.14, -98629.95, -187500.02, -108349.09, -103047.41, -3172.43, -99065.25, -126868.41, 0.000, 0.000, 0.000, 13:38:08.591
230, -21249.94, -98714.27, -187500.02, -108433.38, -103138.14, -3256.74, -99156.80, -126955.31, 0.000, 0.000, 0.000, 13:38:08.591
231, -21294.91, -98673.56, -187500.02, -108391.70, -103093.30, -3211.77, -99110.18, -126911.97, 0.000, 0.000, 0.000, 13:38:08.591
232, -21346.79, -98582.77, -187500.02, -108300.34, -102994.63, -3119.97, -99009.24, -126817.80, 0.000, 0.000, 0.000, 13:38:08.591
233, -21286.97, -98619.78, -187500.02, -108339.05, -103035.80, -3161.39, -99051.55, -126858.41, 0.000, 0.000, 0.000, 13:38:08.591
234, -21239.16, -98738.88, -187500.02, -108458.91, -103161.81, -3282.29, -99181.03, -126982.71, 0.000, 0.000, 0.000, 13:38:08.591
235, -21278.35, -98710.91, -187500.02, -108431.82, -103131.10, -3252.00, -99149.63, -126954.02, 0.000, 0.000, 0.000, 13:38:08.591
236, -21336.33, -98591.13, -187500.02, -108311.79, -103004.73, -3132.64, -99021.11, -126831.02, 0.752, 0.022, 0.698, 13:38:08.591
237, -21306.26, -98587.35, -187500.02, -108309.73, -103005.98, -3133.63, -99021.94, -126830.37, 0.000, 0.000, 0.000, 13:38:08.591
238, -21259.10, -98672.13, -187500.02, -108397.04, -103101.93, -3221.98, -99117.04, -126920.15, 0.000, 0.000, 0.000, 13:38:08.591
239, -21264.46, -98697.90, -187500.02, -108424.17, -103129.56, -3247.53, -99141.63, -126946.08, 0.000, 0.000, 0.000, 13:38:08.591
240, -21315.49, -98609.01, -187500.02, -108337.27, -103033.29, -3156.31, -99043.84, -126856.25, 0.000, 0.000, 0.000, 13:38:08.591
241, -21277.43, -98578.92, -187500.02, -108307.92, -103004.75, -3127.81, -99016.52, -126831.08, 0.000, 0.000, 0.000, 13:38:08.592
242, -21218.22, -98684.34, -187500.02, -108414.59, -103119.32, -3234.36, -99132.40, -126942.39, 0.000, 0.000, 0.000, 13:38:08.592
243, -21258.99, -98728.59, -187500.02, -108459.87, -103165.01, -3276.45, -99177.08, -126987.88, 0.000, 0.000, 0.000, 13:38:08.592
244, -21324.66, -98635.02, -187500.02, -108367.38, -103063.80, -3179.18, -99074.28, -126891.54, 0.000, 0.000, 0.000, 13:38:08.592
245, -21307.36, -98584.63, -187500.02, -108317.00, -103009.71, -3129.89, -99020.57, -126841.34, 0.000, 0.000, 0.000, 13:38:08.592
246, -21218.87, -98692.88, -187500.02, -108427.34, -103127.13, -3241.25, -99138.77, -126954.93, 0.746, 0.020, 0.690, 13:38:08.592
247, -21255.23, -98734.94, -187500.02, -108470.87, -103172.43, -3281.37, -99184.34, -126997.09, 0.000, 0.000, 0.000, 13:38:08.592
248, -21344.51, -98656.04, -187500.02, -108391.70, -103086.66, -3198.83, -99096.50, -126914.90, 0.000, 0.000, 0.000, 13:38:08.592
249, -21340.42, -98561.63, -187500.02, -108295.47, -102987.31, -3106.04, -98996.21, -126820.27, 0.000, 0.000, 0.000, 13:38:08.592
250, -21243.68, -98634.65, -187500.02, -108368.54, -103069.05, -3183.76, -99079.60, -126898.41, 0.000, 0.000, 0.000, 13:38:08.592
251, -21253.92, -98741.09, -187500.02, -108476.09, -103180.63, -3290.04, -99192.28, -127006.52, 0.000, 0.000, 0.000, 13:38:08.593
252, -21339.19, -98687.11, -187500.02, -108423.16, -103121.89, -3233.38, -99130.61, -126949.61, 0.000, 0.000, 0.000, 13:38:08.593
253, -21360.20, -98621.19, -187500.02, -108360.38, -103051.13, -3165.72, -99055.80, -126882.58, 0.000, 0.000, 0.000, 13:38:08.593
254, -21290.39, -98671.15, -187500.02, -108414.85, -103108.21, -3218.07, -99112.80, -126936.09, 0.000, 0.000, 0.000, 13:38:08.593
255, -21268.15, -98745.40, -187500.02, -108490.54, -103187.63, -3291.72, -99194.06, -127012.87, 0.750, 0.028, 0.694, 13:38:08.593
0, -21325.37, -98695.53, -187500.02, -108440.40, -103131.52, -3235.46, -99137.34, -126959.85, 0.000, 0.000, 0.000, 13:38:08.593
1, -21367.46, -98607.71, -187500.02, -108349.95, -103034.99, -3145.25, -99039.01, -126871.38, 0.000, 0.000, 0.000, 13:38:08.593
2, -21275.66, -98630.17, -187500.02, -108369.61, -103059.45, -3170.17, -99064.20, -126897.53, 0.000, 0.000, 0.000, 13:38:08.593
3, -21219.27, -98732.41, -187500.02, -108470.22, -103166.84, -3272.18, -99171.76, -127000.91, 0.000, 0.000, 0.000, 13:38:08.593
4, -21300.41, -98735.77, -187500.02, -108472.14, -103167.96, -3271.51, -99169.48, -126999.57, 0.000, 0.000, 0.000, 13:38:08.593
5, -21349.36, -98635.38, -187500.02, -108371.89, -103061.14, -3168.90, -99060.20, -126896.70, 0.000, 0.000, 0.000, 13:38:08.593
6, -21295.58, -98627.05, -187500.02, -108363.71, -103054.99, -3163.93, -99055.69, -126893.33, 0.000, 0.000, 0.000, 13:38:08.593
7, -21252.06, -98708.34, -187500.02, -108444.65, -103143.26, -3248.18, -99147.57, -126979.05, 0.000, 0.000, 0.000, 13:38:08.593
8, -21293.14, -98694.80, -187500.02, -108432.45, -103129.09, -3233.98, -99134.23, -126965.68, 0.000, 0.000, 0.000, 13:38:08.594
9, -21334.49, -98591.73, -187500.02, -108329.60, -103019.61, -3128.42, -99023.08, -126859.87, 0.756, 0.030, 0.690, 13:38:08.594
10, -21306.82, -98589.05, -187500.02, -108326.77, -103020.95, -3129.27, -99022.60, -126859.71, 0.000, 0.000, 0.000, 13:38:08.594
11, -21237.55, -98690.44, -187500.02, -108430.66, -103132.09, -3234.59, -99134.84, -126966.82, 0.000, 0.000, 0.000, 13:38:08.594
12, -21261.56, -98743.50, -187500.02, -108482.96, -103185.02, -3284.61, -99187.61, -127018.90, 0.000, 0.000, 0.000, 13:38:08.594
13, -21331.92, -98674.59, -187500.02, -108412.95, -103106.78, -3209.64, -99106.89, -126944.74, 0.000, 0.000, 0.000, 13:38:08.594
14, -21326.45, -98615.60, -187500.02, -108355.48, -103045.36, -3152.47, -99045.49, -126886.58, 0.000, 0.000, 0.000, 13:38:08.594
15, -21238.16, -98722.60, -187500.02, -108467.23, -103161.63, -3263.89, -99165.41, -127000.73, 0.000, 0.000, 0.000, 13:38:08.594
16, -21249.22, -98773.90, -187500.02, -108521.43, -103216.53, -3313.02, -99219.73, -127052.98, 0.000, 0.000, 0.000, 13:38:08.594
17, -21322.87, -98688.29, -187500.02, -108433.49, -103124.09, -3221.60, -99123.63, -126959.94, 0.000, 0.000, 0.000, 13:38:08.594
18, -21347.28, -98625.21, -187500.02, -108366.26, -103054.37, -3156.09, -99054.34, -126891.99, 0.000, 0.000, 0.000, 13:38:08.594
19, -21279.80, -98701.70, -187500.02, -108443.09, -103136.55, -3233.16, -99139.69, -126970.42, 0.758, 0.028, 0.696, 13:38:08.594
20, -21273.36, -98800.27, -187500.02, -108544.31, -103240.11, -3331.51, -99242.48, -127071.48, 0.000, 0.000, 0.000, 13:38:08.595
21, -21336.95, -98730.24, -187500.02, -108474.80, -103163.38, -3257.39, -99163.45, -126997.78, 0.000, 0.000, 0.000, 13:38:08.595
22, -21344.37, -98633.15, -187500.02, -108375.71, -103060.41, -3157.45, -99058.44, -126897.42, 0.000, 0.000, 0.000, 13:38:08.595
23, -21271.06, -98674.52, -187500.02, -108418.27, -103109.87, -3202.54, -99108.23, -126941.79, 0.000, 0.000, 0.000, 13:38:08.595
24, -21270.39, -98800.16, -187500.02, -108545.39, -103242.59, -3329.69, -99244.73, -127068.37, 0.000, 0.000, 0.000, 13:38:08.595
25, -21311.38, -98793.63, -187500.02, -108540.16, -103233.67, -3321.36, -99234.61, -127059.90, 0.000, 0.000, 0.000, 13:38:08.595
26, -21359.75, -98665.00, -187500.02, -108412.06, -103099.74, -3191.29, -99097.57, -126930.50, 0.000, 0.000, 0.000, 13:38:08.595
27, -21301.79, -98636.03, -187500.02, -108381.86, -103075.76, -3166.82, -99074.26, -126904.57, 0.000, 0.000, 0.000, 13:38:08.599
28, -21244.46, -98739.77, -187500.02, -108488.86, -103187.27, -3272.79, -99189.82, -127014.03, 0.000, 0.000, 0.000, 13:38:08.599
29, -21291.22, -98778.13, -187500.02, -108528.27, -103224.64, -3309.15, -99227.64, -127054.95, 0.754, 0.026, 0.694, 13:38:08.599
30, -21355.84, -98687.06, -187500.02, -108435.28, -103123.70, -3213.04, -99125.31, -126959.06, 0.000, 0.000, 0.000, 13:38:08.599
31, -21304.95, -98655.95, -187500.02, -108403.30, -103093.66, -3181.14, -99093.88, -126928.27, 0.000, 0.000, 0.000, 13:38:08.599
32, -21250.52, -98745.49, -187500.02, -108495.90, -103193.17, -3272.00, -99193.28, -127022.70, 0.000, 0.000, 0.000, 13:38:08.599
33, -21282.01, -98786.05, -187500.02, -108537.99, -103235.57, -3311.17, -99233.83, -127063.47, 0.000, 0.000, 0.000, 13:38:08.600
34, -21341.24, -98686.01, -187500.02, -108439.28, -103127.70, -3208.79, -99124.04, -126960.59, 0.000, 0.000, 0.000, 13:38:08.600
35, -21321.31, -98609.91, -187500.02, -108362.64, -103051.06, -3136.89, -99047.15, -126886.13, 0.000, 0.000, 0.000, 13:38:08.600
36, -21238.43, -98702.59, -187500.02, -108456.05, -103152.65, -3234.05, -99150.46, -126983.99, 0.000, 0.000, 0.000, 13:38:08.600
37, -21248.24, -98766.77, -187500.02, -108521.98, -103218.36, -3297.78, -99216.46, -127047.78, 0.000, 0.000, 0.000, 13:38:08.600
38, -21312.43, -98707.63, -187500.02, -108462.38, -103151.09, -3234.50, -99147.28, -126984.03, 0.000, 0.000, 0.000, 13:38:08.600
39, -21297.75, -98629.95, -187500.02, -108384.72, -103069.50, -3157.23, -99064.96, -126905.34, 0.752, 0.024, 0.700, 13:38:08.600
40, -21242.85, -98722.98, -187500.02, -108479.56, -103171.34, -3251.78, -99168.38, -127000.98, 0.000, 0.000, 0.000, 13:38:08.600
41, -21258.41, -98765.96, -187500.02, -108525.47, -103216.80, -3291.52, -99216.06, -127044.07, 0.000, 0.000, 0.000, 13:38:08.600
42, -21311.25, -98708.81, -187500.02, -108471.98, -103153.38, -3229.69, -99151.69, -126984.32, 0.000, 0.000, 0.000, 13:38:08.601
43, -21328.93, -98633.35, -187500.02, -108396.26, -103074.59, -3152.24, -99068.65, -126907.19, 0.000, 0.000, 0.000, 13:38:08.601
44, -21251.30, -98711.07, -187500.02, -108475.05, -103160.49, -3233.38, -99154.62, -126988.23, 0.000, 0.000, 0.000, 13:38:08.601
45, -21256.49, -98782.84, -187500.02, -108550.17, -103238.48, -3305.69, -99233.67, -127062.58, 0.000, 0.000, 0.000, 13:38:08.601
46, -21327.45, -98713.86, -187500.02, -108482.91, -103165.32, -3232.44, -99157.84, -126989.35, 0.000, 0.000, 0.000, 13:38:08.601
47, -21365.81, -98609.95, -187500.02, -108378.09, -103055.71, -3126.96, -99044.20, -126881.55, 0.000, 0.000, 0.000, 13:38:08.601
48, -21289.46, -98639.36, -187500.02, -108406.94, -103090.47, -3160.13, -99081.30, -126913.60, 0.000, 0.000, 0.000, 13:38:08.601
49, -21246.56, -98763.19, -187500.02, -108529.23, -103221.07, -3284.86, -99213.76, -127039.47, 0.748, 0.024, 0.694, 13:38:08.601
50, -21320.14, -98749.94, -187500.02, -108513.36, -103202.98, -3267.51, -99194.78, -127022.77, 0.000, 0.000, 0.000, 13:38:08.601
51, -21359.79, -98653.20, -187500.02, -108416.82, -103099.97, -3167.78, -99087.72, -126922.01, 0.000, 0.000, 0.000, 13:38:08.602
52, -21281.14, -98677.90, -187500.02, -108442.91, -103128.13, -3194.49, -99115.97, -126948.20, 0.000, 0.000, 0.000, 13:38:08.602
53, -21249.38, -98751.66, -187500.02, -108516.80, -103207.43, -3268.52, -99195.49, -127021.59, 0.000, 0.000, 0.000, 13:38:08.602
54, -21305.37, -98753.78, -187500.02, -108519.57, -103208.30, -3268.61, -99192.61, -127018.92, 0.000, 0.000, 0.000, 13:38:08.602
55, -21365.14, -98654.09, -187500.02, -108419.46, -103102.38, -3166.50, -99083.29, -126914.79, 0.000, 0.000, 0.000, 13:38:08.602
56, -21307.18, -98639.52, -187500.02, -108403.25, -103090.55, -3154.79, -99069.55, -126902.20, 0.000, 0.000, 0.000, 13:38:08.603
57, -21220.75, -98745.04, -187500.02, -108512.59, -103207.59, -3264.63, -99185.57, -127014.30, 0.000, 0.000, 0.000, 13:38:08.603
58, -21266.14, -98784.13, -187500.02, -108553.52, -103248.54, -3301.46, -99224.82, -127053.28, 0.000, 0.000, 0.000, 13:38:08.603
59, -21338.52, -98671.86, -187500.02, -108439.33, -103128.24, -3185.84, -99100.23, -126935.93, 0.750, 0.026, 0.700, 13:38:08.603
60, -21306.26, -98652.30, -187500.02, -108418.63, -103109.09, -3166.10, -99077.48, -126915.41, 0.000, 0.000, 0.000, 13:38:08.603
61, -21241.67, -98786.52, -187500.02, -108557.66, -103252.88, -3302.40, -99221.63, -127052.50, 0.000, 0.000, 0.000, 13:38:08.603
62, -21279.78, -98792.34, -187500.02, -108565.17, -103258.84, -3307.41, -99227.80, -127056.52, 0.000, 0.000, 0.000, 13:38:08.603
63, -21323.05, -98697.63, -187500.02, -108467.29, -103156.34, -3208.68, -99121.91, -126956.41, 0.000, 0.000, 0.000, 13:38:08.603
64, -21292.96, -98654.90, -187500.02, -108421.60, -103109.95, -3166.48, -99073.41, -126911.48, 0.000, 0.000, 0.000, 13:38:08.604
65, -21229.13, -98739.12, -187500.02, -108508.48, -103201.47, -3254.59, -99169.30, -126998.95, 0.000, 0.000, 0.000, 13:38:08.604
66, -21247.90, -98814.82, -187500.02, -108585.04, -103281.06, -3330.72, -99251.53, -127076.37, 0.000, 0.000, 0.000, 13:38:08.604
67, -21321.98, -98718.17, -187500.02, -108487.63, -103176.88, -3230.70, -99145.98, -126975.25, 0.000, 0.000, 0.000, 13:38:08.604
68, -21333.55, -98650.13, -187500.02, -108418.67, -103103.19, -3160.74, -99070.51, -126902.70, 0.000, 0.000, 0.000, 13:38:08.604
69, -21260.33, -98687.46, -187500.02, -108458.23, -103146.28, -3199.88, -99114.63, -126941.34, 0.748, 0.028, 0.698, 13:38:08.604
70, -21247.81, -98733.04, -187500.02, -108504.84, -103194.98, -3245.34, -99165.79, -126986.94, 0.000, 0.000, 0.000, 13:38:08.604
71, -21301.10, -98702.69, -187500.02, -108473.98, -103157.52, -3211.34, -99127.57, -126951.06, 0.000, 0.000, 0.000, 13:38:08.604
72, -21348.02, -98625.02, -187500.02, -108393.62, -103070.98, -3130.32, -99038.38, -126867.80, 0.000, 0.000, 0.000, 13:38:08.605
73, -21283.64, -98679.20, -187500.02, -108445.20, -103128.24, -3185.50, -99096.74, -126923.91, 0.000, 0.000, 0.000, 13:38:08.605
74, -21258.32, -98808.21, -187500.02, -108572.39, -103262.73, -3313.00, -99233.63, -127055.63, 0.000, 0.000, 0.000, 13:38:08.605
75, -21302.49, -98793.08, -187500.02, -108556.70, -103244.20, -3293.91, -99214.07, -127038.73, 0.000, 0.000, 0.000, 13:38:08.605
76, -21333.13, -98719.74, -187500.02, -108485.55, -103165.41, -3218.07, -99132.71, -126964.19, 0.000, 0.000, 0.000, 13:38:08.605
77, -21279.33, -98695.04, -187500.02, -108462.71, -103143.62, -3193.46, -99110.80, -126940.11, 0.000, 0.000, 0.000, 13:38:08.605
78, -21256.20, -98766.19, -187500.02, -108531.80, -103221.20, -3264.07, -99191.05, -127013.27, 0.000, 0.000, 0.000, 13:38:08.605
79, -21305.03, -98796.80, -187500.02, -108561.68, -103249.74, -3291.50, -99218.61, -127040.52, 0.752, 0.028, 0.702, 13:38:08.605
80, -21349.49, -98707.09, -187500.02, -108473.34, -103152.72, -3199.45, -99119.19, -126947.22, 0.000, 0.000, 0.000, 13:38:08.605
81, -21289.19, -98657.84, -187500.02, -108425.16, -103104.57, -3151.53, -99072.18, -126898.43, 0.000, 0.000, 0.000, 13:38:08.605
82, -21235.54, -98748.15, -187500.02, -108516.09, -103203.43, -3242.93, -99171.89, -126990.05, 0.000, 0.000, 0.000, 13:38:08.605
83, -21271.26, -98816.55, -187500.02, -108585.15, -103273.80, -3310.87, -99240.11, -127055.05, 0.000, 0.000, 0.000, 13:38:08.605
84, -21338.63, -98729.33, -187500.02, -108500.93, -103178.24, -3220.37, -99142.26, -126962.30, 0.000, 0.000, 0.000, 13:38:08.605
85, -21314.31, -98663.46, -187500.02, -108437.80, -103111.66, -3155.93, -99074.71, -126897.04, 0.000, 0.000, 0.000, 13:38:08.606
86, -21234.29, -98752.66, -187500.02, -108527.95, -103209.94, -3249.36, -99174.75, -126990.23, 0.000, 0.000, 0.000, 13:38:08.606
87, -21245.64, -98827.45, -187500.02, -108601.60, -103287.01, -3324.11, -99252.49, -127063.98, 0.000, 0.000, 0.000, 13:38:08.606
88, -21301.53, -98762.14, -187500.02, -108535.69, -103214.54, -3255.58, -99177.73, -126995.43, 0.000, 0.000, 0.000, 13:38:08.606
89, -21293.05, -98668.71, -187500.02, -108439.69, -103114.83, -3160.40, -99076.85, -126900.39, 0.752, 0.028, 0.700, 13:38:08.606
90, -21229.22, -98764.66, -187500.02, -108535.40, -103218.20, -3258.35, -99182.91, -126998.98, 0.000, 0.000, 0.000, 13:38:08.606
91, -21251.61, -98823.05, -187500.02, -108595.12, -103281.13, -3317.36, -99247.42, -127057.01, 0.000, 0.000, 0.000, 13:38:09.070
92, -21315.94, -98753.11, -187500.02, -108525.80, -103206.65, -3245.54, -99172.07, -126984.08, 0.000, 0.000, 0.000, 13:38:09.070
93, -21311.20, -98661.00, -187500.02, -108435.13, -103110.88, -3153.56, -99073.37, -126889.20, 0.000, 0.000, 0.000, 13:38:09.070
94, -21251.72, -98695.13, -187500.02, -108470.95, -103152.54, -3192.03, -99114.63, -126924.96, 0.000, 0.000, 0.000, 13:38:09.071
95, -21247.46, -98811.80, -187500.02, -108591.19, -103274.96, -3307.77, -99238.08, -127043.04, 0.000, 0.000, 0.000, 13:38:09.071
96, -21306.40, -98798.93, -187500.02, -108582.29, -103259.02, -3290.49, -99220.53, -127027.06, 0.000, 0.000, 0.000, 13:38:09.071
97, -21324.50, -98696.78, -187500.02, -108486.69, -103154.17, -3188.05, -99113.24, -126922.72, 0.000, 0.000, 0.000, 13:38:09.071
98, -21262.12, -98696.05, -187500.02, -108490.27, -103159.55, -3192.43, -99120.64, -126925.77, 0.750, 0.030, 0.692, 13:38:09.071
99, -21241.40, -98772.94, -187500.02, -108565.68, -103240.23, -3269.66, -99203.54, -127004.64, 0.000, 0.000, 0.000, 13:38:09.071
100, -21301.08, -98775.55, -187500.02, -108565.17, -103237.88, -3266.73, -99199.92, -127003.48, 0.000, 0.000, 0.000, 13:38:09.071
101, -21376.07, -98682.48, -187500.02, -108468.45, -103135.57, -3169.79, -99096.14, -126906.23, 0.000, 0.000, 0.000, 13:38:09.071
102, -21306.53, -98691.64, -187500.02, -108476.48, -103147.77, -3179.58, -99106.88, -126916.33, 0.000, 0.000, 0.000, 13:38:09.072
103, -21233.15, -98798.93, -187500.02, -108585.30, -103263.63, -3287.09, -99224.73, -127025.54, 0.000, 0.000, 0.000, 13:38:09.072
104, -21277.23, -98806.66, -187500.02, -108593.87, -103269.82, -3291.23, -99230.27, -127029.23, 0.000, 0.000, 0.000, 13:38:09.072
105, -21357.70, -98715.34, -187500.02, -108504.23, -103170.48, -3197.44, -99128.77, -126934.26, 0.000, 0.000, 0.000, 13:38:09.072
106, -21326.49, -98709.84, -187500.02, -108502.45, -103166.35, -3195.65, -99125.45, -126932.05, 0.000, 0.000, 0.000, 13:38:09.072
107, -21239.12, -98828.39, -187500.02, -108620.11, -103291.88, -3316.64, -99253.61, -127054.22, 0.000, 0.000, 0.000, 13:38:09.072
108, -21271.89, -98848.89, -187500.02, -108639.09, -103312.60, -3334.81, -99272.84, -127072.23, 0.758, 0.030, 0.694, 13:38:09.072
109, -21351.14, -98745.13, -187500.02, -108535.13, -103204.28, -3229.74, -99159.24, -126962.40, 0.000, 0.000, 0.000, 13:38:09.072
110, -21321.02, -98685.54, -187500.02, -108472.03, -103144.16, -3171.04, -99092.99, -126901.24, 0.000, 0.000, 0.000, 13:38:09.072
111, -21220.03, -98779.27, -187500.02, -108563.98, -103247.38, -3267.62, -99194.83, -126997.73, 0.000, 0.000, 0.000, 13:38:09.073
112, -21234.67, -98855.73, -187500.02, -108638.55, -103327.88, -3342.17, -99274.69, -127073.69, 0.000, 0.000, 0.000, 13:38:09.073
113, -21318.24, -98782.73, -187500.02, -108563.76, -103248.02, -3264.52, -99193.48, -126994.74, 0.000, 0.000, 0.000, 13:38:09.073
114, -21339.52, -98704.43, -187500.02, -108487.81, -103166.24, -3185.28, -99111.12, -126914.30, 0.000, 0.000, 0.000, 13:38:09.073
115, -21251.52, -98771.80, -187500.02, -108554.87, -103241.85, -3254.15, -99187.34, -126983.66, 0.000, 0.000, 0.000, 13:38:09.073
116, -21227.67, -98863.10, -187500.02, -108644.49, -103335.62, -3342.68, -99282.45, -127074.80, 0.000, 0.000, 0.000, 13:38:09.073
117, -21287.33, -98802.04, -187500.02, -108584.97, -103267.78, -3277.35, -99214.12, -127008.55, 0.000, 0.000, 0.000, 13:38:09.073
118, -21325.17, -98707.58, -187500.02, -108493.09, -103167.60, -3181.35, -99111.88, -126910.88, 0.754, 0.034, 0.698, 13:38:09.073
119, -21263.82, -98776.87, -187500.02, -108564.81, -103243.28, -3252.38, -99187.16, -126983.01, 0.000, 0.000, 0.000, 13:38:09.074
120, -21239.52, -98861.74, -187500.02, -108650.75, -103332.42, -3335.62, -99274.94, -127066.35, 0.000, 0.000, 0.000, 13:38:09.074
121, -21301.12, -98829.33, -187500.02, -108616.42, -103294.94, -3299.32, -99234.68, -127028.24, 0.000, 0.000, 0.000, 13:38:09.074
122, -21354.77, -98730.80, -187500.02, -108517.24, -103190.16, -3197.22, -99127.66, -126926.77, 0.000, 0.000, 0.000, 13:38:09.074
123, -21301.19, -98759.84, -187500.02, -108548.63, -103225.20, -3227.90, -99162.86, -126960.59, 0.000, 0.000, 0.000, 13:38:09.074
124, -21258.45, -98866.19, -187500.02, -108656.77, -103339.20, -3336.60, -99278.47, -127069.69, 0.000, 0.000, 0.000, 13:38:09.074
125, -21285.72, -98815.56, -187500.02, -108606.81, -103284.30, -3284.12, -99224.11, -127013.05, 0.000, 0.000, 0.000, 13:38:09.074
126, -21341.82, -98702.53, -187500.02, -108493.89, -103162.88, -3170.93, -99102.60, -126896.28, 0.000, 0.000, 0.000, 13:38:09.074
127, -21316.50, -98685.32, -187500.02, -108475.00, -103146.63, -3157.27, -99087.88, -126880.41, 0.000, 0.000, 0.000, 13:38:09.074
128, -21254.41, -98818.49, -187500.02, -108608.28, -103288.01, -3293.24, -99231.62, -127015.37, 0.754, 0.034, 0.704, 13:38:09.075
129, -21279.44, -98869.56, -187500.02, -108661.73, -103339.94, -3343.51, -99283.80, -127064.88, 0.000, 0.000, 0.000, 13:38:09.075
130, -21338.16, -98753.06, -187500.02, -108547.53, -103215.73, -3224.73, -99156.58, -126943.13, 0.000, 0.000, 0.000, 13:38:09.075
131, -21317.10, -98724.73, -187500.02, -108519.41, -103186.51, -3198.11, -99128.22, -126916.20, 0.000, 0.000, 0.000, 13:38:09.075
132, -21266.39, -98795.55, -187500.02, -108589.73, -103263.47, -3268.09, -99207.90, -126988.57, 0.000, 0.000, 0.000, 13:38:09.075
133, -21295.65, -98807.45, -187500.02, -108601.58, -103275.45, -3277.59, -99220.13, -126997.63, 0.000, 0.000, 0.000, 13:38:09.075
134, -21338.70, -98740.30, -187500.02, -108536.18, -103200.10, -3207.63, -99143.80, -126924.22, 0.000, 0.000, 0.000, 13:38:09.075
135, -21314.51, -98660.28, -187500.02, -108457.55, -103117.76, -3128.93, -99059.40, -126842.39, 0.000, 0.000, 0.000, 13:38:09.075
136, -21266.54, -98736.86, -187500.02, -108535.17, -103202.16, -3209.58, -99145.05, -126921.05, 0.000, 0.000, 0.000, 13:38:09.075
137, -21279.13, -98801.10, -187500.02, -108596.05, -103265.97, -3269.19, -99210.23, -126982.60, 0.000, 0.000, 0.000, 13:38:09.076
138, -21313.19, -98728.08, -187500.02, -108522.05, -103183.70, -3190.53, -99126.05, -126904.82, 0.750, 0.034, 0.698, 13:38:09.076
139, -21317.10, -98652.98, -187500.02, -108448.34, -103103.70, -3115.52, -99044.76, -126828.95, 0.000, 0.000, 0.000, 13:38:09.076
140, -21243.14, -98738.91, -187500.02, -108536.85, -103198.02, -3203.47, -99140.73, -126918.27, 0.000, 0.000, 0.000, 13:38:09.076
141, -21239.45, -98837.98, -187500.02, -108638.10, -103303.12, -3302.07, -99247.48, -127018.73, 0.000, 0.000, 0.000, 13:38:09.076
142, -21307.11, -98804.88, -187500.02, -108605.94, -103267.76, -3266.66, -99208.04, -126981.62, 0.000, 0.000, 0.000, 13:38:09.076
143, -21336.35, -98699.66, -187500.02, -108502.13, -103158.93, -3161.05, -99094.65, -126872.41, 0.000, 0.000, 0.000, 13:38:09.076
144, -21238.89, -98736.05, -187500.02, -108539.98, -103201.63, -3202.42, -99138.12, -126910.95, 0.000, 0.000, 0.000, 13:38:09.076
145, -21239.45, -98857.02, -187500.02, -108659.34, -103327.80, -3325.31, -99266.69, -127031.98, 0.000, 0.000, 0.000, 13:38:09.077
146, -21320.05, -98825.91, -187500.02, -108627.69, -103292.26, -3291.20, -99228.60, -126995.79, 0.000, 0.000, 0.000, 13:38:09.077
147, -21354.70, -98722.63, -187500.02, -108524.51, -103181.62, -3187.72, -99114.34, -126887.16, 0.000, 0.000, 0.000, 13:38:09.077
148, -21278.68, -98765.76, -187500.02, -108570.27, -103227.88, -3232.60, -99163.11, -126930.77, 0.748, 0.030, 0.702, 13:38:09.077
149, -21238.27, -98871.75, -187500.02, -108677.13, -103338.34, -3337.83, -99277.08, -127035.78, 0.000, 0.000, 0.000, 13:38:09.077
150, -21297.17, -98838.88, -187500.02, -108645.68, -103302.79, -3302.60, -99239.28, -126998.25, 0.000, 0.000, 0.000, 13:38:09.077
151, -21343.79, -98726.47, -187500.02, -108533.97, -103184.05, -3188.97, -99116.70, -126882.49, 0.000, 0.000, 0.000, 13:38:09.077
152, -21299.83, -98712.14, -187500.02, -108514.97, -103169.75, -3176.18, -99103.63, -126866.95, 0.000, 0.000, 0.000, 13:38:09.077
153, -21233.60, -98889.37, -187500.02, -108693.45, -103357.28, -3355.73, -99292.41, -127047.02, 0.000, 0.000, 0.000, 13:38:09.078
154, -21278.75, -98904.48, -187500.02, -108712.76, -103371.14, -3368.63, -99304.64, -127059.56, 0.000, 0.000, 0.000, 13:38:09.078
155, -21346.09, -98799.98, -187500.02, -108610.63, -103259.34, -3260.92, -99188.88, -126949.30, 0.000, 0.000, 0.000, 13:38:09.078
156, -21303.16, -98760.77, -187500.02, -108574.34, -103220.87, -3222.92, -99149.07, -126909.91, 0.000, 0.000, 0.000, 13:38:09.079
157, -21238.83, -98842.79, -187500.02, -108657.73, -103311.23, -3307.21, -99241.12, -126994.74, 0.000, 0.000, 0.000, 13:38:09.079
158, -21266.30, -98891.29, -187500.02, -108706.86, -103361.52, -3354.46, -99291.27, -127041.48, 0.752, 0.026, 0.698, 13:38:09.079
159, -21347.95, -98803.23, -187500.02, -108619.39, -103266.64, -3262.95, -99193.89, -126947.48, 0.000, 0.000, 0.000, 13:38:09.079
160, -21335.66, -98734.49, -187500.02, -108549.45, -103194.13, -3193.08, -99118.92, -126876.61, 0.000, 0.000, 0.000, 13:38:09.079
161, -21255.37, -98798.30, -187500.02, -108611.50, -103263.54, -3259.69, -99189.70, -126943.46, 0.000, 0.000, 0.000, 13:38:09.079
162, -21274.52, -98882.84, -187500.02, -108694.14, -103349.63, -3343.13, -99277.73, -127024.47, 0.000, 0.000, 0.000, 13:38:09.079
163, -21321.33, -98801.63, -187500.02, -108614.48, -103260.23, -3257.79, -99190.22, -126936.94, 0.000, 0.000, 0.000, 13:38:09.080
164, -21306.38, -98723.31, -187500.02, -108537.19, -103176.97, -3177.95, -99106.16, -126857.03, 0.000, 0.000, 0.000, 13:38:09.080
165, -21235.81, -98801.37, -187500.02, -108617.94, -103262.75, -3257.03, -99191.80, -126937.66, 0.000, 0.000, 0.000, 13:38:09.080
166, -21220.43, -98874.34, -187500.02, -108691.86, -103339.40, -3327.97, -99270.15, -127008.35, 0.000, 0.000, 0.000, 13:38:09.080
167, -21280.92, -98845.00, -187500.02, -108662.98, -103305.65, -3294.92, -99235.06, -126976.16, 0.000, 0.000, 0.000, 13:38:09.080
168, -21327.43, -98717.86, -187500.02, -108534.23, -103172.09, -3166.04, -99099.41, -126846.13, 0.754, 0.026, 0.694, 13:38:09.080
169, -21268.56, -98760.51, -187500.02, -108577.06, -103219.88, -3211.39, -99149.01, -126891.23, 0.000, 0.000, 0.000, 13:38:09.080
170, -21246.88, -98878.88, -187500.02, -108695.84, -103343.55, -3330.19, -99275.47, -127010.70, 0.000, 0.000, 0.000, 13:38:09.080
171, -21310.35, -98881.30, -187500.02, -108700.09, -103343.20, -3330.32, -99273.41, -127009.91, 0.000, 0.000, 0.000, 13:38:09.080
172, -21341.65, -98781.99, -187500.02, -108603.93, -103237.02, -3229.63, -99163.89, -126907.41, 0.000, 0.000, 0.000, 13:38:09.081
173, -21277.21, -98787.94, -187500.02, -108614.72, -103248.65, -3238.92, -99175.65, -126916.40, 0.000, 0.000, 0.000, 13:38:09.081
174, -21221.91, -98866.21, -187500.02, -108694.14, -103334.59, -3319.50, -99262.66, -126996.23, 0.000, 0.000, 0.000, 13:38:09.081
175, -21274.03, -98881.19, -187500.02, -108708.20, -103347.69, -3329.76, -99273.73, -127007.55, 0.000, 0.000, 0.000, 13:38:09.081
176, -21346.16, -98806.89, -187500.02, -108634.39, -103266.20, -3252.56, -99188.30, -126928.13, 0.000, 0.000, 0.000, 13:38:09.081
177, -21311.25, -98797.52, -187500.02, -108626.19, -103259.76, -3246.95, -99181.03, -126921.23, 0.000, 0.000, 0.000, 13:38:09.081
178, -21250.34, -98863.04, -187500.02, -108693.00, -103333.36, -3314.63, -99257.92, -126989.11, 0.750, 0.028, 0.696, 13:38:09.081
179, -21256.31, -98890.64, -187500.02, -108721.54, -103363.47, -3342.26, -99287.98, -127015.55, 0.000, 0.000, 0.000, 13:38:09.081
180, -21332.44, -98824.99, -187500.02, -108656.61, -103292.99, -3273.75, -99215.01, -126946.55, 0.000, 0.000, 0.000, 13:38:09.082
181, -21304.47, -98791.82, -187500.02, -108623.22, -103257.95, -3239.26, -99179.56, -126911.68, 0.000, 0.000, 0.000, 13:38:09.082
182, -21243.52, -98858.45, -187500.02, -108690.77, -103333.23, -3306.58, -99255.73, -126978.40, 0.000, 0.000, 0.000, 13:38:09.082
183, -21264.89, -98911.07, -187500.02, -108744.27, -103387.21, -3354.77, -99309.16, -127028.47, 0.000, 0.000, 0.000, 13:38:09.082
184, -21332.93, -98839.84, -187500.02, -108672.86, -103306.43, -3278.58, -99226.88, -126951.73, 0.000, 0.000, 0.000, 13:38:09.082
185, -21321.82, -98786.93, -187500.02, -108620.71, -103249.92, -3227.03, -99169.57, -126898.49, 0.000, 0.000, 0.000, 13:38:09.082
186, -21237.71, -98865.43, -187500.02, -108702.68, -103336.91, -3309.98, -99257.81, -126980.68, 0.000, 0.000, 0.000, 13:38:09.082
187, -21222.85, -98939.81, -187500.02, -108778.91, -103414.74, -3382.74, -99337.12, -127054.17, 0.758, 0.024, 0.698, 13:38:09.083
188, -21301.68, -98879.30, -187500.02, -108720.16, -103347.84, -3316.15, -99268.81, -126988.10, 0.000, 0.000, 0.000, 13:38:09.083
189, -21336.33, -98801.19, -187500.02, -108643.89, -103262.24, -3234.39, -99182.30, -126906.07, 0.000, 0.000, 0.000, 13:38:09.083
190, -21254.09, -98843.14, -187500.02, -108687.88, -103308.95, -3277.03, -99231.02, -126948.45, 0.000, 0.000, 0.000, 13:38:09.083
191, -21226.40, -98917.13, -187500.02, -108762.67, -103388.44, -3349.99, -99312.04, -127021.34, 0.000, 0.000, 0.000, 13:38:09.083
192, -21289.39, -98880.47, -187500.02, -108726.46, -103345.32, -3307.39, -99268.63, -126978.20, 0.000, 0.000, 0.000, 13:38:09.083
193, -21328.26, -98784.60, -187500.02, -108628.42, -103242.01, -3207.79, -99161.66, -126878.53, 0.000, 0.000, 0.000, 13:38:09.083
194, -21263.17, -98814.31, -187500.02, -108655.23, -103276.30, -3237.81, -99193.38, -126909.27, 0.000, 0.000, 0.000, 13:38:09.084
195, -21244.35, -98896.25, -187500.02, -108736.45, -103365.17, -3320.37, -99283.72, -126990.20, 0.000, 0.000, 0.000, 13:38:09.084
196, -21283.76, -98874.39, -187500.02, -108713.18, -103340.74, -3297.46, -99257.74, -126963.34, 0.000, 0.000, 0.000, 13:38:09.084
197, -21323.79, -98781.68, -187500.02, -108621.07, -103242.64, -3205.22, -99155.84, -126866.53, 0.760, 0.024, 0.698, 13:38:09.084
198, -21292.32, -98779.98, -187500.02, -108621.18, -103243.77, -3205.62, -99157.84, -126864.23, 0.000, 0.000, 0.000, 13:38:09.084
199, -21232.03, -98920.86, -187500.02, -108765.17, -103393.98, -3347.58, -99309.58, -127007.46, 0.000, 0.000, 0.000, 13:38:09.084
200, -21264.31, -98917.02, -187500.02, -108764.01, -103388.17, -3339.60, -99302.16, -126998.00, 0.000, 0.000, 0.000, 13:38:09.084
201, -21335.10, -98791.66, -187500.02, -108636.47, -103251.22, -3209.96, -99164.25, -126864.74, 0.000, 0.000, 0.000, 13:38:09.084
202, -21290.59, -98758.70, -187500.02, -108598.88, -103214.97, -3175.38, -99129.85, -126828.47, 0.000, 0.000, 0.000, 13:38:09.085
203, -21242.49, -98870.13, -187500.02, -108710.55, -103334.10, -3287.83, -99252.85, -126942.41, 0.000, 0.000, 0.000, 13:38:09.085
204, -21274.50, -98940.89, -187500.02, -108781.82, -103408.04, -3355.94, -99325.67, -127011.52, 0.000, 0.000, 0.000, 13:38:09.085
205, -21327.77, -98847.70, -187500.02, -108689.04, -103306.12, -3257.86, -99221.60, -126910.67, 0.000, 0.000, 0.000, 13:38:09.085
206, -21302.91, -98789.92, -187500.02, -108632.11, -103246.10, -3201.80, -99161.05, -126850.66, 0.000, 0.000, 0.000, 13:38:09.085
207, -21218.33, -98874.81, -187500.02, -108720.80, -103338.84, -3290.15, -99257.26, -126937.70, 0.754, 0.024, 0.694, 13:38:09.085
208, -21239.99, -98938.18, -187500.02, -108785.04, -103402.81, -3351.78, -99323.15, -126999.30, 0.000, 0.000, 0.000, 13:38:09.085
209, -21310.94, -98877.12, -187500.02, -108723.73, -103335.30, -3286.62, -99252.72, -126933.38, 0.000, 0.000, 0.000, 13:38:09.085
210, -21319.18, -98814.94, -187500.02, -108661.51, -103270.46, -3223.03, -99183.98, -126868.74, 0.000, 0.000, 0.000, 13:38:09.086
211, -21239.21, -98902.46, -187500.02, -108751.85, -103369.41, -3314.61, -99281.75, -126959.71, 0.000, 0.000, 0.000, 13:38:09.552
212, -21258.50, -98946.05, -187500.02, -108795.62, -103418.97, -3358.42, -99331.02, -127002.59, 0.000, 0.000, 0.000, 13:38:09.552
213, -21325.06, -98879.64, -187500.02, -108729.77, -103346.75, -3288.93, -99256.77, -126931.40, 0.000, 0.000, 0.000, 13:38:09.552
214, -21346.79, -98817.35, -187500.02, -108668.21, -103280.34, -3227.35, -99188.19, -126867.91, 0.000, 0.000, 0.000, 13:38:09.552
215, -21270.32, -98893.26, -187500.02, -108748.09, -103363.94, -3307.92, -99272.92, -126947.71, 0.000, 0.000, 0.000, 13:38:09.552
216, -21229.40, -98959.80, -187500.02, -108815.46, -103436.00, -3373.71, -99344.72, -127015.21, 0.000, 0.000, 0.000, 13:38:09.552
217, -21294.44, -98942.07, -187500.02, -108795.48, -103413.90, -3350.10, -99318.07, -126991.30, 0.754, 0.024, 0.688, 13:38:09.553
218, -21319.74, -98877.27, -187500.02, -108732.16, -103343.78, -3282.89, -99243.64, -126921.52, 0.000, 0.000, 0.000, 13:38:09.553
219, -21261.13, -98883.27, -187500.02, -108742.84, -103355.52, -3290.69, -99254.51, -126927.75, 0.000, 0.000, 0.000, 13:38:09.553
220, -21223.12, -98922.47, -187500.02, -108784.46, -103403.26, -3329.81, -99301.73, -126967.45, 0.000, 0.000, 0.000, 13:38:09.553
221, -21259.99, -98938.81, -187500.02, -108801.67, -103420.22, -3343.11, -99314.92, -126980.66, 0.000, 0.000, 0.000, 13:38:09.553
222, -21333.76, -98861.70, -187500.02, -108725.07, -103337.16, -3263.94, -99225.80, -126898.23, 0.000, 0.000, 0.000, 13:38:09.553
223, -21292.14, -98837.78, -187500.02, -108698.14, -103313.67, -3240.76, -99201.45, -126874.11, 0.000, 0.000, 0.000, 13:38:09.553
224, -21216.77, -98960.73, -187500.02, -108820.00, -103443.09, -3365.41, -99334.97, -126999.27, 0.000, 0.000, 0.000, 13:38:09.554
225, -21251.26, -98974.86, -187500.02, -108833.68, -103456.79, -3377.62, -99348.88, -127010.74, 0.000, 0.000, 0.000, 13:38:09.554
226, -21315.14, -98877.79, -187500.02, -108737.92, -103353.77, -3278.46, -99242.46, -126910.20, 0.000, 0.000, 0.000, 13:38:09.554
227, -21281.97, -98833.78, -187500.02, -108697.24, -103310.63, -3236.02, -99199.85, -126867.42, 0.754, 0.022, 0.688, 13:38:09.554
228, -21228.37, -98918.47, -187500.02, -108782.98, -103403.73, -3323.35, -99295.32, -126954.04, 0.000, 0.000, 0.000, 13:38:09.554
229, -21261.67, -98965.61, -187500.02, -108831.18, -103452.59, -3368.16, -99345.63, -126998.77, 0.000, 0.000, 0.000, 13:38:09.554
230, -21334.78, -98931.27, -187500.02, -108799.50, -103413.29, -3330.57, -99305.94, -126959.78, 0.000, 0.000, 0.000, 13:38:09.555
231, -21321.15, -98856.42, -187500.02, -108725.90, -103337.23, -3256.40, -99229.02, -126880.55, 0.000, 0.000, 0.000, 13:38:09.555
232, -21240.04, -98932.93, -187500.02, -108804.06, -103420.29, -3334.86, -99315.52, -126958.64, 0.000, 0.000, 0.000, 13:38:09.555
233, -21230.02, -99013.42, -187500.02, -108885.65, -103502.81, -3414.32, -99398.54, -127038.52, 0.000, 0.000, 0.000, 13:38:09.555
234, -21315.45, -98959.35, -187500.02, -108832.65, -103441.84, -3356.47, -99335.66, -126979.41, 0.000, 0.000, 0.000, 13:38:09.555
235, -21322.69, -98850.09, -187500.02, -108723.35, -103329.67, -3245.56, -99219.99, -126865.62, 0.000, 0.000, 0.000, 13:38:09.555
236, -21252.87, -98864.24, -187500.02, -108736.47, -103352.56, -3263.85, -99242.91, -126881.48, 0.000, 0.000, 0.000, 13:38:09.555
237, -21244.42, -98983.09, -187500.02, -108854.65, -103477.13, -3384.41, -99370.31, -127000.75, 0.754, 0.026, 0.690, 13:38:09.556
238, -21301.14, -98924.59, -187500.02, -108798.37, -103415.15, -3323.55, -99305.94, -126937.54, 0.000, 0.000, 0.000, 13:38:09.556
239, -21328.53, -98832.98, -187500.02, -108706.74, -103320.58, -3231.82, -99207.81, -126842.34, 0.000, 0.000, 0.000, 13:38:09.556
240, -21250.47, -98905.41, -187500.02, -108781.24, -103401.49, -3306.58, -99289.06, -126915.46, 0.000, 0.000, 0.000, 13:38:09.556
241, -21223.47, -98985.55, -187500.02, -108863.30, -103488.44, -3387.09, -99376.95, -126995.50, 0.000, 0.000, 0.000, 13:38:09.556
242, -21292.52, -98944.35, -187500.02, -108821.97, -103443.22, -3342.86, -99329.20, -126950.13, 0.000, 0.000, 0.000, 13:38:09.556
243, -21335.66, -98881.41, -187500.02, -108758.58, -103372.26, -3276.79, -99256.34, -126883.27, 0.000, 0.000, 0.000, 13:38:09.556
244, -21251.52, -98919.63, -187500.02, -108799.03, -103415.21, -3316.75, -99300.10, -126922.81, 0.000, 0.000, 0.000, 13:38:09.557
245, -21233.93, -99018.13, -187500.02, -108901.70, -103522.19, -3416.82, -99406.23, -127021.47, 0.000, 0.000, 0.000, 13:38:09.557
246, -21271.95, -98964.78, -187500.02, -108851.52, -103466.78, -3361.97, -99349.23, -126964.09, 0.000, 0.000, 0.000, 13:38:09.557
247, -21314.89, -98869.97, -187500.02, -108756.63, -103363.42, -3264.72, -99246.21, -126863.52, 0.752, 0.026, 0.696, 13:38:09.557
248, -21269.18, -98895.98, -187500.02, -108785.53, -103392.28, -3293.62, -99276.55, -126891.38, 0.000, 0.000, 0.000, 13:38:09.557
249, -21214.62, -99012.16, -187500.02, -108904.94, -103518.23, -3413.11, -99404.17, -127012.20, 0.000, 0.000, 0.000, 13:38:09.557
250, -21267.08, -99026.12, -187500.02, -108920.23, -103532.02, -3423.86, -99416.87, -127024.38, 0.000, 0.000, 0.000, 13:38:09.558
251, -21331.21, -98905.82, -187500.02, -108802.19, -103402.70, -3299.54, -99287.30, -126898.54, 0.000, 0.000, 0.000, 13:38:09.558
252, -21281.18, -98859.21, -187500.02, -108753.46, -103355.60, -3254.84, -99242.08, -126851.80, 0.000, 0.000, 0.000, 13:38:09.558
253, -21203.36, -98998.27, -187500.02, -108894.45, -103503.37, -3395.70, -99392.75, -126994.00, 0.000, 0.000, 0.000, 13:38:09.558
254, -21245.80, -99014.96, -187500.02, -108912.13, -103518.95, -3409.71, -99409.88, -127006.99, 0.000, 0.000, 0.000, 13:38:09.558
255, -21317.69, -98914.24, -187500.02, -108814.79, -103411.05, -3307.03, -99300.23, -126901.63, 0.000, 0.000, 0.000, 13:38:09.558
0, -21301.35, -98838.07, -187500.02, -108741.92, -103332.85, -3233.65, -99221.91, -126824.84, 0.000, 0.000, 0.000, 13:38:09.558
1, -21213.91, -98906.31, -187500.02, -108814.44, -103411.59, -3308.13, -99302.27, -126895.45, 0.752, 0.026, 0.692, 13:38:09.559
2, -21209.64, -98993.21, -187500.02, -108903.82, -103503.28, -3395.74, -99395.50, -126981.28, 0.000, 0.000, 0.000, 13:38:09.559
3, -21286.75, -98954.43, -187500.02, -108867.05, -103459.31, -3354.50, -99349.45, -126937.36, 0.000, 0.000, 0.000, 13:38:09.559
4, -21306.89, -98853.27, -187500.02, -108767.07, -103355.45, -3253.52, -99241.67, -126832.84, 0.000, 0.000, 0.000, 13:38:09.559
5, -21252.93, -98897.01, -187500.02, -108811.26, -103406.54, -3300.10, -99294.05, -126878.65, 0.000, 0.000, 0.000, 13:38:09.559
6, -21237.44, -98956.11, -187500.02, -108870.96, -103470.00, -3358.68, -99358.46, -126937.77, 0.000, 0.000, 0.000, 13:38:09.559
7, -21304.83, -98892.74, -187500.02, -108808.87, -103403.50, -3294.04, -99290.83, -126872.03, 0.000, 0.000, 0.000, 13:38:09.559
8, -21337.24, -98796.85, -187500.02, -108714.77, -103306.20, -3202.78, -99191.96, -126775.63, 0.000, 0.000, 0.000, 13:38:09.560
9, -21236.64, -98852.89, -187500.02, -108770.65, -103370.35, -3264.76, -99257.66, -126834.57, 0.000, 0.000, 0.000, 13:38:09.560
10, -21218.33, -98959.59, -187500.02, -108877.04, -103482.63, -3370.67, -99371.98, -126941.05, 0.000, 0.000, 0.000, 13:38:09.560
11, -21294.15, -98939.57, -187500.02, -108856.84, -103458.66, -3347.64, -99347.63, -126915.52, 0.750, 0.026, 0.700, 13:38:09.560
12, -21332.17, -98847.48, -187500.02, -108763.56, -103360.30, -3253.88, -99246.81, -126817.73, 0.000, 0.000, 0.000, 13:38:09.560
13, -21253.65, -98908.12, -187500.02, -108826.75, -103428.96, -3318.76, -99315.13, -126880.63, 0.000, 0.000, 0.000, 13:38:09.560
14, -21216.14, -99021.45, -187500.02, -108943.59, -103551.70, -3435.19, -99440.34, -126997.47, 0.000, 0.000, 0.000, 13:38:09.561
15, -21267.39, -99016.59, -187500.02, -108940.90, -103544.16, -3429.76, -99433.61, -126990.42, 0.000, 0.000, 0.000, 13:38:09.561
16, -21331.48, -98907.13, -187500.02, -108830.69, -103425.34, -3318.81, -99313.94, -126873.21, 0.000, 0.000, 0.000, 13:38:09.561
17, -21281.25, -98870.50, -187500.02, -108791.91, -103389.00, -3284.19, -99278.09, -126835.41, 0.000, 0.000, 0.000, 13:38:09.561
18, -21223.32, -98982.75, -187500.02, -108903.30, -103510.59, -3399.25, -99401.09, -126950.75, 0.000, 0.000, 0.000, 13:38:09.561
19, -21261.63, -99017.69, -187500.02, -108938.24, -103547.13, -3433.70, -99437.70, -126986.00, 0.000, 0.000, 0.000, 13:38:09.561
20, -21328.50, -98953.49, -187500.02, -108874.47, -103478.56, -3368.34, -99365.37, -126919.73, 0.000, 0.000, 0.000, 13:38:09.561
21, -21298.35, -98878.23, -187500.02, -108802.23, -103404.15, -3295.79, -99288.19, -126844.67, 0.752, 0.030, 0.698, 13:38:09.562
22, -21220.68, -98948.94, -187500.02, -108875.39, -103483.70, -3370.69, -99369.48, -126918.50, 0.000, 0.000, 0.000, 13:38:09.562
23, -21234.87, -98983.65, -187500.02, -108913.68, -103521.63, -3405.00, -99408.09, -126952.80, 0.000, 0.000, 0.000, 13:38:09.562
24, -21309.86, -98910.60, -187500.02, -108844.54, -103444.27, -3329.31, -99329.74, -126875.43, 0.000, 0.000, 0.000, 13:38:09.562
25, -21309.39, -98814.87, -187500.02, -108747.07, -103344.77, -3234.05, -99230.43, -126776.84, 0.000, 0.000, 0.000, 13:38:09.562
26, -21211.27, -98935.97, -187500.02, -108867.27, -103474.36, -3356.87, -99361.55, -126900.70, 0.000, 0.000, 0.000, 13:38:09.562
27, -21229.82, -98983.60, -187500.02, -108915.53, -103525.37, -3401.78, -99412.48, -126947.20, 0.000, 0.000, 0.000, 13:38:09.563
28, -21293.75, -98906.60, -187500.02, -108838.02, -103444.09, -3323.19, -99330.26, -126866.69, 0.000, 0.000, 0.000, 13:38:09.563
29, -21303.02, -98840.95, -187500.02, -108769.04, -103372.55, -3259.06, -99258.26, -126798.09, 0.000, 0.000, 0.000, 13:38:09.563
30, -21233.31, -98921.66, -187500.02, -108849.05, -103459.59, -3342.01, -99344.98, -126879.05, 0.750, 0.030, 0.694, 13:38:09.563
31, -21231.38, -98990.48, -187500.02, -108917.81, -103531.98, -3409.60, -99418.74, -126946.48, 0.000, 0.000, 0.000, 13:38:09.563
32, -21286.62, -98957.80, -187500.02, -108885.89, -103494.85, -3372.65, -99381.35, -126912.48, 0.000, 0.000, 0.000, 13:38:09.563
33, -21332.55, -98865.83, -187500.02, -108796.77, -103396.91, -3278.53, -99283.52, -126819.63, 0.000, 0.000, 0.000, 13:38:09.564
34, -21275.53, -98885.09, -187500.02, -108818.32, -103420.69, -3300.26, -99309.27, -126841.48, 0.000, 0.000, 0.000, 13:38:09.564
35, -21240.77, -98981.23, -187500.02, -108914.03, -103523.15, -3398.69, -99414.45, -126939.04, 0.000, 0.000, 0.000, 13:38:09.564
36, -21295.09, -98983.27, -187500.02, -108916.27, -103520.94, -3400.48, -99414.48, -126939.02, 0.000, 0.000, 0.000, 13:38:09.564
37, -21360.58, -98889.86, -187500.02, -108823.69, -103421.16, -3308.21, -99314.79, -126842.84, 0.000, 0.000, 0.000, 13:38:09.564
38, -21293.32, -98927.45, -187500.02, -108863.32, -103465.80, -3350.53, -99360.19, -126882.73, 0.000, 0.000, 0.000, 13:38:09.564
39, -21234.63, -99010.98, -187500.02, -108948.92, -103557.41, -3434.81, -99453.23, -126967.09, 0.000, 0.000, 0.000, 13:38:09.564
40, -21265.43, -99017.76, -187500.02, -108957.33, -103563.05, -3438.08, -99457.86, -126970.63, 0.752, 0.028, 0.696, 13:38:09.565
41, -21318.20, -98909.33, -187500.02, -108848.84, -103445.88, -3328.53, -99337.90, -126856.65, 0.000, 0.000, 0.000, 13:38:09.565
42, -21275.51, -98917.87, -187500.02, -108857.64, -103457.37, -3342.23, -99349.32, -126866.95, 0.000, 0.000, 0.000, 13:38:09.565
43, -21223.14, -99047.04, -187500.02, -108990.39, -103597.09, -3474.98, -99492.51, -127001.22, 0.000, 0.000, 0.000, 13:38:09.565
44, -21264.76, -99031.57, -187500.02, -108976.40, -103582.41, -3457.57, -99477.42, -126984.88, 0.000, 0.000, 0.000, 13:38:09.565
45, -21329.73, -98904.21, -187500.02, -108847.94, -103447.24, -3325.67, -99340.89, -126852.72, 0.000, 0.000, 0.000, 13:38:09.566
46, -21304.59, -98850.07, -187500.02, -108790.66, -103393.53, -3272.34, -99286.38, -126797.51, 0.000, 0.000, 0.000, 13:38:09.566
47, -21221.39, -98930.02, -187500.02, -108871.19, -103483.90, -3356.27, -99379.14, -126879.47, 0.000, 0.000, 0.000, 13:38:09.566
48, -21229.48, -98992.20, -187500.02, -108933.88, -103547.54, -3418.01, -99444.31, -126940.29, 0.000, 0.000, 0.000, 13:38:09.567
49, -21288.45, -98939.05, -187500.02, -108881.91, -103487.99, -3363.02, -99383.66, -126882.02, 0.000, 0.000, 0.000, 13:38:09.567
50, -21307.11, -98858.99, -187500.02, -108803.91, -103406.25, -3284.30, -99301.63, -126802.49, 0.750, 0.026, 0.696, 13:38:09.571
51, -21225.46, -98922.96, -187500.02, -108869.78, -103479.72, -3352.11, -99377.44, -126871.20, 0.000, 0.000, 0.000, 13:38:09.572
52, -21209.97, -98986.73, -187500.02, -108935.23, -103548.84, -3416.73, -99448.56, -126937.20, 0.000, 0.000, 0.000, 13:38:09.572
53, -21274.05, -98939.91, -187500.02, -108889.88, -103497.85, -3367.38, -99396.48, -126887.85, 0.000, 0.000, 0.000, 13:38:09.572
54, -21296.56, -98866.81, -187500.02, -108817.20, -103422.32, -3295.92, -99318.19, -126813.40, 0.000, 0.000, 0.000, 13:38:09.572
55, -21205.08, -98922.80, -187500.02, -108873.22, -103485.09, -3354.82, -99383.23, -126870.73, 0.000, 0.000, 0.000, 13:38:09.572
56, -21213.79, -99050.66, -187500.02, -109003.95, -103619.30, -3483.65, -99519.66, -127000.84, 0.000, 0.000, 0.000, 13:38:09.572
57, -21295.31, -99039.10, -187500.02, -108995.13, -103601.98, -3468.03, -99502.14, -126984.75, 0.000, 0.000, 0.000, 13:38:09.573
58, -21333.62, -98919.45, -187500.02, -108877.27, -103474.76, -3345.65, -99373.10, -126861.81, 0.000, 0.000, 0.000, 13:38:09.573
59, -21259.73, -98931.34, -187500.02, -108890.85, -103491.13, -3360.50, -99391.52, -126878.24, 0.000, 0.000, 0.000, 13:38:09.573
60, -21224.17, -98987.67, -187500.02, -108947.23, -103554.16, -3418.01, -99455.76, -126934.81, 0.750, 0.026, 0.692, 13:38:09.573
61, -21267.26, -98984.18, -187500.02, -108943.12, -103547.96, -3410.43, -99449.32, -126927.70, 0.000, 0.000, 0.000, 13:38:09.573
62, -21320.57, -98878.23, -187500.02, -108833.77, -103433.95, -3300.57, -99333.88, -126818.32, 0.000, 0.000, 0.000, 13:38:09.573
63, -21267.84, -98874.39, -187500.02, -108825.56, -103433.12, -3298.72, -99334.14, -126817.67, 0.000, 0.000, 0.000, 13:38:09.573
64, -21230.11, -98980.30, -187500.02, -108930.42, -103546.98, -3407.14, -99449.59, -126926.23, 0.000, 0.000, 0.000, 13:38:09.574
65, -21268.82, -98972.60, -187500.02, -108923.73, -103538.41, -3399.79, -99440.67, -126916.38, 0.000, 0.000, 0.000, 13:38:09.574
66, -21326.51, -98870.70, -187500.02, -108821.50, -103430.99, -3297.22, -99329.02, -126812.30, 0.000, 0.000, 0.000, 13:38:09.574
67, -21297.01, -98887.66, -187500.02, -108839.02, -103450.58, -3317.00, -99346.57, -126832.33, 0.000, 0.000, 0.000, 13:38:09.574
68, -21228.99, -99009.87, -187500.02, -108962.49, -103582.09, -3442.44, -99480.64, -126959.31, 0.000, 0.000, 0.000, 13:38:09.574
69, -21255.26, -99029.58, -187500.02, -108983.88, -103604.00, -3460.83, -99501.78, -126978.52, 0.000, 0.000, 0.000, 13:38:09.574
70, -21317.89, -98918.70, -187500.02, -108874.02, -103486.61, -3346.70, -99382.49, -126863.49, 0.752, 0.028, 0.694, 13:38:09.574
71, -21302.44, -98891.06, -187500.02, -108846.45, -103456.90, -3319.70, -99352.47, -126835.87, 0.000, 0.000, 0.000, 13:38:09.575
72, -21228.23, -98985.01, -187500.02, -108943.90, -103559.67, -3417.89, -99457.19, -126934.10, 0.000, 0.000, 0.000, 13:38:09.575
73, -21232.66, -99059.40, -187500.02, -109021.05, -103638.69, -3493.26, -99537.26, -127009.94, 0.000, 0.000, 0.000, 13:38:09.575
74, -21314.62, -99004.30, -187500.02, -108968.13, -103579.63, -3436.71, -99477.27, -126954.13, 0.000, 0.000, 0.000, 13:38:09.575
75, -21310.71, -98922.60, -187500.02, -108888.45, -103495.62, -3355.15, -99392.55, -126873.48, 0.000, 0.000, 0.000, 13:38:10.030
76, -21218.22, -98999.85, -187500.02, -108967.55, -103580.82, -3437.16, -99482.85, -126954.46, 0.000, 0.000, 0.000, 13:38:10.030
77, -21232.19, -99072.85, -187500.02, -109040.70, -103658.91, -3511.48, -99562.80, -127029.09, 0.000, 0.000, 0.000, 13:38:10.030
78, -21304.65, -99001.86, -187500.02, -108968.53, -103583.03, -3439.13, -99485.31, -126954.41, 0.000, 0.000, 0.000, 13:38:10.031
79, -21311.02, -98904.27, -187500.02, -108873.47, -103482.31, -3342.44, -99384.10, -126854.73, 0.000, 0.000, 0.000, 13:38:10.031
80, -21245.20, -98958.75, -187500.02, -108931.54, -103547.36, -3400.30, -99449.52, -126913.96, 0.752, 0.030, 0.694, 13:38:10.031
81, -21237.11, -99009.98, -187500.02, -108984.02, -103606.10, -3454.06, -99508.66, -126968.23, 0.000, 0.000, 0.000, 13:38:10.031
82, -21254.61, -98963.48, -187500.02, -108936.41, -103554.89, -3403.70, -99457.50, -126918.61, 0.000, 0.000, 0.000, 13:38:10.031
83, -21296.05, -98881.79, -187500.02, -108850.31, -103464.81, -3318.32, -99367.52, -126833.94, 0.000, 0.000, 0.000, 13:38:10.031
84, -21260.17, -98926.07, -187500.02, -108896.02, -103516.20, -3367.63, -99420.76, -126884.59, 0.000, 0.000, 0.000, 13:38:10.031
85, -21223.18, -99011.34, -187500.02, -108985.70, -103610.70, -3456.59, -99518.13, -126975.14, 0.000, 0.000, 0.000, 13:38:10.031
86, -21268.58, -98994.40, -187500.02, -108969.04, -103592.15, -3438.73, -99499.05, -126957.48, 0.000, 0.000, 0.000, 13:38:10.031
87, -21330.43, -98897.23, -187500.02, -108870.91, -103489.06, -3341.79, -99394.20, -126859.80, 0.000, 0.000, 0.000, 13:38:10.031
88, -21279.17, -98890.73, -187500.02, -108863.85, -103486.70, -3341.83, -99393.94, -126858.57, 0.000, 0.000, 0.000, 13:38:10.031
89, -21237.78, -98993.98, -187500.02, -108966.83, -103598.39, -3449.68, -99509.60, -126967.67, 0.000, 0.000, 0.000, 13:38:10.032
90, -21285.21, -99014.11, -187500.02, -108986.39, -103615.22, -3467.67, -99528.56, -126986.00, 0.752, 0.030, 0.696, 13:38:10.032
91, -21349.58, -98919.03, -187500.02, -108893.65, -103512.80, -3370.35, -99425.90, -126887.92, 0.000, 0.000, 0.000, 13:38:10.032
92, -21307.34, -98880.36, -187500.02, -108857.13, -103475.32, -3333.56, -99388.48, -126850.28, 0.000, 0.000, 0.000, 13:38:10.032
93, -21236.97, -98967.46, -187500.02, -108947.20, -103573.17, -3423.19, -99488.17, -126939.69, 0.000, 0.000, 0.000, 13:38:10.032
94, -21259.97, -99011.32, -187500.02, -108992.24, -103621.77, -3466.15, -99536.38, -126983.02, 0.000, 0.000, 0.000, 13:38:10.032
95, -21335.63, -98931.70, -187500.02, -108911.02, -103533.81, -3383.74, -99446.73, -126897.91, 0.000, 0.000, 0.000, 13:38:10.032
96, -21305.44, -98870.01, -187500.02, -108847.43, -103468.75, -3323.30, -99380.86, -126835.08, 0.000, 0.000, 0.000, 13:38:10.032
97, -21239.59, -98953.31, -187500.02, -108932.16, -103561.64, -3410.36, -99474.27, -126924.02, 0.000, 0.000, 0.000, 13:38:10.033
98, -21244.64, -98972.20, -187500.02, -108952.97, -103582.56, -3430.34, -99496.02, -126943.87, 0.000, 0.000, 0.000, 13:38:10.033
99, -21294.01, -98899.80, -187500.02, -108880.28, -103506.30, -3356.25, -99416.33, -126870.24, 0.000, 0.000, 0.000, 13:38:10.033
100, -21308.79, -98840.55, -187500.02, -108820.52, -103446.35, -3295.45, -99352.23, -126811.97, 0.750, 0.030, 0.696, 13:38:10.033
101, -21231.90, -98894.44, -187500.02, -108874.70, -103509.14, -3351.00, -99415.30, -126871.09, 0.000, 0.000, 0.000, 13:38:10.033
102, -21236.71, -98973.56, -187500.02, -108954.96, -103596.38, -3431.35, -99502.68, -126953.84, 0.000, 0.000, 0.000, 13:38:10.033
103, -21295.89, -98954.21, -187500.02, -108935.83, -103573.87, -3410.83, -99479.03, -126933.83, 0.000, 0.000, 0.000, 13:38:10.034
104, -21317.44, -98873.41, -187500.02, -108856.91, -103486.61, -3332.40, -99393.66, -126851.51, 0.000, 0.000, 0.000, 13:38:10.034
105, -21242.65, -98893.03, -187500.02, -108880.24, -103511.41, -3358.93, -99424.16, -126875.80, 0.000, 0.000, 0.000, 13:38:10.034
106, -21232.17, -98995.96, -187500.02, -108983.86, -103622.55, -3466.35, -99537.21, -126983.74, 0.000, 0.000, 0.000, 13:38:10.034
107, -21300.70, -98983.04, -187500.02, -108970.83, -103607.62, -3453.43, -99521.63, -126971.09, 0.000, 0.000, 0.000, 13:38:10.034
108, -21338.00, -98911.65, -187500.02, -108899.69, -103529.14, -3381.46, -99441.48, -126898.02, 0.000, 0.000, 0.000, 13:38:10.034
109, -21257.87, -98930.94, -187500.02, -108920.31, -103551.70, -3403.95, -99465.75, -126919.55, 0.000, 0.000, 0.000, 13:38:10.035
110, -21217.33, -99018.42, -187500.02, -109008.05, -103643.94, -3492.04, -99562.24, -127008.11, 0.752, 0.030, 0.698, 13:38:10.035
111, -21251.72, -99008.08, -187500.02, -108996.73, -103628.80, -3478.89, -99548.36, -126995.19, 0.000, 0.000, 0.000, 13:38:10.035
112, -21334.43, -98889.23, -187500.02, -108874.34, -103499.84, -3359.62, -99417.65, -126873.10, 0.000, 0.000, 0.000, 13:38:10.035
113, -21291.00, -98861.78, -187500.02, -108841.75, -103473.11, -3334.48, -99390.74, -126848.42, 0.000, 0.000, 0.000, 13:38:10.035
114, -21235.36, -98983.83, -187500.02, -108962.65, -103604.11, -3458.51, -99523.04, -126975.80, 0.000, 0.000, 0.000, 13:38:10.036
115, -21284.25, -98991.78, -187500.02, -108970.72, -103613.16, -3466.67, -99530.03, -126984.03, 0.000, 0.000, 0.000, 13:38:10.036
116, -21326.09, -98903.16, -187500.02, -108881.71, -103517.72, -3378.06, -99430.46, -126892.91, 0.000, 0.000, 0.000, 13:38:10.036
117, -21305.62, -98891.53, -187500.02, -108869.46, -103505.88, -3369.59, -99418.34, -126883.23, 0.000, 0.000, 0.000, 13:38:10.036
118, -21251.61, -99000.21, -187500.02, -108979.15, -103621.72, -3480.73, -99537.81, -126994.83, 0.000, 0.000, 0.000, 13:38:10.036
119, -21274.32, -99068.02, -187500.02, -109045.87, -103690.81, -3546.26, -99607.57, -127061.99, 0.754, 0.026, 0.694, 13:38:10.036
120, -21327.41, -98975.78, -187500.02, -108955.12, -103592.77, -3450.35, -99508.89, -126966.89, 0.000, 0.000, 0.000, 13:38:10.036
121, -21315.34, -98886.82, -187500.02, -108866.38, -103501.90, -3362.26, -99417.54, -126879.27, 0.000, 0.000, 0.000, 13:38:10.037
122, -21248.93, -98919.27, -187500.02, -108896.38, -103541.79, -3397.60, -99458.91, -126914.90, 0.000, 0.000, 0.000, 13:38:10.037
123, -21252.91, -98975.58, -187500.02, -108949.35, -103599.64, -3453.93, -99517.41, -126969.57, 0.000, 0.000, 0.000, 13:38:10.037
124, -21291.64, -98925.42, -187500.02, -108897.90, -103543.54, -3403.10, -99460.70, -126916.80, 0.000, 0.000, 0.000, 13:38:10.037
125, -21302.24, -98863.55, -187500.02, -108832.16, -103475.92, -3341.52, -99393.47, -126854.21, 0.000, 0.000, 0.000, 13:38:10.037
126, -21228.17, -98955.04, -187500.02, -108922.15, -103574.27, -3437.05, -99495.41, -126950.73, 0.000, 0.000, 0.000, 13:38:10.037
127, -21220.97, -99041.45, -187500.02, -109008.56, -103663.95, -3523.75, -99589.16, -127038.23, 0.000, 0.000, 0.000, 13:38:10.037
128, -21292.65, -98999.13, -187500.02, -108966.45, -103614.57, -3477.19, -99539.22, -126991.37, 0.000, 0.000, 0.000, 13:38:10.037
129, -21316.75, -98919.56, -187500.02, -108891.19, -103529.39, -3396.77, -99451.60, -126910.90, 0.750, 0.024, 0.694, 13:38:10.038
130, -21262.16, -98949.67, -187500.02, -108926.69, -103567.50, -3432.09, -99490.72, -126947.60, 0.000, 0.000, 0.000, 13:38:10.038
131, -21205.12, -99042.84, -187500.02, -109020.67, -103669.11, -3527.75, -99593.85, -127046.98, 0.000, 0.000, 0.000, 13:38:10.038
132, -21263.35, -99006.91, -187500.02, -108985.63, -103631.53, -3490.94, -99555.43, -127010.45, 0.000, 0.000, 0.000, 13:38:10.038
133, -21324.01, -98901.08, -187500.02, -108879.48, -103518.68, -3383.07, -99441.03, -126902.47, 0.000, 0.000, 0.000, 13:38:10.038
134, -21244.86, -98928.77, -187500.02, -108908.45, -103551.65, -3412.93, -99474.22, -126932.89, 0.000, 0.000, 0.000, 13:38:10.038
135, -21219.90, -99004.10, -187500.02, -108986.61, -103637.41, -3491.59, -99559.05, -127012.20, 0.000, 0.000, 0.000, 13:38:10.038
136, -21265.47, -98986.62, -187500.02, -108969.82, -103620.09, -3473.33, -99540.23, -126993.76, 0.000, 0.000, 0.000, 13:38:10.038
137, -21309.75, -98932.26, -187500.02, -108914.10, -103558.89, -3417.89, -99478.05, -126936.36, 0.000, 0.000, 0.000, 13:38:10.039
138, -21267.48, -98910.49, -187500.02, -108893.70, -103538.57, -3398.31, -99457.57, -126915.97, 0.000, 0.000, 0.000, 13:38:10.039
139, -21220.32, -98988.90, -187500.02, -108975.13, -103626.95, -3479.18, -99547.11, -126999.12, 0.752, 0.026, 0.700, 13:38:10.039
140, -21277.14, -98992.72, -187500.02, -108978.05, -103631.18, -3479.94, -99549.77, -127002.65, 0.000, 0.000, 0.000, 13:38:10.039
141, -21332.79, -98920.77, -187500.02, -108904.49, -103550.38, -3404.98, -99466.53, -126927.75, 0.000, 0.000, 0.000, 13:38:10.039
142, -21298.13, -98892.34, -187500.02, -108874.16, -103521.56, -3378.29, -99436.96, -126900.41, 0.000, 0.000, 0.000, 13:38:10.039
143, -21227.54, -98978.04, -187500.02, -108961.55, -103616.25, -3466.91, -99532.92, -126990.34, 0.000, 0.000, 0.000, 13:38:10.039
144, -21250.79, -99040.51, -187500.02, -109025.46, -103681.80, -3527.55, -99598.56, -127054.17, 0.000, 0.000, 0.000, 13:38:10.040
145, -21324.84, -98974.35, -187500.02, -108961.04, -103610.19, -3459.40, -99525.30, -126986.00, 0.000, 0.000, 0.000, 13:38:10.040
146, -21325.57, -98867.59, -187500.02, -108854.42, -103498.61, -3352.49, -99413.36, -126878.69, 0.000, 0.000, 0.000, 13:38:10.040
147, -21248.48, -98929.94, -187500.02, -108916.05, -103567.68, -3416.55, -99485.35, -126944.34, 0.000, 0.000, 0.000, 13:38:10.040
148, -21233.04, -99001.48, -187500.02, -108985.80, -103642.71, -3488.24, -99561.91, -127017.92, 0.000, 0.000, 0.000, 13:38:10.040
149, -21302.20, -98925.55, -187500.02, -108910.41, -103560.34, -3410.81, -99478.72, -126938.52, 0.754, 0.032, 0.694, 13:38:10.040
150, -21322.38, -98853.42, -187500.02, -108836.67, -103482.74, -3338.28, -99400.77, -126863.13, 0.000, 0.000, 0.000, 13:38:10.040
151, -21242.99, -98930.43, -187500.02, -108915.24, -103568.13, -3418.25, -99486.76, -126942.80, 0.000, 0.000, 0.000, 13:38:10.040
152, -21238.83, -99022.56, -187500.02, -109008.27, -103665.63, -3509.94, -99584.53, -127035.60, 0.000, 0.000, 0.000, 13:38:10.041
153, -21290.08, -98996.25, -187500.02, -108980.89, -103635.71, -3480.37, -99552.99, -127008.38, 0.000, 0.000, 0.000, 13:38:10.041
154, -21323.14, -98880.45, -187500.02, -108863.43, -103512.04, -3361.39, -99426.50, -126889.55, 0.000, 0.000, 0.000, 13:38:10.041
155, -21252.53, -98902.84, -187500.02, -108886.61, -103540.70, -3386.29, -99454.55, -126914.77, 0.000, 0.000, 0.000, 13:38:10.041
