%OpenBCI Raw EEG Data
%
%Sample Rate = 250.0 Hz
%First Column = SampleIndex
%Last Column = Timestamp 
%Other Columns = EEG data in microvolts followed by Accel Data (in G) interleaved with Aux Data
0, -23890.15, -87743.47, -187500.02, -157977.30, -143368.89, 11382.25, -96490.82, -187500.02, -0.338, -0.054, -0.954, 12:59:22.926
1, -23972.69, -87829.26, -187500.02, -158133.77, -143524.13, 11347.44, -96529.96, -187500.02, 0.000, 0.000, 0.000, 12:59:22.927
2, -23917.71, -87858.71, -187500.02, -158223.61, -143611.39, 11377.55, -96498.84, -187500.02, 0.000, 0.000, 0.000, 12:59:22.927
3, -23802.86, -87951.01, -187500.02, -158371.25, -143756.38, 11350.30, -96520.69, -187500.02, 0.000, 0.000, 0.000, 12:59:22.927
4, -23857.25, -88009.79, -187500.02, -158490.77, -143875.77, 11351.49, -96517.20, -187500.02, 0.000, 0.000, 0.000, 12:59:22.927
5, -23983.26, -88017.61, -187500.02, -158564.19, -143952.27, 11395.68, -96476.43, -187500.02, 0.000, 0.000, 0.000, 12:59:22.927
6, -23946.50, -88089.23, -187500.02, -158699.66, -144087.09, 11379.52, -96493.38, -187500.02, 0.000, 0.000, 0.000, 12:59:22.927
7, -23814.60, -88123.18, -187500.02, -158789.25, -144174.69, 11408.02, -96458.95, -187500.02, -0.332, -0.056, -0.960, 12:59:22.928
8, -23854.00, -88186.55, -187500.02, -158910.06, -144294.81, 11403.81, -96457.95, -187500.02, 0.000, 0.000, 0.000, 12:59:22.928
9, -23979.53, -88245.13, -187500.02, -159036.02, -144419.88, 11395.83, -96469.37, -187500.02, 0.000, 0.000, 0.000, 12:59:22.928
10, -23949.22, -88270.52, -187500.02, -159121.95, -144507.22, 11424.94, -96440.63, -187500.02, 0.000, 0.000, 0.000, 12:59:22.928
11, -23820.46, -88333.27, -187500.02, -159238.67, -144623.53, 11425.00, -96434.67, -187500.02, 0.000, 0.000, 0.000, 12:59:22.928
12, -23803.58, -88405.37, -187500.02, -159362.92, -144749.58, 11414.75, -96438.59, -187500.02, 0.000, 0.000, 0.000, 12:59:22.928
13, -23933.26, -88479.84, -187500.02, -159501.50, -144891.58, 11391.77, -96464.91, -187500.02, 0.000, 0.000, 0.000, 12:59:22.929
14, -23965.34, -88523.23, -187500.02, -159608.73, -145000.75, 11401.31, -96459.42, -187500.02, 0.000, 0.000, 0.000, 12:59:22.929
15, -23879.75, -88574.82, -187500.02, -159715.88, -145105.48, 11412.24, -96445.23, -187500.02, 0.000, 0.000, 0.000, 12:59:22.929
16, -23832.35, -88643.80, -187500.02, -159838.13, -145224.84, 11405.98, -96443.46, -187500.02, 0.000, 0.000, 0.000, 12:59:22.929
17, -23922.89, -88692.10, -187500.02, -159952.25, -145338.09, 11408.55, -96440.22, -187500.02, -0.336, -0.056, -0.954, 12:59:22.929
18, -23967.33, -88717.53, -187500.02, -160044.88, -145430.61, 11431.49, -96418.45, -187500.02, 0.000, 0.000, 0.000, 12:59:22.929
19, -23863.48, -88757.12, -187500.02, -160141.50, -145527.06, 11448.79, -96396.86, -187500.02, 0.000, 0.000, 0.000, 12:59:22.930
20, -23790.66, -88827.02, -187500.02, -160265.78, -145649.81, 11438.48, -96398.38, -187500.02, 0.000, 0.000, 0.000, 12:59:22.930
21, -23901.59, -88846.08, -187500.02, -160346.02, -145730.27, 11471.09, -96361.30, -187500.02, 0.000, 0.000, 0.000, 12:59:22.930
22, -23957.13, -88912.46, -187500.02, -160474.77, -145863.66, 11455.25, -96380.77, -187500.02, 0.000, 0.000, 0.000, 12:59:22.930
23, -23890.86, -89008.91, -187500.02, -160631.56, -146017.77, 11418.83, -96419.41, -187500.02, 0.000, 0.000, 0.000, 12:59:22.930
24, -23815.02, -89031.11, -187500.02, -160709.84, -146088.88, 11459.36, -96372.67, -187500.02, 0.000, 0.000, 0.000, 12:59:22.930
25, -23889.28, -89090.23, -187500.02, -160830.19, -146207.53, 11453.73, -96377.68, -187500.02, 0.000, 0.000, 0.000, 12:59:22.930
26, -23982.84, -89134.38, -187500.02, -160939.89, -146319.39, 11457.33, -96376.38, -187500.02, -0.332, -0.056, -0.954, 12:59:22.930
27, -23925.35, -89175.12, -187500.02, -161039.19, -146418.94, 11471.38, -96359.53, -187500.02, 0.000, 0.000, 0.000, 12:59:22.930
28, -23803.65, -89225.75, -187500.02, -161139.73, -146520.03, 11483.59, -96339.68, -187500.02, 0.000, 0.000, 0.000, 12:59:22.931
29, -23865.27, -89281.42, -187500.02, -161251.05, -146632.94, 11484.55, -96335.45, -187500.02, 0.000, 0.000, 0.000, 12:59:22.931
30, -23973.50, -89320.61, -187500.02, -161353.59, -146741.03, 11492.28, -96330.18, -187500.02, 0.000, 0.000, 0.000, 12:59:22.931
31, -23942.41, -89383.55, -187500.02, -161476.70, -146867.73, 11482.45, -96339.34, -187500.02, 0.000, 0.000, 0.000, 12:59:22.931
32, -23834.76, -89432.88, -187500.02, -161576.11, -146967.94, 11494.67, -96317.64, -187500.02, 0.000, 0.000, 0.000, 12:59:22.931
33, -23834.92, -89529.93, -187500.02, -161728.81, -147119.77, 11454.91, -96350.56, -187500.02, 0.000, 0.000, 0.000, 12:59:22.931
34, -23943.41, -89577.49, -187500.02, -161842.83, -147233.31, 11455.22, -96353.98, -187500.02, 0.000, 0.000, 0.000, 12:59:22.931
35, -23945.58, -89620.48, -187500.02, -161947.22, -147338.17, 11463.65, -96347.55, -187500.02, 0.000, 0.000, 0.000, 12:59:22.931
36, -23858.16, -89644.71, -187500.02, -162022.61, -147412.66, 11499.23, -96303.63, -187500.02, -0.338, -0.050, -0.960, 12:59:22.931
37, -23830.36, -89750.84, -187500.02, -162183.27, -147571.69, 11452.54, -96342.88, -187500.02, 0.000, 0.000, 0.000, 12:59:22.931
38, -23923.21, -89780.25, -187500.02, -162277.19, -147667.58, 11472.08, -96325.31, -187500.02, 0.000, 0.000, 0.000, 12:59:22.932
39, -23903.40, -89796.07, -187500.02, -162353.81, -147749.20, 11504.91, -96293.79, -187500.02, 0.000, 0.000, 0.000, 12:59:22.932
40, -23847.05, -89793.19, -187500.02, -162403.72, -147797.27, 11564.17, -96224.70, -187500.02, 0.000, 0.000, 0.000, 12:59:22.932
41, -23822.89, -89876.30, -187500.02, -162537.75, -147930.77, 11537.61, -96238.70, -187500.02, 0.000, 0.000, 0.000, 12:59:22.932
42, -23916.95, -89983.90, -187500.02, -162710.95, -148104.23, 11479.14, -96299.18, -187500.02, 0.000, 0.000, 0.000, 12:59:22.932
43, -23943.72, -90011.84, -187500.02, -162806.13, -148199.91, 11498.88, -96284.14, -187500.02, 0.000, 0.000, 0.000, 12:59:22.932
44, -23879.44, -90040.29, -187500.02, -162891.19, -148285.17, 11525.97, -96253.65, -187500.02, 0.000, 0.000, 0.000, 12:59:22.932
45, -23819.22, -90090.13, -187500.02, -162993.44, -148386.86, 11534.77, -96234.47, -187500.02, 0.000, 0.000, 0.000, 12:59:22.932
46, -23899.33, -90165.50, -187500.02, -163129.86, -148526.47, 11508.15, -96257.13, -187500.02, -0.340, -0.050, -0.954, 12:59:22.932
47, -23972.40, -90230.08, -187500.02, -163259.23, -148659.84, 11490.36, -96277.77, -187500.02, 0.000, 0.000, 0.000, 12:59:22.932
48, -23902.11, -90232.52, -187500.02, -163317.95, -148718.41, 11542.28, -96222.29, -187500.02, 0.000, 0.000, 0.000, 12:59:22.933
49, -23822.51, -90240.00, -187500.02, -163372.45, -148772.14, 11594.54, -96157.70, -187500.02, 0.000, 0.000, 0.000, 12:59:22.933
50, -23863.24, -90317.61, -187500.02, -163505.36, -148906.09, 11568.12, -96177.54, -187500.02, 0.000, 0.000, 0.000, 12:59:22.933
51, -23954.90, -90391.37, -187500.02, -163645.19, -149046.92, 11539.47, -96209.98, -187500.02, 0.000, 0.000, 0.000, 12:59:22.933
52, -23914.33, -90426.20, -187500.02, -163736.83, -149140.42, 11557.48, -96190.93, -187500.02, 0.000, 0.000, 0.000, 12:59:22.933
53, -23838.85, -90472.28, -187500.02, -163835.06, -149235.91, 11570.96, -96167.23, -187500.02, 0.000, 0.000, 0.000, 12:59:22.933
54, -23866.21, -90539.70, -187500.02, -163959.56, -149362.08, 11558.40, -96174.88, -187500.02, 0.000, 0.000, 0.000, 12:59:22.933
55, -23961.00, -90594.59, -187500.02, -164081.00, -149487.98, 11547.16, -96191.82, -187500.02, 0.000, 0.000, 0.000, 12:59:22.933
56, -23950.05, -90647.72, -187500.02, -164195.78, -149603.39, 11542.28, -96198.02, -187500.02, -0.340, -0.054, -0.954, 12:59:22.933
57, -23834.96, -90654.91, -187500.02, -164253.83, -149661.58, 11591.70, -96140.15, -187500.02, 0.000, 0.000, 0.000, 12:59:22.933
58, -23816.81, -90713.81, -187500.02, -164363.86, -149775.92, 11587.48, -96135.56, -187500.02, 0.000, 0.000, 0.000, 12:59:22.934
59, -23909.62, -90745.87, -187500.02, -164456.34, -149876.53, 11597.83, -96124.48, -187500.02, 0.000, 0.000, 0.000, 12:59:22.934
60, -23922.51, -90788.18, -187500.02, -164556.94, -149983.17, 11602.43, -96122.13, -187500.02, 0.000, 0.000, 0.000, 12:59:22.934
61, -23841.53, -90837.69, -187500.02, -164658.80, -150085.05, 11610.17, -96110.55, -187500.02, 0.000, 0.000, 0.000, 12:59:22.934
62, -23805.50, -90904.36, -187500.02, -164777.08, -150205.19, 11600.69, -96113.64, -187500.02, 0.000, 0.000, 0.000, 12:59:22.934
63, -23909.57, -90976.72, -187500.02, -164914.08, -150342.03, 11575.81, -96141.00, -187500.02, 0.000, 0.000, 0.000, 12:59:22.934
64, -23967.28, -91027.14, -187500.02, -165030.33, -150455.48, 11573.71, -96145.71, -187500.02, 0.000, 0.000, 0.000, 12:59:22.935
65, -23884.02, -91054.34, -187500.02, -165110.14, -150533.89, 11602.48, -96110.17, -187500.02, 0.000, 0.000, 0.000, 12:59:22.935
66, -23792.02, -91115.85, -187500.02, -165218.81, -150643.13, 11601.07, -96103.02, -187500.02, -0.334, -0.050, -0.958, 12:59:22.935
67, -23909.73, -91192.01, -187500.02, -165356.36, -150783.05, 11572.35, -96132.32, -187500.02, 0.000, 0.000, 0.000, 12:59:22.935
68, -23952.38, -91218.92, -187500.02, -165445.97, -150875.92, 11589.11, -96119.74, -187500.02, 0.000, 0.000, 0.000, 12:59:22.935
69, -23881.63, -91252.73, -187500.02, -165535.78, -150965.84, 11607.06, -96099.80, -187500.02, 0.000, 0.000, 0.000, 12:59:22.935
70, -23820.79, -91315.14, -187500.02, -165649.69, -151080.28, 11600.42, -96099.22, -187500.02, 0.000, 0.000, 0.000, 12:59:22.935
71, -23893.70, -91367.89, -187500.02, -165760.83, -151194.89, 11597.38, -96105.16, -187500.02, 0.000, 0.000, 0.000, 12:59:22.935
72, -23954.83, -91350.91, -187500.02, -165805.95, -151245.75, 11657.19, -96050.45, -187500.02, 0.000, 0.000, 0.000, 12:59:22.935
73, -23914.73, -91407.26, -187500.02, -165917.02, -151359.69, 11649.59, -96056.48, -187500.02, 0.000, 0.000, 0.000, 12:59:22.935
74, -23828.88, -91461.81, -187500.02, -166021.52, -151463.16, 11652.88, -96048.04, -187500.02, 0.000, 0.000, 0.000, 12:59:22.936
75, -23885.36, -91488.95, -187500.02, -166101.66, -151548.56, 11677.85, -96021.75, -187500.02, 0.000, 0.000, 0.000, 12:59:22.936
76, -23966.14, -91499.52, -187500.02, -166173.77, -151628.55, 11707.64, -95995.87, -187500.02, -0.336, -0.052, -0.960, 12:59:22.936
77, -23925.82, -91534.21, -187500.02, -166265.45, -151723.55, 11719.65, -95983.46, -187500.02, 0.000, 0.000, 0.000, 12:59:22.936
78, -23838.36, -91560.74, -187500.02, -166338.23, -151799.56, 11747.38, -95946.80, -187500.02, 0.000, 0.000, 0.000, 12:59:22.936
79, -23836.82, -91660.39, -187500.02, -166490.30, -151955.42, 11697.36, -95994.21, -187500.02, 0.000, 0.000, 0.000, 12:59:22.936
80, -23931.03, -91707.80, -187500.02, -166602.25, -152070.17, 11691.37, -96007.20, -187500.02, 0.000, 0.000, 0.000, 12:59:22.936
81, -23940.97, -91728.88, -187500.02, -166680.89, -152152.98, 11713.74, -95985.79, -187500.02, 0.000, 0.000, 0.000, 12:59:22.936
82, -23837.06, -91749.88, -187500.02, -166753.08, -152224.63, 11746.53, -95946.13, -187500.02, 0.000, 0.000, 0.000, 12:59:22.936
83, -23810.40, -91823.29, -187500.02, -166880.00, -152350.25, 11723.45, -95962.20, -187500.02, 0.000, 0.000, 0.000, 12:59:22.936
84, -23940.44, -91859.84, -187500.02, -166977.56, -152451.77, 11727.47, -95962.34, -187500.02, 0.000, 0.000, 0.000, 12:59:22.937
85, -23945.40, -91870.49, -187500.02, -167042.11, -152524.30, 11761.13, -95931.20, -187500.02, 0.000, 0.000, 0.000, 12:59:22.937
86, -23863.37, -91877.78, -187500.02, -167096.92, -152583.31, 11805.65, -95880.24, -187500.02, -0.338, -0.054, -0.952, 12:59:22.937
87, -23831.54, -91950.76, -187500.02, -167221.83, -152710.06, 11783.15, -95892.58, -187500.02, 0.000, 0.000, 0.000, 12:59:22.937
88, -23941.09, -92029.82, -187500.02, -167365.78, -152855.23, 11746.65, -95931.36, -187500.02, 0.000, 0.000, 0.000, 12:59:22.937
89, -23932.55, -92080.87, -187500.02, -167478.28, -152970.19, 11739.94, -95944.57, -187500.02, 0.000, 0.000, 0.000, 12:59:22.937
90, -23861.89, -92078.97, -187500.02, -167525.94, -153019.77, 11792.47, -95887.55, -187500.02, 0.000, 0.000, 0.000, 12:59:22.937
91, -23811.11, -92131.67, -187500.02, -167623.86, -153122.34, 11790.68, -95877.36, -187500.02, 0.000, 0.000, 0.000, 12:59:22.937
92, -23883.08, -92208.19, -187500.02, -167759.02, -153264.45, 11756.21, -95915.06, -187500.02, 0.000, 0.000, 0.000, 12:59:22.937
93, -23933.82, -92228.70, -187500.02, -167839.80, -153353.92, 11774.25, -95903.46, -187500.02, 0.000, 0.000, 0.000, 12:59:22.938
94, -23909.55, -92251.16, -187500.02, -167912.80, -153433.45, 11798.73, -95876.11, -187500.02, 0.000, 0.000, 0.000, 12:59:22.938
95, -23829.31, -92331.86, -187500.02, -168041.33, -153564.41, 11770.90, -95894.73, -187500.02, 0.000, 0.000, 0.000, 12:59:22.938
96, -23895.04, -92383.13, -187500.02, -168147.97, -153675.66, 11764.53, -95898.34, -187500.02, -0.334, -0.056, -0.956, 12:59:22.938
97, -23966.19, -92430.98, -187500.02, -168255.08, -153790.05, 11756.30, -95910.91, -187500.02, 0.000, 0.000, 0.000, 12:59:22.938
98, -23928.17, -92486.30, -187500.02, -168366.09, -153903.72, 11747.23, -95921.79, -187500.02, 0.000, 0.000, 0.000, 12:59:22.938
99, -23841.89, -92512.19, -187500.02, -168442.30, -153979.47, 11774.07, -95888.20, -187500.02, 0.000, 0.000, 0.000, 12:59:22.938
100, -23847.59, -92576.36, -187500.02, -168559.84, -154101.84, 11755.47, -95903.45, -187500.02, 0.000, 0.000, 0.000, 12:59:22.938
101, -23959.42, -92590.96, -187500.02, -168636.39, -154184.39, 11778.18, -95883.34, -187500.02, 0.000, 0.000, 0.000, 12:59:22.938
102, -23928.68, -92600.57, -187500.02, -168699.47, -154253.56, 11810.28, -95846.71, -187500.02, 0.000, 0.000, 0.000, 12:59:22.938
103, -23814.49, -92634.03, -187500.02, -168780.88, -154337.83, 11825.82, -95820.14, -187500.02, 0.000, 0.000, 0.000, 12:59:22.939
104, -23822.42, -92742.48, -187500.02, -168943.80, -154502.42, 11764.71, -95876.27, -187500.02, 0.000, 0.000, 0.000, 12:59:22.939
105, -23946.18, -92769.55, -187500.02, -169034.44, -154596.44, 11776.24, -95870.30, -187500.02, 0.000, 0.000, 0.000, 12:59:22.939
106, -23941.82, -92779.85, -187500.02, -169101.61, -154667.89, 11807.49, -95840.05, -187500.02, -0.334, -0.054, -0.952, 12:59:22.939
107, -23847.90, -92800.17, -187500.02, -169171.61, -154738.91, 11836.43, -95802.63, -187500.02, 0.000, 0.000, 0.000, 12:59:22.939
108, -23831.18, -92836.41, -187500.02, -169255.27, -154825.66, 11848.55, -95780.09, -187500.02, 0.000, 0.000, 0.000, 12:59:22.939
109, -23928.03, -92898.25, -187500.02, -169373.00, -154954.20, 11825.61, -95805.25, -187500.02, 0.000, 0.000, 0.000, 12:59:22.939
110, -23940.73, -92943.34, -187500.02, -169475.13, -155064.81, 11819.20, -95812.78, -187500.02, 0.000, 0.000, 0.000, 12:59:22.939
111, -23861.89, -92963.90, -187500.02, -169544.59, -155138.27, 11846.11, -95778.09, -187500.02, 0.000, 0.000, 0.000, 12:59:22.939
112, -23782.19, -93007.33, -187500.02, -169633.13, -155233.11, 11851.70, -95761.98, -187500.02, 0.000, 0.000, 0.000, 12:59:22.939
113, -23915.34, -93044.74, -187500.02, -169725.58, -155333.64, 11854.60, -95760.66, -187500.02, 0.000, 0.000, 0.000, 12:59:22.940
114, -23966.46, -93074.13, -187500.02, -169810.84, -155426.03, 11863.93, -95755.54, -187500.02, 0.000, 0.000, 0.000, 12:59:22.940
115, -23872.02, -93111.80, -187500.02, -169897.08, -155517.86, 11871.79, -95741.28, -187500.02, 0.000, 0.000, 0.000, 12:59:22.940
116, -23798.62, -93180.46, -187500.02, -170011.88, -155638.86, 11851.97, -95749.08, -187500.02, -0.330, -0.050, -0.954, 12:59:22.940
117, -23909.79, -93262.13, -187500.02, -170150.55, -155782.17, 11812.85, -95790.05, -187500.02, 0.000, 0.000, 0.000, 12:59:22.940
118, -23958.97, -93268.15, -187500.02, -170215.09, -155852.86, 11845.24, -95762.52, -187500.02, 0.000, 0.000, 0.000, 12:59:22.940
119, -23888.56, -93248.10, -187500.02, -170245.67, -155886.61, 11909.86, -95690.41, -187500.02, 0.000, 0.000, 0.000, 12:59:22.940
120, -23798.28, -93269.24, -187500.02, -170310.66, -155955.42, 11935.74, -95649.75, -187500.02, 0.000, 0.000, 0.000, 12:59:23.409
121, -23863.97, -93369.05, -187500.02, -170463.30, -156115.38, 11876.51, -95705.83, -187500.02, 0.000, 0.000, 0.000, 12:59:23.409
122, -23945.63, -93402.39, -187500.02, -170555.05, -156213.52, 11881.96, -95706.10, -187500.02, 0.000, 0.000, 0.000, 12:59:23.409
123, -23917.80, -93428.01, -187500.02, -170630.63, -156293.72, 11902.66, -95685.71, -187500.02, 0.000, 0.000, 0.000, 12:59:23.409
124, -23822.02, -93460.89, -187500.02, -170709.75, -156376.00, 11920.25, -95660.34, -187500.02, 0.000, 0.000, 0.000, 12:59:23.409
125, -23838.40, -93541.84, -187500.02, -170843.73, -156514.98, 11883.24, -95693.78, -187500.02, 0.000, 0.000, 0.000, 12:59:23.410
126, -23927.29, -93588.12, -187500.02, -170952.08, -156628.33, 11873.02, -95710.03, -187500.02, -0.334, -0.048, -0.948, 12:59:23.410
127, -23932.10, -93611.65, -187500.02, -171032.33, -156713.50, 11890.48, -95694.61, -187500.02, 0.000, 0.000, 0.000, 12:59:23.410
128, -23813.75, -93649.20, -187500.02, -171119.56, -156801.94, 11899.33, -95677.29, -187500.02, 0.000, 0.000, 0.000, 12:59:23.410
129, -23817.21, -93746.09, -187500.02, -171267.80, -156953.08, 11847.65, -95723.33, -187500.02, 0.000, 0.000, 0.000, 12:59:23.410
130, -23927.52, -93784.79, -187500.02, -171365.00, -157054.55, 11848.53, -95727.49, -187500.02, 0.000, 0.000, 0.000, 12:59:23.411
131, -23926.51, -93773.92, -187500.02, -171408.59, -157103.92, 11899.04, -95677.11, -187500.02, 0.000, 0.000, 0.000, 12:59:23.411
132, -23824.39, -93805.93, -187500.02, -171486.88, -157188.91, 11915.71, -95653.41, -187500.02, 0.000, 0.000, 0.000, 12:59:23.411
133, -23814.93, -93882.77, -187500.02, -171613.11, -157320.73, 11887.53, -95675.68, -187500.02, 0.000, 0.000, 0.000, 12:59:23.411
134, -23921.10, -93913.13, -187500.02, -171701.94, -157415.66, 11895.98, -95670.13, -187500.02, 0.000, 0.000, 0.000, 12:59:23.411
135, -23949.92, -93927.86, -187500.02, -171774.67, -157493.81, 11917.01, -95650.22, -187500.02, -0.336, -0.052, -0.948, 12:59:23.412
136, -23839.05, -93959.40, -187500.02, -171859.30, -157578.36, 11929.44, -95631.47, -187500.02, 0.000, 0.000, 0.000, 12:59:23.412
137, -23784.13, -94021.16, -187500.02, -171970.20, -157692.83, 11914.87, -95636.92, -187500.02, 0.000, 0.000, 0.000, 12:59:23.412
138, -23909.93, -94076.34, -187500.02, -172081.00, -157810.38, 11898.93, -95653.23, -187500.02, 0.000, 0.000, 0.000, 12:59:23.412
139, -23962.99, -94089.82, -187500.02, -172150.77, -157887.11, 11921.75, -95633.21, -187500.02, 0.000, 0.000, 0.000, 12:59:23.413
140, -23887.13, -94093.78, -187500.02, -172203.47, -157944.27, 11959.99, -95588.38, -187500.02, 0.000, 0.000, 0.000, 12:59:23.413
141, -23804.99, -94148.83, -187500.02, -172301.70, -158046.03, 11953.38, -95585.09, -187500.02, 0.000, 0.000, 0.000, 12:59:23.413
142, -23889.12, -94226.26, -187500.02, -172429.89, -158183.67, 11915.49, -95620.11, -187500.02, 0.000, 0.000, 0.000, 12:59:23.413
143, -23963.04, -94266.29, -187500.02, -172527.28, -158288.81, 11911.89, -95626.26, -187500.02, 0.000, 0.000, 0.000, 12:59:23.413
144, -23902.46, -94284.69, -187500.02, -172597.17, -158364.05, 11937.64, -95596.33, -187500.02, 0.000, 0.000, 0.000, 12:59:23.413
145, -23781.38, -94339.70, -187500.02, -172697.81, -158470.31, 11928.68, -95594.23, -187500.02, -0.334, -0.056, -0.950, 12:59:23.414
146, -23859.64, -94377.33, -187500.02, -172785.33, -158565.55, 11932.57, -95585.91, -187500.02, 0.000, 0.000, 0.000, 12:59:23.414
147, -23965.47, -94410.95, -187500.02, -172874.58, -158664.77, 11934.89, -95585.94, -187500.02, 0.000, 0.000, 0.000, 12:59:23.414
148, -23929.24, -94452.32, -187500.02, -172966.05, -158764.13, 11933.37, -95584.17, -187500.02, 0.000, 0.000, 0.000, 12:59:23.414
149, -23826.73, -94475.41, -187500.02, -173035.28, -158836.44, 11957.71, -95549.19, -187500.02, 0.000, 0.000, 0.000, 12:59:23.414
150, -23831.41, -94571.16, -187500.02, -173181.02, -158989.61, 11904.05, -95595.88, -187500.02, 0.000, 0.000, 0.000, 12:59:23.414
151, -23957.36, -94623.31, -187500.02, -173294.95, -159108.78, 11885.94, -95616.40, -187500.02, 0.000, 0.000, 0.000, 12:59:23.414
152, -23941.96, -94621.44, -187500.02, -173347.19, -159166.19, 11928.75, -95574.00, -187500.02, 0.000, 0.000, 0.000, 12:59:23.414
153, -23831.81, -94606.37, -187500.02, -173374.78, -159201.50, 11991.06, -95501.42, -187500.02, 0.000, 0.000, 0.000, 12:59:23.415
154, -23810.64, -94685.32, -187500.02, -173498.84, -159334.09, 11955.41, -95527.58, -187500.02, 0.000, 0.000, 0.000, 12:59:23.415
155, -23926.83, -94728.14, -187500.02, -173598.19, -159442.66, 11945.98, -95536.13, -187500.02, -0.340, -0.060, -0.954, 12:59:23.415
156, -23928.77, -94752.41, -187500.02, -173675.44, -159528.64, 11959.50, -95521.09, -187500.02, 0.000, 0.000, 0.000, 12:59:23.415
157, -23832.03, -94780.53, -187500.02, -173748.64, -159608.89, 11975.59, -95495.97, -187500.02, 0.000, 0.000, 0.000, 12:59:23.415
158, -23784.78, -94850.90, -187500.02, -173867.31, -159731.73, 11950.67, -95513.70, -187500.02, 0.000, 0.000, 0.000, 12:59:23.415
159, -23896.63, -94877.50, -187500.02, -173949.41, -159822.95, 11959.93, -95505.20, -187500.02, 0.000, 0.000, 0.000, 12:59:23.415
160, -23940.71, -94917.44, -187500.02, -174044.72, -159924.61, 11956.86, -95509.49, -187500.02, 0.000, 0.000, 0.000, 12:59:23.415
161, -23832.90, -94935.52, -187500.02, -174110.42, -159994.36, 11983.08, -95478.24, -187500.02, 0.000, 0.000, 0.000, 12:59:23.416
162, -23762.16, -95001.48, -187500.02, -174222.55, -160112.22, 11961.13, -95492.05, -187500.02, 0.000, 0.000, 0.000, 12:59:23.416
163, -23893.05, -95050.61, -187500.02, -174327.00, -160222.97, 11951.01, -95503.34, -187500.02, 0.000, 0.000, 0.000, 12:59:23.416
164, -23962.25, -95057.79, -187500.02, -174387.05, -160294.33, 11978.48, -95476.57, -187500.02, 0.000, 0.000, 0.000, 12:59:23.416
165, -23901.44, -95072.45, -187500.02, -174448.91, -160364.73, 12004.03, -95443.02, -187500.02, -0.338, -0.056, -0.956, 12:59:23.416
166, -23788.20, -95134.48, -187500.02, -174555.09, -160475.63, 11989.41, -95447.71, -187500.02, 0.000, 0.000, 0.000, 12:59:23.416
167, -23872.18, -95195.74, -187500.02, -174672.27, -160596.70, 11967.79, -95467.63, -187500.02, 0.000, 0.000, 0.000, 12:59:23.416
168, -23937.73, -95228.55, -187500.02, -174761.91, -160692.39, 11969.07, -95469.41, -187500.02, 0.000, 0.000, 0.000, 12:59:23.417
169, -23891.13, -95238.73, -187500.02, -174818.98, -160755.22, 11999.44, -95435.09, -187500.02, 0.000, 0.000, 0.000, 12:59:23.417
170, -23808.27, -95279.45, -187500.02, -174901.86, -160845.03, 12003.09, -95422.03, -187500.02, 0.000, 0.000, 0.000, 12:59:23.417
171, -23870.03, -95325.25, -187500.02, -174996.92, -160947.95, 11996.63, -95424.45, -187500.02, 0.000, 0.000, 0.000, 12:59:23.417
172, -23956.64, -95304.41, -187500.02, -175029.70, -160992.55, 12050.58, -95370.80, -187500.02, 0.000, 0.000, 0.000, 12:59:23.417
173, -23913.28, -95320.82, -187500.02, -175094.33, -161068.92, 12070.57, -95346.75, -187500.02, 0.000, 0.000, 0.000, 12:59:23.417
174, -23824.86, -95355.42, -187500.02, -175169.97, -161151.95, 12078.64, -95326.32, -187500.02, 0.000, 0.000, 0.000, 12:59:23.418
175, -23841.20, -95466.66, -187500.02, -175331.38, -161318.56, 12004.74, -95393.35, -187500.02, -0.332, -0.054, -0.954, 12:59:23.418
176, -23941.73, -95492.04, -187500.02, -175414.34, -161410.19, 12011.54, -95389.69, -187500.02, 0.000, 0.000, 0.000, 12:59:23.418
177, -23917.84, -95500.44, -187500.02, -175475.38, -161478.66, 12038.67, -95360.85, -187500.02, 0.000, 0.000, 0.000, 12:59:23.418
178, -23814.58, -95540.54, -187500.02, -175564.13, -161569.22, 12039.30, -95349.84, -187500.02, 0.000, 0.000, 0.000, 12:59:23.418
179, -23799.15, -95596.71, -187500.02, -175669.03, -161678.23, 12024.75, -95356.47, -187500.02, 0.000, 0.000, 0.000, 12:59:23.418
180, -23905.75, -95630.75, -187500.02, -175757.06, -161775.39, 12024.86, -95355.13, -187500.02, 0.000, 0.000, 0.000, 12:59:23.419
181, -23908.25, -95673.94, -187500.02, -175854.38, -161880.33, 12018.38, -95361.34, -187500.02, 0.000, 0.000, 0.000, 12:59:23.419
182, -23831.25, -95732.98, -187500.02, -175962.77, -161993.09, 12001.50, -95372.48, -187500.02, 0.000, 0.000, 0.000, 12:59:23.419
183, -23812.23, -95800.27, -187500.02, -176076.78, -162114.78, 11975.53, -95390.85, -187500.02, 0.000, 0.000, 0.000, 12:59:23.419
184, -23902.71, -95821.84, -187500.02, -176152.13, -162199.39, 11990.01, -95378.06, -187500.02, 0.000, 0.000, 0.000, 12:59:23.419
185, -23901.39, -95854.36, -187500.02, -176236.91, -162294.64, 11991.33, -95377.38, -187500.02, -0.334, -0.056, -0.950, 12:59:23.419
186, -23840.86, -95861.40, -187500.02, -176292.81, -162354.42, 12024.59, -95337.07, -187500.02, 0.000, 0.000, 0.000, 12:59:23.419
187, -23768.38, -95911.00, -187500.02, -176387.05, -162456.23, 12016.52, -95333.18, -187500.02, 0.000, 0.000, 0.000, 12:59:23.419
188, -23880.58, -95947.19, -187500.02, -176476.72, -162553.77, 12016.36, -95331.69, -187500.02, 0.000, 0.000, 0.000, 12:59:23.420
189, -23948.80, -95917.59, -187500.02, -176499.19, -162586.30, 12080.11, -95266.69, -187500.02, 0.000, 0.000, 0.000, 12:59:23.420
190, -23895.85, -95963.44, -187500.02, -176591.03, -162687.86, 12073.16, -95267.52, -187500.02, 0.000, 0.000, 0.000, 12:59:23.420
191, -23808.65, -96012.72, -187500.02, -176685.19, -162786.56, 12067.06, -95264.83, -187500.02, 0.000, 0.000, 0.000, 12:59:23.420
192, -23852.82, -96045.71, -187500.02, -176767.67, -162876.17, 12071.93, -95255.95, -187500.02, 0.000, 0.000, 0.000, 12:59:23.420
193, -23939.50, -96072.58, -187500.02, -176847.23, -162965.25, 12078.14, -95249.74, -187500.02, 0.000, 0.000, 0.000, 12:59:23.420
194, -23905.77, -96077.92, -187500.02, -176901.63, -163027.06, 12109.57, -95212.10, -187500.02, 0.000, 0.000, 0.000, 12:59:23.420
195, -23780.62, -96102.91, -187500.02, -176967.00, -163101.33, 12127.01, -95181.70, -187500.02, -0.334, -0.052, -0.952, 12:59:23.420
196, -23819.27, -96211.00, -187500.02, -177121.91, -163266.05, 12058.14, -95245.85, -187500.02, 0.000, 0.000, 0.000, 12:59:23.421
197, -23948.91, -96212.01, -187500.02, -177178.83, -163327.48, 12088.20, -95213.48, -187500.02, 0.000, 0.000, 0.000, 12:59:23.421
198, -23915.65, -96250.95, -187500.02, -177269.09, -163422.78, 12083.67, -95214.63, -187500.02, 0.000, 0.000, 0.000, 12:59:23.421
199, -23811.13, -96295.91, -187500.02, -177356.45, -163517.67, 12081.03, -95209.76, -187500.02, 0.000, 0.000, 0.000, 12:59:23.421
200, -23798.13, -96390.13, -187500.02, -177497.88, -163666.70, 12026.71, -95258.73, -187500.02, 0.000, 0.000, 0.000, 12:59:23.421
201, -23917.24, -96428.93, -187500.02, -177594.64, -163768.75, 12020.86, -95268.74, -187500.02, 0.000, 0.000, 0.000, 12:59:23.421
202, -23917.46, -96433.42, -187500.02, -177651.41, -163832.53, 12051.52, -95238.79, -187500.02, 0.000, 0.000, 0.000, 12:59:23.421
203, -23837.02, -96447.48, -187500.02, -177708.41, -163898.56, 12078.95, -95203.38, -187500.02, 0.000, 0.000, 0.000, 12:59:23.421
204, -23785.76, -96492.73, -187500.02, -177796.56, -163992.89, 12074.52, -95198.67, -187500.02, 0.000, 0.000, 0.000, 12:59:23.421
205, -23900.63, -96518.09, -187500.02, -177873.50, -164079.88, 12079.08, -95191.31, -187500.02, -0.340, -0.052, -0.954, 12:59:23.422
206, -23931.14, -96531.28, -187500.02, -177936.63, -164154.83, 12099.07, -95171.73, -187500.02, 0.000, 0.000, 0.000, 12:59:23.422
207, -23834.20, -96565.52, -187500.02, -178017.47, -164240.97, 12104.50, -95159.45, -187500.02, 0.000, 0.000, 0.000, 12:59:23.422
208, -23768.31, -96637.05, -187500.02, -178135.33, -164363.50, 12075.31, -95180.88, -187500.02, 0.000, 0.000, 0.000, 12:59:23.422
209, -23892.63, -96652.83, -187500.02, -178200.97, -164440.91, 12092.92, -95160.80, -187500.02, 0.000, 0.000, 0.000, 12:59:23.422
210, -23934.83, -96674.63, -187500.02, -178272.75, -164523.89, 12101.52, -95150.79, -187500.02, 0.000, 0.000, 0.000, 12:59:23.422
211, -23855.03, -96707.88, -187500.02, -178351.89, -164607.34, 12108.90, -95137.00, -187500.02, 0.000, 0.000, 0.000, 12:59:23.422
212, -23785.27, -96747.13, -187500.02, -178430.17, -164691.94, 12116.05, -95121.40, -187500.02, 0.000, 0.000, 0.000, 12:59:23.422
213, -23876.31, -96825.34, -187500.02, -178559.97, -164829.38, 12074.19, -95163.42, -187500.02, 0.000, 0.000, 0.000, 12:59:23.422
214, -23947.35, -96823.06, -187500.02, -178613.44, -164891.41, 12107.58, -95131.95, -187500.02, 0.000, 0.000, 0.000, 12:59:23.423
215, -23881.59, -96812.02, -187500.02, -178644.59, -164933.88, 12155.42, -95075.91, -187500.02, -0.342, -0.052, -0.956, 12:59:23.423
216, -23797.43, -96842.73, -187500.02, -178712.39, -165010.45, 12164.24, -95051.55, -187500.02, 0.000, 0.000, 0.000, 12:59:23.423
217, -23867.01, -96926.86, -187500.02, -178844.28, -165151.84, 12113.95, -95094.82, -187500.02, 0.000, 0.000, 0.000, 12:59:23.423
218, -23945.18, -96945.48, -187500.02, -178917.42, -165234.53, 12125.51, -95083.80, -187500.02, 0.000, 0.000, 0.000, 12:59:23.423
219, -23885.50, -96973.15, -187500.02, -178993.28, -165318.50, 12133.26, -95073.68, -187500.02, 0.000, 0.000, 0.000, 12:59:23.423
220, -23777.23, -97015.76, -187500.02, -179077.05, -165408.69, 12132.62, -95065.70, -187500.02, 0.000, 0.000, 0.000, 12:59:23.423
221, -23810.33, -97085.11, -187500.02, -179193.73, -165531.42, 12101.26, -95091.94, -187500.02, 0.000, 0.000, 0.000, 12:59:23.423
222, -23941.60, -97096.87, -187500.02, -179260.17, -165605.97, 12118.89, -95074.46, -187500.02, 0.000, 0.000, 0.000, 12:59:23.424
223, -23928.53, -97127.67, -187500.02, -179338.98, -165693.98, 12123.74, -95067.51, -187500.02, 0.000, 0.000, 0.000, 12:59:23.424
224, -23824.10, -97159.03, -187500.02, -179411.56, -165774.36, 12134.76, -95048.87, -187500.02, 0.000, 0.000, 0.000, 12:59:23.424
225, -23798.26, -97205.21, -187500.02, -179504.03, -165875.31, 12125.66, -95048.53, -187500.02, -0.334, -0.056, -0.962, 12:59:23.424
226, -23937.73, -97226.20, -187500.02, -179580.48, -165959.39, 12132.68, -95040.27, -187500.02, 0.000, 0.000, 0.000, 12:59:23.424
227, -23900.43, -97225.44, -187500.02, -179625.70, -166015.56, 12165.81, -95003.36, -187500.02, 0.000, 0.000, 0.000, 12:59:23.424
228, -23810.89, -97239.90, -187500.02, -179680.55, -166079.64, 12189.14, -94968.40, -187500.02, 0.000, 0.000, 0.000, 12:59:23.424
229, -23777.07, -97287.44, -187500.02, -179773.55, -166178.80, 12176.63, -94968.47, -187500.02, 0.000, 0.000, 0.000, 12:59:23.424
230, -23909.79, -97337.46, -187500.02, -179877.56, -166291.19, 12154.68, -94985.66, -187500.02, 0.000, 0.000, 0.000, 12:59:23.424
231, -23947.37, -97375.15, -187500.02, -179967.95, -166391.55, 12147.75, -94990.64, -187500.02, 0.000, 0.000, 0.000, 12:59:23.425
232, -23857.51, -97363.88, -187500.02, -179996.16, -166429.63, 12198.38, -94929.89, -187500.02, 0.000, 0.000, 0.000, 12:59:23.425
233, -23772.78, -97414.95, -187500.02, -180087.70, -166530.08, 12184.96, -94929.42, -187500.02, 0.000, 0.000, 0.000, 12:59:23.425
234, -23881.54, -97491.02, -187500.02, -180215.45, -166665.44, 12137.33, -94972.94, -187500.02, -0.338, -0.054, -0.960, 12:59:23.425
235, -23945.65, -97536.69, -187500.02, -180315.47, -166773.56, 12119.92, -94991.20, -187500.02, 0.000, 0.000, 0.000, 12:59:23.425
236, -23871.77, -97532.68, -187500.02, -180355.70, -166821.14, 12160.80, -94945.38, -187500.02, 0.000, 0.000, 0.000, 12:59:23.425
237, -23790.79, -97553.56, -187500.02, -180413.69, -166888.95, 12180.38, -94914.13, -187500.02, 0.000, 0.000, 0.000, 12:59:23.425
238, -23878.95, -97615.43, -187500.02, -180522.56, -167007.16, 12152.17, -94940.22, -187500.02, 0.000, 0.000, 0.000, 12:59:23.425
239, -23947.12, -97588.16, -187500.02, -180545.63, -167038.36, 12211.29, -94884.02, -187500.02, 0.000, 0.000, 0.000, 12:59:23.426
240, -23887.08, -97606.82, -187500.02, -180607.83, -167109.09, 12228.97, -94861.63, -187500.02, 0.000, 0.000, 0.000, 12:59:23.886
241, -23774.79, -97649.90, -187500.02, -180690.52, -167197.72, 12225.46, -94852.51, -187500.02, 0.000, 0.000, 0.000, 12:59:23.886
242, -23848.19, -97716.30, -187500.02, -180805.94, -167319.70, 12191.20, -94881.50, -187500.02, 0.000, 0.000, 0.000, 12:59:23.887
243, -23967.93, -97753.20, -187500.02, -180896.63, -167418.11, 12181.57, -94893.01, -187500.02, 0.000, 0.000, 0.000, 12:59:23.887
244, -23920.28, -97795.23, -187500.02, -180989.16, -167515.61, 12171.93, -94900.72, -187500.02, -0.340, -0.050, -0.958, 12:59:23.887
245, -23778.37, -97795.27, -187500.02, -181032.22, -167564.20, 12209.95, -94852.26, -187500.02, 0.000, 0.000, 0.000, 12:59:23.887
246, -23800.27, -97875.98, -187500.02, -181158.61, -167699.03, 12163.80, -94889.77, -187500.02, 0.000, 0.000, 0.000, 12:59:23.887
247, -23919.92, -97897.44, -187500.02, -181232.61, -167784.06, 12171.66, -94881.95, -187500.02, 0.000, 0.000, 0.000, 12:59:23.887
248, -23912.59, -97867.53, -187500.02, -181247.45, -167811.28, 12233.36, -94815.98, -187500.02, 0.000, 0.000, 0.000, 12:59:23.887
249, -23796.20, -97916.80, -187500.02, -181334.59, -167909.88, 12221.08, -94819.88, -187500.02, 0.000, 0.000, 0.000, 12:59:23.888
250, -23781.05, -98000.28, -187500.02, -181460.27, -168044.25, 12176.47, -94858.27, -187500.02, 0.000, 0.000, 0.000, 12:59:23.888
251, -23927.99, -98036.16, -187500.02, -181549.05, -168141.03, 12170.21, -94865.41, -187500.02, 0.000, 0.000, 0.000, 12:59:23.888
252, -23939.28, -98026.79, -187500.02, -181587.33, -168189.92, 12209.71, -94822.73, -187500.02, 0.000, 0.000, 0.000, 12:59:23.888
253, -23820.79, -98039.27, -187500.02, -181638.61, -168251.52, 12234.99, -94788.89, -187500.02, 0.000, 0.000, 0.000, 12:59:23.888
254, -23798.66, -98080.14, -187500.02, -181716.77, -168342.02, 12230.72, -94781.77, -187500.02, -0.342, -0.050, -0.952, 12:59:23.888
255, -23905.99, -98111.34, -187500.02, -181794.02, -168430.98, 12230.11, -94781.16, -187500.02, 0.000, 0.000, 0.000, 12:59:23.888
0, -23941.80, -98137.72, -187500.02, -181865.56, -168515.42, 12234.34, -94776.98, -187500.02, 0.000, 0.000, 0.000, 12:59:23.889
1, -23859.03, -98160.45, -187500.02, -181928.53, -168587.77, 12247.93, -94755.57, -187500.02, 0.000, 0.000, 0.000, 12:59:23.889
2, -23786.86, -98172.39, -187500.02, -181976.23, -168646.75, 12274.57, -94716.84, -187500.02, 0.000, 0.000, 0.000, 12:59:23.889
3, -23886.28, -98207.98, -187500.02, -182057.41, -168741.89, 12267.62, -94719.29, -187500.02, 0.000, 0.000, 0.000, 12:59:23.889
4, -23930.51, -98244.95, -187500.02, -182144.19, -168840.95, 12259.01, -94729.93, -187500.02, 0.000, 0.000, 0.000, 12:59:23.889
5, -23855.86, -98268.08, -187500.02, -182210.91, -168914.11, 12271.55, -94710.30, -187500.02, 0.000, 0.000, 0.000, 12:59:23.889
6, -23745.93, -98345.64, -187500.02, -182330.92, -169037.50, 12231.17, -94738.18, -187500.02, 0.000, 0.000, 0.000, 12:59:23.889
7, -23838.27, -98402.88, -187500.02, -182437.53, -169151.56, 12206.53, -94760.24, -187500.02, 0.000, 0.000, 0.000, 12:59:23.889
8, -23943.43, -98428.74, -187500.02, -182511.20, -169239.73, 12209.89, -94758.59, -187500.02, -0.340, -0.054, -0.954, 12:59:23.890
9, -23910.31, -98461.60, -187500.02, -182590.50, -169326.39, 12211.58, -94753.55, -187500.02, 0.000, 0.000, 0.000, 12:59:23.890
10, -23774.05, -98462.80, -187500.02, -182632.39, -169372.03, 12250.50, -94703.91, -187500.02, 0.000, 0.000, 0.000, 12:59:23.890
11, -23819.83, -98574.20, -187500.02, -182789.81, -169537.33, 12174.50, -94776.18, -187500.02, 0.000, 0.000, 0.000, 12:59:23.890
12, -23917.39, -98575.10, -187500.02, -182842.84, -169598.19, 12201.71, -94748.62, -187500.02, 0.000, 0.000, 0.000, 12:59:23.890
13, -23884.71, -98557.02, -187500.02, -182868.56, -169634.30, 12250.57, -94694.08, -187500.02, 0.000, 0.000, 0.000, 12:59:23.890
14, -23773.11, -98590.61, -187500.02, -182941.52, -169716.81, 12253.58, -94680.73, -187500.02, 0.000, 0.000, 0.000, 12:59:23.890
15, -23800.52, -98678.81, -187500.02, -183071.33, -169858.70, 12200.10, -94727.12, -187500.02, 0.000, 0.000, 0.000, 12:59:23.891
16, -23919.03, -98742.13, -187500.02, -183187.84, -169983.88, 12163.51, -94766.52, -187500.02, 0.000, 0.000, 0.000, 12:59:23.891
17, -23914.71, -98737.87, -187500.02, -183231.25, -170038.30, 12197.28, -94731.98, -187500.02, 0.000, 0.000, 0.000, 12:59:23.891
18, -23830.07, -98738.09, -187500.02, -183269.41, -170086.48, 12234.03, -94684.91, -187500.02, -0.342, -0.052, -0.954, 12:59:23.891
19, -23811.09, -98797.03, -187500.02, -183371.72, -170197.17, 12209.98, -94701.55, -187500.02, 0.000, 0.000, 0.000, 12:59:23.891
20, -23899.96, -98817.51, -187500.02, -183442.86, -170278.69, 12216.21, -94694.16, -187500.02, 0.000, 0.000, 0.000, 12:59:23.891
21, -23897.50, -98858.55, -187500.02, -183531.55, -170377.16, 12204.45, -94703.40, -187500.02, 0.000, 0.000, 0.000, 12:59:23.891
22, -23820.95, -98846.77, -187500.02, -183561.91, -170415.38, 12251.73, -94646.40, -187500.02, 0.000, 0.000, 0.000, 12:59:23.891
23, -23783.13, -98903.05, -187500.02, -183659.38, -170522.02, 12231.90, -94656.44, -187500.02, 0.000, 0.000, 0.000, 12:59:23.892
24, -23911.69, -98918.11, -187500.02, -183723.59, -170594.97, 12245.25, -94641.30, -187500.02, 0.000, 0.000, 0.000, 12:59:23.892
25, -23955.79, -98925.71, -187500.02, -183777.64, -170662.73, 12265.03, -94621.01, -187500.02, 0.000, 0.000, 0.000, 12:59:23.892
26, -23833.91, -98963.59, -187500.02, -183856.33, -170752.09, 12260.09, -94617.26, -187500.02, 0.000, 0.000, 0.000, 12:59:23.892
27, -23759.43, -99004.55, -187500.02, -183935.11, -170839.30, 12257.23, -94608.96, -187500.02, 0.000, 0.000, 0.000, 12:59:23.892
28, -23857.80, -99060.27, -187500.02, -184036.25, -170952.14, 12231.86, -94633.23, -187500.02, -0.340, -0.052, -0.954, 12:59:23.892
29, -23921.24, -99094.31, -187500.02, -184119.16, -171046.06, 12225.24, -94641.02, -187500.02, 0.000, 0.000, 0.000, 12:59:23.892
30, -23863.53, -99108.84, -187500.02, -184179.67, -171115.11, 12244.80, -94617.88, -187500.02, 0.000, 0.000, 0.000, 12:59:23.892
31, -23751.70, -99137.56, -187500.02, -184248.84, -171193.33, 12253.76, -94599.28, -187500.02, 0.000, 0.000, 0.000, 12:59:23.893
32, -23828.66, -99211.05, -187500.02, -184368.98, -171322.77, 12210.80, -94638.98, -187500.02, 0.000, 0.000, 0.000, 12:59:23.893
33, -23923.59, -99229.05, -187500.02, -184437.69, -171401.66, 12218.40, -94633.62, -187500.02, 0.000, 0.000, 0.000, 12:59:23.893
34, -23863.53, -99224.64, -187500.02, -184474.89, -171450.39, 12252.29, -94592.38, -187500.02, 0.000, 0.000, 0.000, 12:59:23.893
35, -23766.03, -99248.73, -187500.02, -184535.48, -171520.52, 12262.93, -94567.30, -187500.02, 0.000, 0.000, 0.000, 12:59:23.893
36, -23828.12, -99306.36, -187500.02, -184635.86, -171633.20, 12234.52, -94587.17, -187500.02, 0.000, 0.000, 0.000, 12:59:23.893
37, -23921.26, -99291.74, -187500.02, -184667.80, -171681.38, 12272.69, -94546.04, -187500.02, 0.000, 0.000, 0.000, 12:59:23.893
38, -23895.51, -99303.57, -187500.02, -184721.72, -171749.33, 12289.50, -94523.24, -187500.02, -0.342, -0.052, -0.952, 12:59:23.894
39, -23803.18, -99331.22, -187500.02, -184787.98, -171826.06, 12294.08, -94506.99, -187500.02, 0.000, 0.000, 0.000, 12:59:23.894
40, -23784.24, -99368.70, -187500.02, -184867.52, -171915.39, 12287.65, -94503.82, -187500.02, 0.000, 0.000, 0.000, 12:59:23.894
41, -23901.05, -99402.09, -187500.02, -184950.95, -172008.56, 12280.67, -94510.59, -187500.02, 0.000, 0.000, 0.000, 12:59:23.894
42, -23908.83, -99412.35, -187500.02, -185003.39, -172074.20, 12299.96, -94489.00, -187500.02, 0.000, 0.000, 0.000, 12:59:23.894
43, -23821.08, -99451.91, -187500.02, -185080.17, -172163.61, 12292.92, -94486.12, -187500.02, 0.000, 0.000, 0.000, 12:59:23.894
44, -23791.96, -99547.80, -187500.02, -185220.00, -172313.28, 12228.66, -94541.08, -187500.02, 0.000, 0.000, 0.000, 12:59:23.894
45, -23891.69, -99576.10, -187500.02, -185300.20, -172401.22, 12228.93, -94540.84, -187500.02, 0.000, 0.000, 0.000, 12:59:23.895
46, -23930.60, -99550.58, -187500.02, -185318.31, -172431.97, 12282.84, -94483.30, -187500.02, 0.000, 0.000, 0.000, 12:59:23.895
47, -23838.27, -99597.27, -187500.02, -185403.17, -172525.17, 12271.22, -94485.98, -187500.02, 0.000, 0.000, 0.000, 12:59:23.895
48, -23789.03, -99629.86, -187500.02, -185474.50, -172602.02, 12274.30, -94471.19, -187500.02, -0.340, -0.054, -0.950, 12:59:23.895
49, -23881.59, -99631.96, -187500.02, -185522.80, -172663.11, 12296.92, -94442.58, -187500.02, 0.000, 0.000, 0.000, 12:59:23.895
50, -23907.69, -99686.30, -187500.02, -185624.08, -172778.86, 12268.89, -94470.36, -187500.02, 0.000, 0.000, 0.000, 12:59:23.895
51, -23857.51, -99722.05, -187500.02, -185702.33, -172866.67, 12266.93, -94469.17, -187500.02, 0.000, 0.000, 0.000, 12:59:23.895
52, -23781.79, -99750.98, -187500.02, -185767.36, -172942.13, 12274.66, -94453.15, -187500.02, 0.000, 0.000, 0.000, 12:59:23.896
53, -23854.03, -99825.95, -187500.02, -185888.98, -173075.31, 12228.26, -94498.95, -187500.02, 0.000, 0.000, 0.000, 12:59:23.896
54, -23947.68, -99852.52, -187500.02, -185967.61, -173166.27, 12226.27, -94502.03, -187500.02, 0.000, 0.000, 0.000, 12:59:23.896
55, -23872.85, -99839.18, -187500.02, -185997.70, -173206.20, 12270.71, -94450.78, -187500.02, 0.000, 0.000, 0.000, 12:59:23.896
56, -23753.80, -99886.34, -187500.02, -186083.23, -173299.63, 12259.64, -94450.16, -187500.02, 0.000, 0.000, 0.000, 12:59:23.896
57, -23839.41, -99933.44, -187500.02, -186175.19, -173403.08, 12244.40, -94460.64, -187500.02, 0.000, 0.000, 0.000, 12:59:23.896
58, -23927.61, -99960.28, -187500.02, -186248.75, -173491.91, 12242.68, -94461.35, -187500.02, -0.342, -0.052, -0.952, 12:59:23.896
59, -23894.82, -99975.35, -187500.02, -186305.27, -173559.84, 12257.94, -94440.30, -187500.02, 0.000, 0.000, 0.000, 12:59:23.897
60, -23807.60, -99991.82, -187500.02, -186358.88, -173622.63, 12277.05, -94409.27, -187500.02, 0.000, 0.000, 0.000, 12:59:23.897
61, -23832.21, -100027.49, -187500.02, -186437.44, -173711.73, 12271.53, -94405.92, -187500.02, 0.000, 0.000, 0.000, 12:59:23.897
62, -23944.89, -100053.42, -187500.02, -186510.27, -173799.89, 12269.52, -94405.02, -187500.02, 0.000, 0.000, 0.000, 12:59:23.897
63, -23906.35, -100062.14, -187500.02, -186562.09, -173863.38, 12292.77, -94377.73, -187500.02, 0.000, 0.000, 0.000, 12:59:23.897
64, -23784.74, -100090.57, -187500.02, -186626.11, -173937.83, 12300.46, -94358.42, -187500.02, 0.000, 0.000, 0.000, 12:59:23.897
65, -23793.28, -100165.27, -187500.02, -186742.50, -174065.67, 12256.15, -94394.68, -187500.02, 0.000, 0.000, 0.000, 12:59:23.897
66, -23921.98, -100172.85, -187500.02, -186802.16, -174134.86, 12271.58, -94376.26, -187500.02, 0.000, 0.000, 0.000, 12:59:23.897
67, -23934.34, -100176.24, -187500.02, -186849.27, -174192.92, 12294.67, -94345.93, -187500.02, 0.000, 0.000, 0.000, 12:59:23.898
68, -23819.45, -100225.06, -187500.02, -186936.17, -174289.78, 12278.80, -94352.34, -187500.02, -0.342, -0.058, -0.950, 12:59:23.898
69, -23774.70, -100305.22, -187500.02, -187056.89, -174418.91, 12231.63, -94391.95, -187500.02, 0.000, 0.000, 0.000, 12:59:23.898
70, -23898.19, -100317.46, -187500.02, -187116.48, -174488.86, 12246.79, -94377.27, -187500.02, 0.000, 0.000, 0.000, 12:59:23.898
71, -23935.10, -100332.64, -187500.02, -187177.86, -174561.53, 12259.89, -94364.62, -187500.02, 0.000, 0.000, 0.000, 12:59:23.898
72, -23815.02, -100328.73, -187500.02, -187211.95, -174605.78, 12298.29, -94319.30, -187500.02, 0.000, 0.000, 0.000, 12:59:23.898
73, -23762.45, -100381.75, -187500.02, -187301.94, -174706.59, 12281.12, -94327.38, -187500.02, 0.000, 0.000, 0.000, 12:59:23.898
74, -23886.21, -100434.77, -187500.02, -187403.03, -174816.83, 12256.18, -94351.16, -187500.02, 0.000, 0.000, 0.000, 12:59:23.899
75, -23938.07, -100443.95, -187500.02, -187459.73, -174885.88, 12272.18, -94335.60, -187500.02, 0.000, 0.000, 0.000, 12:59:23.899
76, -23875.80, -100438.12, -187500.02, -187493.25, -174929.95, 12309.28, -94292.28, -187500.02, 0.000, 0.000, 0.000, 12:59:23.899
77, -23793.48, -100466.33, -187500.02, -187500.02, -175003.78, 12316.77, -94272.99, -187500.02, 0.000, 0.000, 0.000, 12:59:23.899
78, -23854.70, -100534.99, -187500.02, -187500.02, -175129.17, 12273.59, -94312.84, -187500.02, -0.340, -0.056, -0.950, 12:59:23.899
79, -23913.15, -100559.53, -187500.02, -187500.02, -175215.03, 12272.25, -94316.58, -187500.02, 0.000, 0.000, 0.000, 12:59:23.899
80, -23878.12, -100581.15, -187500.02, -187500.02, -175289.11, 12280.92, -94303.26, -187500.02, 0.000, 0.000, 0.000, 12:59:23.899
81, -23790.39, -100621.94, -187500.02, -187500.02, -175376.09, 12274.55, -94298.90, -187500.02, 0.000, 0.000, 0.000, 12:59:23.899
82, -23851.52, -100660.45, -187500.02, -187500.02, -175469.75, 12265.59, -94303.95, -187500.02, 0.000, 0.000, 0.000, 12:59:23.900
83, -23974.28, -100678.65, -187500.02, -187500.02, -175548.72, 12273.37, -94298.79, -187500.02, 0.000, 0.000, 0.000, 12:59:23.900
84, -23915.90, -100658.82, -187500.02, -187500.02, -175580.50, 12324.97, -94243.83, -187500.02, 0.000, 0.000, 0.000, 12:59:23.900
85, -23786.68, -100654.53, -187500.02, -187500.02, -175620.20, 12363.02, -94192.95, -187500.02, 0.000, 0.000, 0.000, 12:59:23.900
86, -23796.76, -100723.08, -187500.02, -187500.02, -175740.97, 12323.95, -94223.41, -187500.02, 0.000, 0.000, 0.000, 12:59:23.900
87, -23913.48, -100760.56, -187500.02, -187500.02, -175839.42, 12310.85, -94236.00, -187500.02, -0.340, -0.056, -0.948, 12:59:23.900
88, -23914.49, -100750.41, -187500.02, -187500.02, -175883.44, 12349.47, -94193.16, -187500.02, 0.000, 0.000, 0.000, 12:59:23.900
89, -23787.44, -100827.24, -187500.02, -187500.02, -176006.81, 12306.33, -94227.15, -187500.02, 0.000, 0.000, 0.000, 12:59:23.901
90, -23781.76, -100923.48, -187500.02, -187500.02, -176153.06, 12242.94, -94283.70, -187500.02, 0.000, 0.000, 0.000, 12:59:23.901
91, -23913.55, -100907.33, -187500.02, -187500.02, -176198.69, 12282.46, -94244.20, -187500.02, 0.000, 0.000, 0.000, 12:59:23.901
92, -23914.04, -100939.73, -187500.02, -187500.02, -176290.53, 12274.26, -94252.72, -187500.02, 0.000, 0.000, 0.000, 12:59:23.901
93, -23803.76, -100952.12, -187500.02, -187500.02, -176352.58, 12294.00, -94226.68, -187500.02, 0.000, 0.000, 0.000, 12:59:23.901
94, -23769.78, -100987.05, -187500.02, -187500.02, -176436.89, 12291.98, -94219.39, -187500.02, 0.000, 0.000, 0.000, 12:59:23.901
95, -23886.30, -101027.58, -187500.02, -187500.02, -176538.92, 12274.24, -94235.91, -187500.02, 0.000, 0.000, 0.000, 12:59:23.901
96, -23921.93, -101060.10, -187500.02, -187500.02, -176631.25, 12265.27, -94245.79, -187500.02, 0.000, 0.000, 0.000, 12:59:23.902
97, -23849.73, -101099.59, -187500.02, -187500.02, -176722.78, 12256.33, -94250.82, -187500.02, -0.342, -0.056, -0.948, 12:59:23.902
98, -23791.96, -101148.50, -187500.02, -187500.02, -176822.08, 12240.42, -94261.08, -187500.02, 0.000, 0.000, 0.000, 12:59:23.902
99, -23883.82, -101172.28, -187500.02, -187500.02, -176903.23, 12242.36, -94257.91, -187500.02, 0.000, 0.000, 0.000, 12:59:23.902
100, -23932.26, -101196.27, -187500.02, -187500.02, -176985.75, 12242.74, -94257.05, -187500.02, 0.000, 0.000, 0.000, 12:59:23.902
101, -23842.83, -101205.05, -187500.02, -187500.02, -177045.19, 12265.50, -94228.27, -187500.02, 0.000, 0.000, 0.000, 12:59:23.902
102, -23761.22, -101204.13, -187500.02, -187500.02, -177087.30, 12301.08, -94179.43, -187500.02, 0.000, 0.000, 0.000, 12:59:23.902
103, -23852.33, -101224.41, -187500.02, -187500.02, -177159.98, 12308.19, -94164.45, -187500.02, 0.000, 0.000, 0.000, 12:59:23.902
104, -23957.58, -101251.81, -187500.02, -187500.02, -177245.61, 12303.58, -94168.95, -187500.02, 0.000, 0.000, 0.000, 12:59:24.366
105, -23904.18, -101254.09, -187500.02, -187500.02, -177299.08, 12331.35, -94136.72, -187500.02, 0.000, 0.000, 0.000, 12:59:24.367
106, -23758.88, -101299.76, -187500.02, -187500.02, -177390.86, 12318.81, -94138.59, -187500.02, 0.000, 0.000, 0.000, 12:59:24.367
107, -23811.31, -101376.45, -187500.02, -187500.02, -177522.27, 12270.88, -94182.83, -187500.02, -0.338, -0.050, -0.958, 12:59:24.367
108, -23917.01, -101396.49, -187500.02, -187500.02, -177603.48, 12273.63, -94183.45, -187500.02, 0.000, 0.000, 0.000, 12:59:24.367
109, -23893.21, -101423.48, -187500.02, -187500.02, -177683.27, 12274.77, -94180.39, -187500.02, 0.000, 0.000, 0.000, 12:59:24.367
110, -23791.33, -101451.16, -187500.02, -187500.02, -177755.44, 12281.25, -94166.31, -187500.02, 0.000, 0.000, 0.000, 12:59:24.367
111, -23809.52, -101490.95, -187500.02, -187500.02, -177845.47, 12270.68, -94169.91, -187500.02, 0.000, 0.000, 0.000, 12:59:24.367
112, -23932.08, -101493.95, -187500.02, -187500.02, -177907.75, 12290.31, -94150.75, -187500.02, 0.000, 0.000, 0.000, 12:59:24.367
113, -23897.50, -101507.29, -187500.02, -187500.02, -177976.45, 12301.28, -94136.65, -187500.02, 0.000, 0.000, 0.000, 12:59:24.368
114, -23805.52, -101525.89, -187500.02, -187500.02, -178039.11, 12317.11, -94111.41, -187500.02, 0.000, 0.000, 0.000, 12:59:24.368
115, -23787.87, -101611.01, -187500.02, -187500.02, -178173.39, 12264.09, -94155.89, -187500.02, 0.000, 0.000, 0.000, 12:59:24.368
116, -23901.97, -101674.75, -187500.02, -187500.02, -178297.11, 12226.25, -94196.73, -187500.02, 0.000, 0.000, 0.000, 12:59:24.368
117, -23915.56, -101673.92, -187500.02, -187500.02, -178351.42, 12253.85, -94170.49, -187500.02, -0.334, -0.052, -0.952, 12:59:24.368
118, -23839.19, -101643.02, -187500.02, -187500.02, -178362.72, 12317.58, -94096.23, -187500.02, 0.000, 0.000, 0.000, 12:59:24.368
119, -23791.89, -101688.23, -187500.02, -187500.02, -178451.58, 12306.04, -94098.56, -187500.02, 0.000, 0.000, 0.000, 12:59:24.368
120, -23899.07, -101709.73, -187500.02, -187500.02, -178529.84, 12309.37, -94094.85, -187500.02, 0.000, 0.000, 0.000, 12:59:24.369
121, -23926.42, -101696.99, -187500.02, -187500.02, -178574.20, 12346.41, -94055.69, -187500.02, 0.000, 0.000, 0.000, 12:59:24.369
122, -23815.69, -101722.09, -187500.02, -187500.02, -178648.59, 12351.15, -94043.09, -187500.02, 0.000, 0.000, 0.000, 12:59:24.369
123, -23752.82, -101782.40, -187500.02, -187500.02, -178756.95, 12321.58, -94061.75, -187500.02, 0.000, 0.000, 0.000, 12:59:24.370
124, -23863.37, -101824.09, -187500.02, -187500.02, -178856.22, 12303.72, -94078.20, -187500.02, 0.000, 0.000, 0.000, 12:59:24.370
125, -23921.84, -101832.89, -187500.02, -187500.02, -178922.84, 12317.22, -94065.57, -187500.02, 0.000, 0.000, 0.000, 12:59:24.370
126, -23873.96, -101846.86, -187500.02, -187500.02, -178986.59, 12331.68, -94047.91, -187500.02, 0.000, 0.000, 0.000, 12:59:24.370
127, -23785.54, -101911.73, -187500.02, -187500.02, -179095.83, 12299.70, -94070.58, -187500.02, -0.334, -0.056, -0.958, 12:59:24.371
128, -23852.80, -101961.68, -187500.02, -187500.02, -179199.88, 12277.34, -94090.24, -187500.02, 0.000, 0.000, 0.000, 12:59:24.371
129, -23919.49, -101965.77, -187500.02, -187500.02, -179264.14, 12298.02, -94073.95, -187500.02, 0.000, 0.000, 0.000, 12:59:24.371
130, -23882.48, -101987.27, -187500.02, -187500.02, -179338.64, 12305.93, -94065.91, -187500.02, 0.000, 0.000, 0.000, 12:59:24.371
131, -23769.78, -102028.53, -187500.02, -187500.02, -179424.80, 12299.20, -94067.34, -187500.02, 0.000, 0.000, 0.000, 12:59:24.371
132, -23835.03, -102106.61, -187500.02, -187500.02, -179556.81, 12251.82, -94114.34, -187500.02, 0.000, 0.000, 0.000, 12:59:24.372
133, -23924.84, -102110.30, -187500.02, -187500.02, -179621.36, 12271.89, -94098.59, -187500.02, 0.000, 0.000, 0.000, 12:59:24.372
134, -23876.96, -102109.60, -187500.02, -187500.02, -179674.73, 12299.09, -94069.70, -187500.02, 0.000, 0.000, 0.000, 12:59:24.372
135, -23777.63, -102132.70, -187500.02, -187500.02, -179741.69, 12310.74, -94050.04, -187500.02, 0.000, 0.000, 0.000, 12:59:24.372
136, -23790.66, -102208.63, -187500.02, -187500.02, -179865.33, 12267.06, -94088.86, -187500.02, 0.000, 0.000, 0.000, 12:59:24.372
137, -23922.78, -102216.67, -187500.02, -187500.02, -179932.28, 12281.59, -94077.22, -187500.02, -0.338, -0.058, -0.962, 12:59:24.373
138, -23905.23, -102232.05, -187500.02, -187500.02, -180003.91, 12289.57, -94068.34, -187500.02, 0.000, 0.000, 0.000, 12:59:24.373
139, -23803.40, -102281.53, -187500.02, -187500.02, -180100.88, 12271.06, -94079.52, -187500.02, 0.000, 0.000, 0.000, 12:59:24.373
140, -23778.77, -102353.26, -187500.02, -187500.02, -180223.45, 12229.82, -94116.02, -187500.02, 0.000, 0.000, 0.000, 12:59:24.373
141, -23898.37, -102383.37, -187500.02, -187500.02, -180314.63, 12223.70, -94126.03, -187500.02, 0.000, 0.000, 0.000, 12:59:24.373
142, -23919.09, -102351.80, -187500.02, -187500.02, -180339.88, 12279.58, -94070.35, -187500.02, 0.000, 0.000, 0.000, 12:59:24.374
143, -23823.96, -102345.69, -187500.02, -187500.02, -180382.89, 12314.63, -94027.57, -187500.02, 0.000, 0.000, 0.000, 12:59:24.374
144, -23772.29, -102411.71, -187500.02, -187500.02, -180495.98, 12280.14, -94054.48, -187500.02, 0.000, 0.000, 0.000, 12:59:24.374
145, -23882.73, -102440.63, -187500.02, -187500.02, -180582.13, 12277.28, -94060.07, -187500.02, 0.000, 0.000, 0.000, 12:59:24.374
146, -23918.06, -102452.59, -187500.02, -187500.02, -180653.09, 12289.84, -94049.12, -187500.02, 0.000, 0.000, 0.000, 12:59:24.374
147, -23847.99, -102447.18, -187500.02, -187500.02, -180696.45, 12324.77, -94006.94, -187500.02, -0.338, -0.056, -0.958, 12:59:24.375
148, -23772.80, -102462.12, -187500.02, -187500.02, -180755.02, 12341.65, -93979.54, -187500.02, 0.000, 0.000, 0.000, 12:59:24.375
149, -23856.55, -102517.05, -187500.02, -187500.02, -180863.22, 12310.71, -94007.08, -187500.02, 0.000, 0.000, 0.000, 12:59:24.375
150, -23919.76, -102525.34, -187500.02, -187500.02, -180929.31, 12326.20, -93994.45, -187500.02, 0.000, 0.000, 0.000, 12:59:24.375
151, -23849.24, -102528.05, -187500.02, -187500.02, -180983.98, 12351.93, -93962.80, -187500.02, 0.000, 0.000, 0.000, 12:59:24.375
152, -23757.02, -102557.45, -187500.02, -187500.02, -181062.28, 12353.16, -93950.28, -187500.02, 0.000, 0.000, 0.000, 12:59:24.376
153, -23835.50, -102649.94, -187500.02, -187500.02, -181209.77, 12285.32, -94015.84, -187500.02, 0.000, 0.000, 0.000, 12:59:24.376
154, -23933.02, -102644.88, -187500.02, -187500.02, -181263.50, 12310.07, -93994.05, -187500.02, 0.000, 0.000, 0.000, 12:59:24.376
155, -23888.98, -102651.68, -187500.02, -187500.02, -181321.34, 12329.78, -93970.87, -187500.02, 0.000, 0.000, 0.000, 12:59:24.376
156, -23764.22, -102696.02, -187500.02, -187500.02, -181410.11, 12316.03, -93974.55, -187500.02, 0.000, 0.000, 0.000, 12:59:24.377
157, -23800.00, -102754.72, -187500.02, -187500.02, -181521.11, 12284.70, -94003.43, -187500.02, -0.336, -0.052, -0.950, 12:59:24.377
158, -23936.73, -102770.86, -187500.02, -187500.02, -181598.44, 12289.64, -94002.65, -187500.02, 0.000, 0.000, 0.000, 12:59:24.377
159, -23905.41, -102796.12, -187500.02, -187500.02, -181679.53, 12289.28, -94001.58, -187500.02, 0.000, 0.000, 0.000, 12:59:24.377
160, -23802.51, -102797.28, -187500.02, -187500.02, -181725.44, 12320.24, -93962.46, -187500.02, 0.000, 0.000, 0.000, 12:59:24.377
161, -23785.21, -102861.31, -187500.02, -187500.02, -181838.30, 12285.95, -93993.59, -187500.02, 0.000, 0.000, 0.000, 12:59:24.377
162, -23870.28, -102870.59, -187500.02, -187500.02, -181904.17, 12299.92, -93983.85, -187500.02, 0.000, 0.000, 0.000, 12:59:24.377
163, -23885.05, -102848.89, -187500.02, -187500.02, -181934.72, 12346.88, -93935.86, -187500.02, 0.000, 0.000, 0.000, 12:59:24.378
164, -23812.30, -102841.06, -187500.02, -187500.02, -181972.41, 12384.86, -93887.25, -187500.02, 0.000, 0.000, 0.000, 12:59:24.378
165, -23780.38, -102917.09, -187500.02, -187500.02, -182097.02, 12336.84, -93927.21, -187500.02, 0.000, 0.000, 0.000, 12:59:24.378
166, -23897.34, -102936.58, -187500.02, -187500.02, -182174.91, 12339.19, -93925.73, -187500.02, 0.000, 0.000, 0.000, 12:59:24.378
167, -23919.25, -102964.67, -187500.02, -187500.02, -182261.06, 12332.53, -93931.15, -187500.02, -0.330, -0.058, -0.948, 12:59:24.378
168, -23830.78, -103003.83, -187500.02, -187500.02, -182348.98, 12323.77, -93934.86, -187500.02, 0.000, 0.000, 0.000, 12:59:24.378
169, -23764.02, -103054.70, -187500.02, -187500.02, -182445.84, 12303.76, -93944.96, -187500.02, 0.000, 0.000, 0.000, 12:59:24.379
170, -23870.21, -103097.95, -187500.02, -187500.02, -182543.50, 12283.83, -93964.85, -187500.02, 0.000, 0.000, 0.000, 12:59:24.379
171, -23919.94, -103085.51, -187500.02, -187500.02, -182588.48, 12317.96, -93933.63, -187500.02, 0.000, 0.000, 0.000, 12:59:24.379
172, -23838.56, -103084.92, -187500.02, -187500.02, -182639.39, 12345.02, -93902.27, -187500.02, 0.000, 0.000, 0.000, 12:59:24.379
173, -23774.59, -103112.82, -187500.02, -187500.02, -182711.58, 12347.66, -93889.95, -187500.02, 0.000, 0.000, 0.000, 12:59:24.379
174, -23841.29, -103155.60, -187500.02, -187500.02, -182807.33, 12328.01, -93907.25, -187500.02, 0.000, 0.000, 0.000, 12:59:24.379
175, -23910.93, -103154.05, -187500.02, -187500.02, -182863.80, 12349.25, -93887.20, -187500.02, 0.000, 0.000, 0.000, 12:59:24.379
176, -23851.63, -103202.63, -187500.02, -187500.02, -182964.17, 12326.90, -93905.24, -187500.02, 0.000, 0.000, 0.000, 12:59:24.380
177, -23765.80, -103189.59, -187500.02, -187500.02, -182993.30, 12371.20, -93847.95, -187500.02, -0.334, -0.062, -0.956, 12:59:24.380
178, -23815.56, -103244.54, -187500.02, -187500.02, -183102.36, 12341.47, -93874.89, -187500.02, 0.000, 0.000, 0.000, 12:59:24.380
179, -23911.78, -103276.63, -187500.02, -187500.02, -183196.20, 12330.63, -93892.01, -187500.02, 0.000, 0.000, 0.000, 12:59:24.380
180, -23875.44, -103266.20, -187500.02, -187500.02, -183237.77, 12366.59, -93854.68, -187500.02, 0.000, 0.000, 0.000, 12:59:24.380
181, -23774.48, -103245.70, -187500.02, -187500.02, -183261.09, 12415.86, -93791.88, -187500.02, 0.000, 0.000, 0.000, 12:59:24.380
182, -23809.57, -103294.20, -187500.02, -187500.02, -183361.84, 12388.30, -93808.19, -187500.02, 0.000, 0.000, 0.000, 12:59:24.381
183, -23928.46, -103349.50, -187500.02, -187500.02, -183478.44, 12349.79, -93848.18, -187500.02, 0.000, 0.000, 0.000, 12:59:24.381
184, -23905.44, -103370.58, -187500.02, -187500.02, -183554.84, 12352.11, -93845.96, -187500.02, 0.000, 0.000, 0.000, 12:59:24.381
185, -23790.77, -103369.10, -187500.02, -187500.02, -183598.70, 12383.38, -93806.11, -187500.02, 0.000, 0.000, 0.000, 12:59:24.381
186, -23807.15, -103429.81, -187500.02, -187500.02, -183705.50, 12349.65, -93831.08, -187500.02, 0.000, 0.000, 0.000, 12:59:24.381
187, -23876.45, -103477.89, -187500.02, -187500.02, -183810.88, 12321.87, -93859.98, -187500.02, -0.336, -0.058, -0.950, 12:59:24.381
188, -23887.91, -103463.16, -187500.02, -187500.02, -183851.89, 12359.93, -93821.20, -187500.02, 0.000, 0.000, 0.000, 12:59:24.382
189, -23797.61, -103462.11, -187500.02, -187500.02, -183897.31, 12389.68, -93781.57, -187500.02, 0.000, 0.000, 0.000, 12:59:24.382
190, -23773.49, -103520.76, -187500.02, -187500.02, -184001.59, 12361.32, -93801.26, -187500.02, 0.000, 0.000, 0.000, 12:59:24.382
191, -23881.70, -103565.46, -187500.02, -187500.02, -184101.75, 12340.53, -93825.16, -187500.02, 0.000, 0.000, 0.000, 12:59:24.382
192, -23905.55, -103531.13, -187500.02, -187500.02, -184119.73, 12396.75, -93766.59, -187500.02, 0.000, 0.000, 0.000, 12:59:24.382
193, -23818.17, -103509.74, -187500.02, -187500.02, -184144.30, 12443.71, -93708.08, -187500.02, 0.000, 0.000, 0.000, 12:59:24.382
194, -23747.70, -103573.45, -187500.02, -187500.02, -184253.17, 12408.10, -93732.15, -187500.02, 0.000, 0.000, 0.000, 12:59:24.383
195, -23851.81, -103609.81, -187500.02, -187500.02, -184342.78, 12394.56, -93743.41, -187500.02, 0.000, 0.000, 0.000, 12:59:24.383
196, -23905.10, -103606.68, -187500.02, -187500.02, -184395.11, 12419.05, -93718.60, -187500.02, -0.342, -0.056, -0.952, 12:59:24.383
197, -23832.26, -103654.94, -187500.02, -187500.02, -184492.70, 12398.13, -93735.66, -187500.02, 0.000, 0.000, 0.000, 12:59:24.383
198, -23742.34, -103718.75, -187500.02, -187500.02, -184602.25, 12366.28, -93762.37, -187500.02, 0.000, 0.000, 0.000, 12:59:24.383
199, -23830.47, -103781.63, -187500.02, -187500.02, -184720.89, 12327.66, -93802.13, -187500.02, 0.000, 0.000, 0.000, 12:59:24.383
200, -23919.38, -103799.80, -187500.02, -187500.02, -184797.33, 12331.14, -93804.84, -187500.02, 0.000, 0.000, 0.000, 12:59:24.384
201, -23857.47, -103769.31, -187500.02, -187500.02, -184817.41, 12388.48, -93744.27, -187500.02, 0.000, 0.000, 0.000, 12:59:24.384
202, -23754.36, -103777.94, -187500.02, -187500.02, -184870.02, 12408.97, -93712.19, -187500.02, 0.000, 0.000, 0.000, 12:59:24.384
203, -23826.31, -103863.99, -187500.02, -187500.02, -185007.08, 12347.28, -93770.30, -187500.02, 0.000, 0.000, 0.000, 12:59:24.384
204, -23938.31, -103876.51, -187500.02, -187500.02, -185077.28, 12353.52, -93766.05, -187500.02, 0.000, 0.000, 0.000, 12:59:24.384
205, -23888.25, -103890.62, -187500.02, -187500.02, -185144.55, 12362.48, -93753.67, -187500.02, 0.000, 0.000, 0.000, 12:59:24.384
206, -23782.30, -103912.32, -187500.02, -187500.02, -185211.84, 12367.42, -93737.34, -187500.02, -0.344, -0.052, -0.954, 12:59:24.384
207, -23797.05, -103938.16, -187500.02, -187500.02, -185287.48, 12366.73, -93732.59, -187500.02, 0.000, 0.000, 0.000, 12:59:24.385
208, -23907.11, -103957.71, -187500.02, -187500.02, -185364.86, 12365.57, -93736.38, -187500.02, 0.000, 0.000, 0.000, 12:59:24.385
209, -23890.64, -103984.91, -187500.02, -187500.02, -185445.47, 12360.31, -93740.40, -187500.02, 0.000, 0.000, 0.000, 12:59:24.385
210, -23801.95, -104000.00, -187500.02, -187500.02, -185505.33, 12373.88, -93717.84, -187500.02, 0.000, 0.000, 0.000, 12:59:24.385
211, -23817.48, -104042.72, -187500.02, -187500.02, -185595.22, 12358.19, -93724.03, -187500.02, 0.000, 0.000, 0.000, 12:59:24.385
212, -23897.01, -104073.54, -187500.02, -187500.02, -185684.30, 12346.41, -93736.40, -187500.02, 0.000, 0.000, 0.000, 12:59:24.385
213, -23896.72, -104072.45, -187500.02, -187500.02, -185735.97, 12370.59, -93711.98, -187500.02, 0.000, 0.000, 0.000, 12:59:24.385
214, -23805.81, -104042.61, -187500.02, -187500.02, -185748.75, 12428.24, -93644.73, -187500.02, 0.000, 0.000, 0.000, 12:59:24.385
215, -23751.28, -104082.02, -187500.02, -187500.02, -185832.53, 12415.05, -93644.87, -187500.02, 0.000, 0.000, 0.000, 12:59:24.386
216, -23870.41, -104111.41, -187500.02, -187500.02, -185921.17, 12402.65, -93655.13, -187500.02, -0.340, -0.054, -0.952, 12:59:24.386
217, -23879.31, -104134.96, -187500.02, -187500.02, -186003.98, 12396.68, -93661.56, -187500.02, 0.000, 0.000, 0.000, 12:59:24.386
218, -23806.98, -104114.89, -187500.02, -187500.02, -186032.20, 12441.25, -93607.72, -187500.02, 0.000, 0.000, 0.000, 12:59:24.386
219, -23760.26, -104150.95, -187500.02, -187500.02, -186112.11, 12431.88, -93602.93, -187500.02, 0.000, 0.000, 0.000, 12:59:24.386
220, -23855.37, -104200.66, -187500.02, -187500.02, -186214.25, 12403.30, -93627.16, -187500.02, 0.000, 0.000, 0.000, 12:59:24.386
221, -23908.97, -104191.47, -187500.02, -187500.02, -186260.55, 12430.83, -93598.62, -187500.02, 0.000, 0.000, 0.000, 12:59:24.386
222, -23852.13, -104210.63, -187500.02, -187500.02, -186328.30, 12437.25, -93587.73, -187500.02, 0.000, 0.000, 0.000, 12:59:24.387
223, -23755.39, -104227.52, -187500.02, -187500.02, -186386.31, 12450.44, -93564.33, -187500.02, 0.000, 0.000, 0.000, 12:59:24.387
224, -23828.34, -104294.20, -187500.02, -187500.02, -186504.14, 12408.30, -93604.84, -187500.02, 0.000, 0.000, 0.000, 12:59:24.847
225, -23931.81, -104298.09, -187500.02, -187500.02, -186565.22, 12425.63, -93592.54, -187500.02, 0.000, 0.000, 0.000, 12:59:24.848
226, -23878.39, -104290.60, -187500.02, -187500.02, -186606.66, 12457.77, -93556.62, -187500.02, -0.342, -0.052, -0.954, 12:59:24.848
227, -23769.54, -104295.94, -187500.02, -187500.02, -186651.55, 12482.71, -93519.74, -187500.02, 0.000, 0.000, 0.000, 12:59:24.848
228, -23804.58, -104353.50, -187500.02, -187500.02, -186759.30, 12447.82, -93548.09, -187500.02, 0.000, 0.000, 0.000, 12:59:24.848
229, -23923.61, -104375.02, -187500.02, -187500.02, -186838.97, 12442.52, -93554.95, -187500.02, 0.000, 0.000, 0.000, 12:59:24.848
230, -23877.70, -104380.27, -187500.02, -187500.02, -186896.30, 12458.66, -93536.73, -187500.02, 0.000, 0.000, 0.000, 12:59:24.849
231, -23781.96, -104379.67, -187500.02, -187500.02, -186937.91, 12488.28, -93498.93, -187500.02, 0.000, 0.000, 0.000, 12:59:24.849
232, -23798.04, -104419.23, -187500.02, -187500.02, -187025.53, 12473.14, -93506.69, -187500.02, 0.000, 0.000, 0.000, 12:59:24.849
233, -23914.33, -104425.67, -187500.02, -187500.02, -187090.63, 12483.58, -93497.19, -187500.02, 0.000, 0.000, 0.000, 12:59:24.849
234, -23902.20, -104448.65, -187500.02, -187500.02, -187168.05, 12480.66, -93498.17, -187500.02, 0.000, 0.000, 0.000, 12:59:24.849
235, -23797.54, -104473.64, -187500.02, -187500.02, -187237.11, 12482.71, -93487.45, -187500.02, 0.000, 0.000, 0.000, 12:59:24.849
236, -23770.43, -104520.55, -187500.02, -187500.02, -187329.45, 12460.56, -93500.85, -187500.02, -0.340, -0.054, -0.954, 12:59:24.849
237, -23889.46, -104507.19, -187500.02, -187500.02, -187372.92, 12488.92, -93469.54, -187500.02, 0.000, 0.000, 0.000, 12:59:24.849
238, -23892.94, -104519.52, -187500.02, -187500.02, -187439.78, 12495.32, -93459.99, -187500.02, 0.000, 0.000, 0.000, 12:59:24.849
239, -23833.17, -104542.93, -187500.02, -187500.02, -187500.02, 12496.75, -93448.88, -187500.02, 0.000, 0.000, 0.000, 12:59:24.849
240, -23767.68, -104583.36, -187500.02, -187500.02, -187500.02, 12481.95, -93453.60, -187500.02, 0.000, 0.000, 0.000, 12:59:24.850
241, -23850.58, -104602.85, -187500.02, -187500.02, -187500.02, 12479.16, -93455.55, -187500.02, 0.000, 0.000, 0.000, 12:59:24.850
242, -23901.44, -104632.02, -187500.02, -187500.02, -187500.02, 12465.75, -93470.55, -187500.02, 0.000, 0.000, 0.000, 12:59:24.850
243, -23831.70, -104624.18, -187500.02, -187500.02, -187500.02, 12499.14, -93431.25, -187500.02, 0.000, 0.000, 0.000, 12:59:24.850
244, -23755.90, -104636.27, -187500.02, -187500.02, -187500.02, 12515.30, -93403.51, -187500.02, 0.000, 0.000, 0.000, 12:59:24.850
245, -23875.60, -104693.24, -187500.02, -187500.02, -187500.02, 12479.05, -93436.01, -187500.02, 0.000, 0.000, 0.000, 12:59:24.850
246, -23928.26, -104666.63, -187500.02, -187500.02, -187500.02, 12522.18, -93391.71, -187500.02, -0.336, -0.050, -0.956, 12:59:24.850
247, -23872.24, -104652.09, -187500.02, -187500.02, -187500.02, 12557.52, -93349.29, -187500.02, 0.000, 0.000, 0.000, 12:59:24.850
248, -23754.49, -104703.59, -187500.02, -187500.02, -187500.02, 12531.71, -93363.95, -187500.02, 0.000, 0.000, 0.000, 12:59:24.850
249, -23830.13, -104780.19, -187500.02, -187500.02, -187500.02, 12476.03, -93416.56, -187500.02, 0.000, 0.000, 0.000, 12:59:24.850
250, -23931.50, -104794.97, -187500.02, -187500.02, -187500.02, 12479.83, -93415.96, -187500.02, 0.000, 0.000, 0.000, 12:59:24.850
251, -23878.86, -104794.05, -187500.02, -187500.02, -187500.02, 12503.10, -93389.32, -187500.02, 0.000, 0.000, 0.000, 12:59:24.850
252, -23754.00, -104808.55, -187500.02, -187500.02, -187500.02, 12516.31, -93365.29, -187500.02, 0.000, 0.000, 0.000, 12:59:24.851
253, -23797.61, -104872.02, -187500.02, -187500.02, -187500.02, 12477.62, -93400.65, -187500.02, 0.000, 0.000, 0.000, 12:59:24.851
254, -23928.12, -104860.61, -187500.02, -187500.02, -187500.02, 12506.90, -93372.94, -187500.02, 0.000, 0.000, 0.000, 12:59:24.851
255, -23904.32, -104870.34, -187500.02, -187500.02, -187500.02, 12518.45, -93358.63, -187500.02, 0.000, 0.000, 0.000, 12:59:24.851
0, -23792.54, -104859.07, -187500.02, -187500.02, -187500.02, 12556.23, -93309.32, -187500.02, -0.334, -0.052, -0.956, 12:59:24.851
1, -23779.26, -104896.09, -187500.02, -187500.02, -187500.02, 12541.03, -93314.22, -187500.02, 0.000, 0.000, 0.000, 12:59:24.851
2, -23900.03, -104901.72, -187500.02, -187500.02, -187500.02, 12548.31, -93303.46, -187500.02, 0.000, 0.000, 0.000, 12:59:24.851
3, -23899.20, -104911.33, -187500.02, -187500.02, -187500.02, 12554.50, -93293.14, -187500.02, 0.000, 0.000, 0.000, 12:59:24.851
4, -23787.49, -104907.66, -187500.02, -187500.02, -187500.02, 12581.26, -93254.96, -187500.02, 0.000, 0.000, 0.000, 12:59:24.851
5, -23763.23, -104956.95, -187500.02, -187500.02, -187500.02, 12556.05, -93269.38, -187500.02, 0.000, 0.000, 0.000, 12:59:24.851
6, -23893.66, -105022.26, -187500.02, -187500.02, -187500.02, 12506.47, -93318.13, -187500.02, 0.000, 0.000, 0.000, 12:59:24.851
7, -23908.21, -105016.94, -187500.02, -187500.02, -187500.02, 12528.15, -93293.32, -187500.02, 0.000, 0.000, 0.000, 12:59:24.851
8, -23821.51, -105017.45, -187500.02, -187500.02, -187500.02, 12551.31, -93261.91, -187500.02, 0.000, 0.000, 0.000, 12:59:24.851
9, -23761.98, -105070.90, -187500.02, -187500.02, -187500.02, 12525.25, -93278.74, -187500.02, 0.000, 0.000, 0.000, 12:59:24.852
10, -23864.71, -105099.17, -187500.02, -187500.02, -187500.02, 12516.04, -93288.49, -187500.02, -0.328, -0.050, -0.950, 12:59:24.852
11, -23910.87, -105073.34, -187500.02, -187500.02, -187500.02, 12557.01, -93245.38, -187500.02, 0.000, 0.000, 0.000, 12:59:24.852
12, -23848.08, -105097.67, -187500.02, -187500.02, -187500.02, 12553.77, -93239.45, -187500.02, 0.000, 0.000, 0.000, 12:59:24.852
13, -23782.79, -105096.29, -187500.02, -187500.02, -187500.02, 12579.29, -93200.27, -187500.02, 0.000, 0.000, 0.000, 12:59:24.852
14, -23863.77, -105173.72, -187500.02, -187500.02, -187500.02, 12522.14, -93255.03, -187500.02, 0.000, 0.000, 0.000, 12:59:24.852
15, -23916.19, -105167.32, -187500.02, -187500.02, -187500.02, 12545.77, -93230.45, -187500.02, 0.000, 0.000, 0.000, 12:59:24.852
16, -23836.32, -105149.71, -187500.02, -187500.02, -187500.02, 12583.99, -93182.34, -187500.02, 0.000, 0.000, 0.000, 12:59:24.852
17, -23750.25, -105160.80, -187500.02, -187500.02, -187500.02, 12595.79, -93154.96, -187500.02, 0.000, 0.000, 0.000, 12:59:24.852
18, -23820.66, -105241.20, -187500.02, -187500.02, -187500.02, 12533.58, -93210.26, -187500.02, 0.000, 0.000, 0.000, 12:59:24.852
19, -23907.94, -105226.73, -187500.02, -187500.02, -187500.02, 12561.03, -93179.95, -187500.02, 0.000, 0.000, 0.000, 12:59:24.852
20, -23859.01, -105233.33, -187500.02, -187500.02, -187500.02, 12571.72, -93163.56, -187500.02, -0.336, -0.054, -0.954, 12:59:24.852
21, -23761.67, -105264.17, -187500.02, -187500.02, -187500.02, 12564.72, -93157.40, -187500.02, 0.000, 0.000, 0.000, 12:59:24.852
22, -23817.21, -105322.98, -187500.02, -187500.02, -187500.02, 12528.13, -93185.58, -187500.02, 0.000, 0.000, 0.000, 12:59:24.853
23, -23912.25, -105323.45, -187500.02, -187500.02, -187500.02, 12544.45, -93170.34, -187500.02, 0.000, 0.000, 0.000, 12:59:24.853
24, -23889.41, -105294.55, -187500.02, -187500.02, -187500.02, 12592.37, -93118.91, -187500.02, 0.000, 0.000, 0.000, 12:59:24.853
25, -23799.47, -105310.40, -187500.02, -187500.02, -187500.02, 12600.71, -93100.66, -187500.02, 0.000, 0.000, 0.000, 12:59:24.853
26, -23788.07, -105369.12, -187500.02, -187500.02, -187500.02, 12566.17, -93126.10, -187500.02, 0.000, 0.000, 0.000, 12:59:24.853
27, -23899.07, -105385.25, -187500.02, -187500.02, -187500.02, 12567.40, -93125.21, -187500.02, 0.000, 0.000, 0.000, 12:59:24.853
28, -23907.45, -105406.87, -187500.02, -187500.02, -187500.02, 12562.89, -93129.66, -187500.02, 0.000, 0.000, 0.000, 12:59:24.853
29, -23802.75, -105434.74, -187500.02, -187500.02, -187500.02, 12559.51, -93126.55, -187500.02, 0.000, 0.000, 0.000, 12:59:24.853
30, -23768.15, -105469.32, -187500.02, -187500.02, -187500.02, 12549.54, -93128.49, -187500.02, -0.334, -0.050, -0.956, 12:59:24.853
31, -23872.15, -105483.40, -187500.02, -187500.02, -187500.02, 12552.83, -93125.43, -187500.02, 0.000, 0.000, 0.000, 12:59:24.853
32, -23904.63, -105465.00, -187500.02, -187500.02, -187500.02, 12586.62, -93089.83, -187500.02, 0.000, 0.000, 0.000, 12:59:24.853
33, -23822.00, -105478.13, -187500.02, -187500.02, -187500.02, 12596.53, -93071.63, -187500.02, 0.000, 0.000, 0.000, 12:59:24.853
34, -23766.79, -105519.95, -187500.02, -187500.02, -187500.02, 12581.98, -93076.95, -187500.02, 0.000, 0.000, 0.000, 12:59:24.853
35, -23868.22, -105558.99, -187500.02, -187500.02, -187500.02, 12561.30, -93096.38, -187500.02, 0.000, 0.000, 0.000, 12:59:24.854
36, -23909.15, -105542.45, -187500.02, -187500.02, -187500.02, 12591.88, -93065.55, -187500.02, 0.000, 0.000, 0.000, 12:59:24.854
37, -23834.18, -105536.62, -187500.02, -187500.02, -187500.02, 12617.09, -93032.25, -187500.02, 0.000, 0.000, 0.000, 12:59:24.854
38, -23744.03, -105550.77, -187500.02, -187500.02, -187500.02, 12625.56, -93011.28, -187500.02, 0.000, 0.000, 0.000, 12:59:24.854
39, -23840.12, -105627.97, -187500.02, -187500.02, -187500.02, 12565.19, -93069.22, -187500.02, 0.000, 0.000, 0.000, 12:59:24.854
40, -23912.46, -105609.73, -187500.02, -187500.02, -187500.02, 12598.18, -93037.03, -187500.02, -0.338, -0.054, -0.960, 12:59:24.854
41, -23858.18, -105589.84, -187500.02, -187500.02, -187500.02, 12637.27, -92990.83, -187500.02, 0.000, 0.000, 0.000, 12:59:24.854
42, -23744.06, -105641.29, -187500.02, -187500.02, -187500.02, 12610.65, -93006.84, -187500.02, 0.000, 0.000, 0.000, 12:59:24.854
43, -23811.83, -105692.66, -187500.02, -187500.02, -187500.02, 12580.01, -93033.99, -187500.02, 0.000, 0.000, 0.000, 12:59:24.854
44, -23906.67, -105690.51, -187500.02, -187500.02, -187500.02, 12593.84, -93020.45, -187500.02, 0.000, 0.000, 0.000, 12:59:24.854
45, -23862.43, -105668.88, -187500.02, -187500.02, -187500.02, 12632.85, -92975.79, -187500.02, 0.000, 0.000, 0.000, 12:59:24.854
46, -23755.68, -105692.30, -187500.02, -187500.02, -187500.02, 12634.17, -92962.04, -187500.02, 0.000, 0.000, 0.000, 12:59:24.854
47, -23792.74, -105725.23, -187500.02, -187500.02, -187500.02, 12620.49, -92965.82, -187500.02, 0.000, 0.000, 0.000, 12:59:24.854
48, -23913.71, -105736.76, -187500.02, -187500.02, -187500.02, 12621.16, -92963.74, -187500.02, 0.000, 0.000, 0.000, 12:59:24.855
49, -23896.99, -105801.55, -187500.02, -187500.02, -187500.02, 12573.06, -93010.50, -187500.02, -0.330, -0.056, -0.958, 12:59:24.855
50, -23795.02, -105786.04, -187500.02, -187500.02, -187500.02, 12613.40, -92962.18, -187500.02, 0.000, 0.000, 0.000, 12:59:24.855
51, -23774.59, -105824.29, -187500.02, -187500.02, -187500.02, 12598.14, -92968.95, -187500.02, 0.000, 0.000, 0.000, 12:59:24.855
52, -23895.11, -105848.52, -187500.02, -187500.02, -187500.02, 12588.97, -92978.38, -187500.02, 0.000, 0.000, 0.000, 12:59:24.855
53, -23892.38, -105836.22, -187500.02, -187500.02, -187500.02, 12616.78, -92948.66, -187500.02, 0.000, 0.000, 0.000, 12:59:24.855
54, -23813.28, -105820.91, -187500.02, -187500.02, -187500.02, 12654.51, -92900.06, -187500.02, 0.000, 0.000, 0.000, 12:59:24.855
55, -23754.56, -105889.06, -187500.02, -187500.02, -187500.02, 12610.16, -92934.88, -187500.02, 0.000, 0.000, 0.000, 12:59:24.855
56, -23868.76, -105919.64, -187500.02, -187500.02, -187500.02, 12596.64, -92949.73, -187500.02, 0.000, 0.000, 0.000, 12:59:24.855
57, -23916.84, -105917.02, -187500.02, -187500.02, -187500.02, 12613.83, -92931.78, -187500.02, 0.000, 0.000, 0.000, 12:59:24.855
58, -23856.84, -105900.21, -187500.02, -187500.02, -187500.02, 12649.59, -92884.17, -187500.02, 0.000, 0.000, 0.000, 12:59:24.855
59, -23755.63, -105949.45, -187500.02, -187500.02, -187500.02, 12620.96, -92900.64, -187500.02, -0.330, -0.060, -0.956, 12:59:24.855
60, -23851.81, -105997.35, -187500.02, -187500.02, -187500.02, 12590.11, -92930.70, -187500.02, 0.000, 0.000, 0.000, 12:59:24.856
61, -23887.96, -105990.05, -187500.02, -187500.02, -187500.02, 12610.61, -92908.42, -187500.02, 0.000, 0.000, 0.000, 12:59:24.856
62, -23832.01, -105994.63, -187500.02, -187500.02, -187500.02, 12625.70, -92886.56, -187500.02, 0.000, 0.000, 0.000, 12:59:24.856
63, -23741.96, -106037.59, -187500.02, -187500.02, -187500.02, 12606.25, -92895.12, -187500.02, 0.000, 0.000, 0.000, 12:59:24.856
64, -23824.59, -106114.50, -187500.02, -187500.02, -187500.02, 12547.49, -92951.88, -187500.02, 0.000, 0.000, 0.000, 12:59:24.856
65, -23924.05, -106127.24, -187500.02, -187500.02, -187500.02, 12549.90, -92950.95, -187500.02, 0.000, 0.000, 0.000, 12:59:24.856
66, -23858.77, -106145.01, -187500.02, -187500.02, -187500.02, 12551.46, -92944.72, -187500.02, 0.000, 0.000, 0.000, 12:59:24.856
67, -23765.98, -106138.82, -187500.02, -187500.02, -187500.02, 12583.29, -92901.94, -187500.02, 0.000, 0.000, 0.000, 12:59:24.856
68, -23794.21, -106195.75, -187500.02, -187500.02, -187500.02, 12548.09, -92931.78, -187500.02, 0.000, 0.000, 0.000, 12:59:24.856
69, -23905.26, -106192.35, -187500.02, -187500.02, -187500.02, 12569.15, -92912.42, -187500.02, -0.336, -0.054, -0.954, 12:59:24.856
70, -23878.05, -106194.19, -187500.02, -187500.02, -187500.02, 12586.27, -92892.93, -187500.02, 0.000, 0.000, 0.000, 12:59:24.856
71, -23787.31, -106159.98, -187500.02, -187500.02, -187500.02, 12641.48, -92823.73, -187500.02, 0.000, 0.000, 0.000, 12:59:24.856
72, -23799.22, -106204.76, -187500.02, -187500.02, -187500.02, 12614.21, -92839.13, -187500.02, 0.000, 0.000, 0.000, 12:59:24.856
73, -23915.07, -106251.63, -187500.02, -187500.02, -187500.02, 12578.35, -92874.80, -187500.02, 0.000, 0.000, 0.000, 12:59:24.857
74, -23914.49, -106197.98, -187500.02, -187500.02, -187500.02, 12648.61, -92797.35, -187500.02, 0.000, 0.000, 0.000, 12:59:24.857
75, -23772.78, -106204.66, -187500.02, -187500.02, -187500.02, 12663.94, -92769.73, -187500.02, 0.000, 0.000, 0.000, 12:59:24.857
76, -23747.77, -106285.07, -187500.02, -187500.02, -187500.02, 12604.73, -92820.51, -187500.02, 0.000, 0.000, 0.000, 12:59:24.857
77, -23866.95, -106334.64, -187500.02, -187500.02, -187500.02, 12568.81, -92859.00, -187500.02, 0.000, 0.000, 0.000, 12:59:24.857
78, -23891.87, -106333.19, -187500.02, -187500.02, -187500.02, 12586.40, -92842.41, -187500.02, 0.000, 0.000, 0.000, 12:59:24.857
79, -23817.15, -106334.82, -187500.02, -187500.02, -187500.02, 12604.51, -92815.26, -187500.02, -0.338, -0.056, -0.950, 12:59:24.857
80, -23765.18, -106390.05, -187500.02, -187500.02, -187500.02, 12571.60, -92838.30, -187500.02, 0.000, 0.000, 0.000, 12:59:24.857
81, -23873.05, -106418.38, -187500.02, -187500.02, -187500.02, 12559.29, -92849.86, -187500.02, 0.000, 0.000, 0.000, 12:59:24.857
82, -23895.13, -106412.85, -187500.02, -187500.02, -187500.02, 12582.02, -92827.71, -187500.02, 0.000, 0.000, 0.000, 12:59:24.857
83, -23844.46, -106419.29, -187500.02, -187500.02, -187500.02, 12598.72, -92804.20, -187500.02, 0.000, 0.000, 0.000, 12:59:24.857
84, -23760.60, -106449.11, -187500.02, -187500.02, -187500.02, 12593.96, -92797.76, -187500.02, 0.000, 0.000, 0.000, 12:59:24.857
85, -23822.18, -106481.90, -187500.02, -187500.02, -187500.02, 12577.46, -92811.01, -187500.02, 0.000, 0.000, 0.000, 12:59:24.858
86, -23910.91, -106494.70, -187500.02, -187500.02, -187500.02, 12577.82, -92811.80, -187500.02, 0.000, 0.000, 0.000, 12:59:24.858
87, -23843.34, -106495.09, -187500.02, -187500.02, -187500.02, 12598.81, -92785.84, -187500.02, 0.000, 0.000, 0.000, 12:59:24.858
88, -23746.76, -106516.99, -187500.02, -187500.02, -187500.02, 12601.91, -92770.69, -187500.02, 0.000, 0.000, 0.000, 12:59:24.858
89, -23808.81, -106575.77, -187500.02, -187500.02, -187500.02, 12561.97, -92808.15, -187500.02, -0.338, -0.060, -0.954, 12:59:25.329
90, -23916.95, -106561.24, -187500.02, -187500.02, -187500.02, 12589.49, -92782.18, -187500.02, 0.000, 0.000, 0.000, 12:59:25.329
91, -23872.80, -106557.36, -187500.02, -187500.02, -187500.02, 12612.15, -92754.70, -187500.02, 0.000, 0.000, 0.000, 12:59:25.329
92, -23780.15, -106570.27, -187500.02, -187500.02, -187500.02, 12622.54, -92732.65, -187500.02, 0.000, 0.000, 0.000, 12:59:25.329
93, -23791.44, -106602.75, -187500.02, -187500.02, -187500.02, 12608.64, -92737.72, -187500.02, 0.000, 0.000, 0.000, 12:59:25.329
94, -23910.91, -106613.05, -187500.02, -187500.02, -187500.02, 12611.61, -92733.63, -187500.02, 0.000, 0.000, 0.000, 12:59:25.329
95, -23886.32, -106619.88, -187500.02, -187500.02, -187500.02, 12620.82, -92719.75, -187500.02, 0.000, 0.000, 0.000, 12:59:25.329
96, -23771.79, -106619.72, -187500.02, -187500.02, -187500.02, 12642.73, -92686.53, -187500.02, 0.000, 0.000, 0.000, 12:59:25.329
97, -23777.76, -106691.51, -187500.02, -187500.02, -187500.02, 12591.83, -92733.23, -187500.02, 0.000, 0.000, 0.000, 12:59:25.329
98, -23914.58, -106681.36, -187500.02, -187500.02, -187500.02, 12613.98, -92712.84, -187500.02, 0.000, 0.000, 0.000, 12:59:25.329
99, -23905.41, -106692.59, -187500.02, -187500.02, -187500.02, 12619.86, -92707.61, -187500.02, -0.334, -0.056, -0.956, 12:59:25.329
100, -23775.15, -106678.16, -187500.02, -187500.02, -187500.02, 12656.74, -92662.46, -187500.02, 0.000, 0.000, 0.000, 12:59:25.330
101, -23746.40, -106744.91, -187500.02, -187500.02, -187500.02, 12610.59, -92699.79, -187500.02, 0.000, 0.000, 0.000, 12:59:25.330
102, -23871.55, -106769.74, -187500.02, -187500.02, -187500.02, 12598.05, -92711.14, -187500.02, 0.000, 0.000, 0.000, 12:59:25.330
103, -23892.05, -106768.58, -187500.02, -187500.02, -187500.02, 12613.74, -92693.66, -187500.02, 0.000, 0.000, 0.000, 12:59:25.330
104, -23799.04, -106756.53, -187500.02, -187500.02, -187500.02, 12650.04, -92650.23, -187500.02, 0.000, 0.000, 0.000, 12:59:25.330
105, -23758.50, -106806.98, -187500.02, -187500.02, -187500.02, 12621.34, -92668.92, -187500.02, 0.000, 0.000, 0.000, 12:59:25.330
106, -23880.29, -106866.26, -187500.02, -187500.02, -187500.02, 12576.39, -92714.34, -187500.02, 0.000, 0.000, 0.000, 12:59:25.330
107, -23903.11, -106844.22, -187500.02, -187500.02, -187500.02, 12615.12, -92677.39, -187500.02, 0.000, 0.000, 0.000, 12:59:25.330
108, -23829.02, -106851.70, -187500.02, -187500.02, -187500.02, 12629.47, -92655.06, -187500.02, 0.000, 0.000, 0.000, 12:59:25.330
109, -23762.27, -106856.58, -187500.02, -187500.02, -187500.02, 12647.62, -92624.42, -187500.02, -0.332, -0.054, -0.956, 12:59:25.331
110, -23829.84, -106865.19, -187500.02, -187500.02, -187500.02, 12653.23, -92612.46, -187500.02, 0.000, 0.000, 0.000, 12:59:25.331
111, -23902.02, -106878.26, -187500.02, -187500.02, -187500.02, 12651.82, -92612.73, -187500.02, 0.000, 0.000, 0.000, 12:59:25.331
112, -23825.82, -106886.62, -187500.02, -187500.02, -187500.02, 12661.39, -92596.97, -187500.02, 0.000, 0.000, 0.000, 12:59:25.331
113, -23741.49, -106927.14, -187500.02, -187500.02, -187500.02, 12644.00, -92603.63, -187500.02, 0.000, 0.000, 0.000, 12:59:25.331
114, -23822.31, -106989.66, -187500.02, -187500.02, -187500.02, 12592.88, -92646.39, -187500.02, 0.000, 0.000, 0.000, 12:59:25.331
115, -23902.55, -106959.15, -187500.02, -187500.02, -187500.02, 12626.30, -92604.59, -187500.02, 0.000, 0.000, 0.000, 12:59:25.331
116, -23868.04, -106958.52, -187500.02, -187500.02, -187500.02, 12638.12, -92583.41, -187500.02, 0.000, 0.000, 0.000, 12:59:25.332
117, -23755.03, -106980.41, -187500.02, -187500.02, -187500.02, 12636.74, -92572.95, -187500.02, 0.000, 0.000, 0.000, 12:59:25.332
118, -23776.82, -107030.09, -187500.02, -187500.02, -187500.02, 12601.42, -92596.73, -187500.02, 0.000, 0.000, 0.000, 12:59:25.332
119, -23892.16, -107042.59, -187500.02, -187500.02, -187500.02, 12589.26, -92596.14, -187500.02, -0.340, -0.054, -0.954, 12:59:25.332
120, -23876.83, -107065.91, -187500.02, -187500.02, -187500.02, 12580.99, -92600.84, -187500.02, 0.000, 0.000, 0.000, 12:59:25.332
121, -23784.76, -107058.55, -187500.02, -187500.02, -187500.02, 12610.72, -92561.50, -187500.02, 0.000, 0.000, 0.000, 12:59:25.333
122, -23777.92, -107099.14, -187500.02, -187500.02, -187500.02, 12577.39, -92574.26, -187500.02, 0.000, 0.000, 0.000, 12:59:25.333
123, -23895.67, -107096.63, -187500.02, -187500.02, -187500.02, 12578.64, -92559.33, -187500.02, 0.000, 0.000, 0.000, 12:59:25.333
124, -23896.96, -107037.07, -187500.02, -187500.02, -187500.02, 12649.75, -92480.70, -187500.02, 0.000, 0.000, 0.000, 12:59:25.333
125, -23779.93, -107062.20, -187500.02, -187500.02, -187500.02, 12645.07, -92475.73, -187500.02, 0.000, 0.000, 0.000, 12:59:25.333
126, -23747.63, -107149.70, -187500.02, -187500.02, -187500.02, 12574.91, -92534.99, -187500.02, 0.000, 0.000, 0.000, 12:59:25.334
127, -23890.59, -107137.14, -187500.02, -187500.02, -187500.02, 12590.54, -92507.88, -187500.02, 0.000, 0.000, 0.000, 12:59:25.334
128, -23876.96, -107137.74, -187500.02, -187500.02, -187500.02, 12599.99, -92495.43, -187500.02, 0.000, 0.000, 0.000, 12:59:25.334
129, -23799.55, -107141.38, -187500.02, -187500.02, -187500.02, 12617.51, -92473.90, -187500.02, -0.338, -0.052, -0.958, 12:59:25.334
130, -23752.28, -107182.67, -187500.02, -187500.02, -187500.02, 12596.37, -92484.34, -187500.02, 0.000, 0.000, 0.000, 12:59:25.335
131, -23859.73, -107250.51, -187500.02, -187500.02, -187500.02, 12530.79, -92539.64, -187500.02, 0.000, 0.000, 0.000, 12:59:25.335
132, -23925.62, -107209.47, -187500.02, -187500.02, -187500.02, 12568.45, -92487.45, -187500.02, 0.000, 0.000, 0.000, 12:59:25.335
133, -23849.51, -107146.21, -187500.02, -187500.02, -187500.02, 12646.79, -92395.52, -187500.02, 0.000, 0.000, 0.000, 12:59:25.335
134, -23745.80, -107167.09, -187500.02, -187500.02, -187500.02, 12647.69, -92382.62, -187500.02, 0.000, 0.000, 0.000, 12:59:25.336
135, -23840.57, -107231.06, -187500.02, -187500.02, -187500.02, 12599.83, -92431.70, -187500.02, 0.000, 0.000, 0.000, 12:59:25.336
136, -23906.31, -107253.97, -187500.02, -187500.02, -187500.02, 12584.01, -92447.13, -187500.02, 0.000, 0.000, 0.000, 12:59:25.336
137, -23859.64, -107244.59, -187500.02, -187500.02, -187500.02, 12603.83, -92415.38, -187500.02, 0.000, 0.000, 0.000, 12:59:25.336
138, -23751.90, -107248.90, -187500.02, -187500.02, -187500.02, 12623.19, -92383.29, -187500.02, 0.000, 0.000, 0.000, 12:59:25.336
139, -23794.66, -107308.17, -187500.02, -187500.02, -187500.02, 12576.37, -92419.97, -187500.02, -0.342, -0.052, -0.960, 12:59:25.337
140, -23910.60, -107290.02, -187500.02, -187500.02, -187500.02, 12594.04, -92389.84, -187500.02, 0.000, 0.000, 0.000, 12:59:25.337
141, -23866.88, -107308.62, -187500.02, -187500.02, -187500.02, 12590.20, -92387.49, -187500.02, 0.000, 0.000, 0.000, 12:59:25.337
142, -23752.66, -107312.82, -187500.02, -187500.02, -187500.02, 12609.54, -92358.73, -187500.02, 0.000, 0.000, 0.000, 12:59:25.337
143, -23773.22, -107403.23, -187500.02, -187500.02, -187500.02, 12532.69, -92424.68, -187500.02, 0.000, 0.000, 0.000, 12:59:25.337
144, -23883.98, -107388.93, -187500.02, -187500.02, -187500.02, 12546.30, -92401.46, -187500.02, 0.000, 0.000, 0.000, 12:59:25.338
145, -23884.92, -107341.37, -187500.02, -187500.02, -187500.02, 12607.03, -92335.45, -187500.02, 0.000, 0.000, 0.000, 12:59:25.338
146, -23776.31, -107366.09, -187500.02, -187500.02, -187500.02, 12605.44, -92329.29, -187500.02, 0.000, 0.000, 0.000, 12:59:25.338
147, -23780.29, -107435.20, -187500.02, -187500.02, -187500.02, 12548.29, -92371.53, -187500.02, 0.000, 0.000, 0.000, 12:59:25.338
148, -23900.65, -107405.85, -187500.02, -187500.02, -187500.02, 12574.51, -92330.38, -187500.02, 0.000, 0.000, 0.000, 12:59:25.338
149, -23884.04, -107358.13, -187500.02, -187500.02, -187500.02, 12631.33, -92264.87, -187500.02, -0.346, -0.056, -0.960, 12:59:25.339
150, -23783.82, -107376.52, -187500.02, -187500.02, -187500.02, 12634.05, -92254.72, -187500.02, 0.000, 0.000, 0.000, 12:59:25.339
151, -23734.06, -107453.30, -187500.02, -187500.02, -187500.02, 12576.72, -92301.66, -187500.02, 0.000, 0.000, 0.000, 12:59:25.339
152, -23864.91, -107472.13, -187500.02, -187500.02, -187500.02, 12557.72, -92306.87, -187500.02, 0.000, 0.000, 0.000, 12:59:25.339
153, -23903.33, -107437.14, -187500.02, -187500.02, -187500.02, 12600.26, -92258.48, -187500.02, 0.000, 0.000, 0.000, 12:59:25.339
154, -23817.84, -107445.15, -187500.02, -187500.02, -187500.02, 12611.84, -92238.88, -187500.02, 0.000, 0.000, 0.000, 12:59:25.340
155, -23743.77, -107492.35, -187500.02, -187500.02, -187500.02, 12579.81, -92254.84, -187500.02, 0.000, 0.000, 0.000, 12:59:25.340
156, -23848.04, -107476.10, -187500.02, -187500.02, -187500.02, 12602.67, -92220.50, -187500.02, 0.000, 0.000, 0.000, 12:59:25.340
157, -23898.24, -107520.13, -187500.02, -187500.02, -187500.02, 12567.80, -92252.71, -187500.02, 0.000, 0.000, 0.000, 12:59:25.340
158, -23831.14, -107511.91, -187500.02, -187500.02, -187500.02, 12583.65, -92223.54, -187500.02, -0.348, -0.054, -0.956, 12:59:25.340
159, -23738.54, -107534.64, -187500.02, -187500.02, -187500.02, 12580.97, -92216.84, -187500.02, 0.000, 0.000, 0.000, 12:59:25.341
160, -23822.27, -107571.90, -187500.02, -187500.02, -187500.02, 12561.77, -92236.02, -187500.02, 0.000, 0.000, 0.000, 12:59:25.341
161, -23897.52, -107564.88, -187500.02, -187500.02, -187500.02, 12581.93, -92218.65, -187500.02, 0.000, 0.000, 0.000, 12:59:25.341
162, -23847.92, -107586.48, -187500.02, -187500.02, -187500.02, 12566.78, -92219.36, -187500.02, 0.000, 0.000, 0.000, 12:59:25.341
163, -23753.31, -107602.50, -187500.02, -187500.02, -187500.02, 12561.88, -92203.94, -187500.02, 0.000, 0.000, 0.000, 12:59:25.341
164, -23797.74, -107667.48, -187500.02, -187500.02, -187500.02, 12511.50, -92252.93, -187500.02, 0.000, 0.000, 0.000, 12:59:25.342
165, -23884.76, -107659.12, -187500.02, -187500.02, -187500.02, 12523.26, -92235.70, -187500.02, 0.000, 0.000, 0.000, 12:59:25.342
166, -23857.45, -107644.14, -187500.02, -187500.02, -187500.02, 12546.12, -92201.48, -187500.02, 0.000, 0.000, 0.000, 12:59:25.342
167, -23771.68, -107646.91, -187500.02, -187500.02, -187500.02, 12563.80, -92174.12, -187500.02, 0.000, 0.000, 0.000, 12:59:25.342
168, -23788.20, -107693.63, -187500.02, -187500.02, -187500.02, 12539.24, -92196.16, -187500.02, -0.338, -0.058, -0.956, 12:59:25.342
169, -23897.86, -107721.81, -187500.02, -187500.02, -187500.02, 12516.60, -92215.70, -187500.02, 0.000, 0.000, 0.000, 12:59:25.343
170, -23894.73, -107706.37, -187500.02, -187500.02, -187500.02, 12535.86, -92185.38, -187500.02, 0.000, 0.000, 0.000, 12:59:25.343
171, -23774.07, -107697.41, -187500.02, -187500.02, -187500.02, 12564.90, -92149.06, -187500.02, 0.000, 0.000, 0.000, 12:59:25.343
172, -23738.24, -107748.39, -187500.02, -187500.02, -187500.02, 12533.52, -92172.63, -187500.02, 0.000, 0.000, 0.000, 12:59:25.343
173, -23876.42, -107780.02, -187500.02, -187500.02, -187500.02, 12505.78, -92194.02, -187500.02, 0.000, 0.000, 0.000, 12:59:25.343
174, -23883.60, -107757.06, -187500.02, -187500.02, -187500.02, 12533.32, -92156.20, -187500.02, 0.000, 0.000, 0.000, 12:59:25.344
175, -23781.18, -107755.88, -187500.02, -187500.02, -187500.02, 12558.08, -92123.70, -187500.02, 0.000, 0.000, 0.000, 12:59:25.344
176, -23747.50, -107793.90, -187500.02, -187500.02, -187500.02, 12536.04, -92130.34, -187500.02, 0.000, 0.000, 0.000, 12:59:25.344
177, -23864.89, -107770.02, -187500.02, -187500.02, -187500.02, 12562.33, -92091.15, -187500.02, 0.000, 0.000, 0.000, 12:59:25.344
178, -23904.09, -107751.77, -187500.02, -187500.02, -187500.02, 12594.04, -92057.96, -187500.02, -0.330, -0.054, -0.960, 12:59:25.344
179, -23828.86, -107749.84, -187500.02, -187500.02, -187500.02, 12618.23, -92028.32, -187500.02, 0.000, 0.000, 0.000, 12:59:25.345
180, -23727.52, -107798.21, -187500.02, -187500.02, -187500.02, 12591.25, -92047.32, -187500.02, 0.000, 0.000, 0.000, 12:59:25.345
181, -23823.07, -107849.96, -187500.02, -187500.02, -187500.02, 12544.13, -92086.63, -187500.02, 0.000, 0.000, 0.000, 12:59:25.345
182, -23889.70, -107838.58, -187500.02, -187500.02, -187500.02, 12550.68, -92067.28, -187500.02, 0.000, 0.000, 0.000, 12:59:25.345
183, -23836.50, -107803.78, -187500.02, -187500.02, -187500.02, 12598.61, -92009.19, -187500.02, 0.000, 0.000, 0.000, 12:59:25.346
184, -23744.57, -107826.24, -187500.02, -187500.02, -187500.02, 12598.02, -92000.13, -187500.02, 0.000, 0.000, 0.000, 12:59:25.346
185, -23808.99, -107902.46, -187500.02, -187500.02, -187500.02, 12530.52, -92061.29, -187500.02, 0.000, 0.000, 0.000, 12:59:25.346
186, -23891.87, -107880.98, -187500.02, -187500.02, -187500.02, 12552.14, -92034.60, -187500.02, 0.000, 0.000, 0.000, 12:59:25.346
187, -23842.78, -107855.73, -187500.02, -187500.02, -187500.02, 12591.43, -91990.61, -187500.02, 0.000, 0.000, 0.000, 12:59:25.346
188, -23755.39, -107875.77, -187500.02, -187500.02, -187500.02, 12589.98, -91981.34, -187500.02, -0.338, -0.056, -0.958, 12:59:25.347
189, -23780.73, -107953.58, -187500.02, -187500.02, -187500.02, 12520.80, -92040.32, -187500.02, 0.000, 0.000, 0.000, 12:59:25.347
190, -23883.69, -107926.18, -187500.02, -187500.02, -187500.02, 12550.04, -92002.48, -187500.02, 0.000, 0.000, 0.000, 12:59:25.347
191, -23858.12, -107940.26, -187500.02, -187500.02, -187500.02, 12553.83, -91998.57, -187500.02, 0.000, 0.000, 0.000, 12:59:25.347
192, -23774.28, -107949.40, -187500.02, -187500.02, -187500.02, 12568.59, -91975.15, -187500.02, 0.000, 0.000, 0.000, 12:59:25.348
193, -23773.11, -107989.39, -187500.02, -187500.02, -187500.02, 12540.36, -91988.55, -187500.02, 0.000, 0.000, 0.000, 12:59:25.348
194, -23883.31, -107994.77, -187500.02, -187500.02, -187500.02, 12544.78, -91982.99, -187500.02, 0.000, 0.000, 0.000, 12:59:25.348
195, -23879.28, -108010.24, -187500.02, -187500.02, -187500.02, 12545.83, -91984.84, -187500.02, 0.000, 0.000, 0.000, 12:59:25.348
196, -23787.20, -107985.09, -187500.02, -187500.02, -187500.02, 12584.19, -91931.09, -187500.02, 0.000, 0.000, 0.000, 12:59:25.348
197, -23749.58, -108042.54, -187500.02, -187500.02, -187500.02, 12538.05, -91961.63, -187500.02, 0.000, 0.000, 0.000, 12:59:25.349
198, -23876.40, -108037.33, -187500.02, -187500.02, -187500.02, 12545.83, -91945.82, -187500.02, -0.336, -0.056, -0.956, 12:59:25.349
199, -23880.54, -108037.71, -187500.02, -187500.02, -187500.02, 12559.33, -91933.41, -187500.02, 0.000, 0.000, 0.000, 12:59:25.349
200, -23790.14, -108032.15, -187500.02, -187500.02, -187500.02, 12586.33, -91900.96, -187500.02, 0.000, 0.000, 0.000, 12:59:25.349
201, -23738.36, -108072.18, -187500.02, -187500.02, -187500.02, 12561.28, -91911.53, -187500.02, 0.000, 0.000, 0.000, 12:59:25.349
202, -23856.62, -108104.39, -187500.02, -187500.02, -187500.02, 12527.24, -91932.19, -187500.02, 0.000, 0.000, 0.000, 12:59:25.350
203, -23882.08, -108088.25, -187500.02, -187500.02, -187500.02, 12548.74, -91904.38, -187500.02, 0.000, 0.000, 0.000, 12:59:25.350
204, -23812.41, -108113.98, -187500.02, -187500.02, -187500.02, 12534.50, -91906.55, -187500.02, 0.000, 0.000, 0.000, 12:59:25.350
205, -23762.29, -108101.05, -187500.02, -187500.02, -187500.02, 12562.42, -91861.51, -187500.02, 0.000, 0.000, 0.000, 12:59:25.350
206, -23820.72, -108137.76, -187500.02, -187500.02, -187500.02, 12540.33, -91882.14, -187500.02, 0.000, 0.000, 0.000, 12:59:25.350
207, -23890.30, -108131.57, -187500.02, -187500.02, -187500.02, 12560.88, -91865.04, -187500.02, 0.000, 0.000, 0.000, 12:59:25.351
208, -23818.35, -108143.68, -187500.02, -187500.02, -187500.02, 12564.97, -91852.84, -187500.02, -0.336, -0.056, -0.958, 12:59:25.351
209, -23736.70, -108154.21, -187500.02, -187500.02, -187500.02, 12568.18, -91829.32, -187500.02, 0.000, 0.000, 0.000, 12:59:25.808
210, -23798.77, -108211.20, -187500.02, -187500.02, -187500.02, 12517.33, -91866.31, -187500.02, 0.000, 0.000, 0.000, 12:59:25.808
211, -23895.42, -108231.59, -187500.02, -187500.02, -187500.02, 12503.45, -91879.81, -187500.02, 0.000, 0.000, 0.000, 12:59:25.808
212, -23860.08, -108205.44, -187500.02, -187500.02, -187500.02, 12548.51, -91836.97, -187500.02, 0.000, 0.000, 0.000, 12:59:25.808
213, -23758.63, -108199.78, -187500.02, -187500.02, -187500.02, 12575.07, -91803.02, -187500.02, 0.000, 0.000, 0.000, 12:59:25.808
214, -23782.34, -108266.91, -187500.02, -187500.02, -187500.02, 12515.59, -91851.20, -187500.02, 0.000, 0.000, 0.000, 12:59:25.808
215, -23898.35, -108260.88, -187500.02, -187500.02, -187500.02, 12517.89, -91837.44, -187500.02, 0.000, 0.000, 0.000, 12:59:25.809
216, -23882.14, -108228.30, -187500.02, -187500.02, -187500.02, 12560.58, -91788.48, -187500.02, 0.000, 0.000, 0.000, 12:59:25.809
217, -23762.96, -108220.26, -187500.02, -187500.02, -187500.02, 12589.24, -91750.76, -187500.02, 0.000, 0.000, 0.000, 12:59:25.809
218, -23749.00, -108293.44, -187500.02, -187500.02, -187500.02, 12532.13, -91801.31, -187500.02, -0.338, -0.062, -0.958, 12:59:25.809
219, -23875.89, -108348.70, -187500.02, -187500.02, -187500.02, 12476.30, -91851.12, -187500.02, 0.000, 0.000, 0.000, 12:59:25.809
220, -23879.80, -108309.87, -187500.02, -187500.02, -187500.02, 12522.77, -91800.63, -187500.02, 0.000, 0.000, 0.000, 12:59:25.809
221, -23783.95, -108263.98, -187500.02, -187500.02, -187500.02, 12590.89, -91725.72, -187500.02, 0.000, 0.000, 0.000, 12:59:25.809
222, -23753.22, -108333.78, -187500.02, -187500.02, -187500.02, 12542.66, -91769.20, -187500.02, 0.000, 0.000, 0.000, 12:59:25.809
223, -23877.07, -108365.21, -187500.02, -187500.02, -187500.02, 12523.68, -91793.34, -187500.02, 0.000, 0.000, 0.000, 12:59:25.810
224, -23896.23, -108329.09, -187500.02, -187500.02, -187500.02, 12562.44, -91745.41, -187500.02, 0.000, 0.000, 0.000, 12:59:25.810
225, -23804.09, -108304.99, -187500.02, -187500.02, -187500.02, 12599.66, -91696.40, -187500.02, 0.000, 0.000, 0.000, 12:59:25.810
226, -23740.10, -108362.80, -187500.02, -187500.02, -187500.02, 12563.07, -91724.90, -187500.02, 0.000, 0.000, 0.000, 12:59:25.810
227, -23817.26, -108434.48, -187500.02, -187500.02, -187500.02, 12497.49, -91785.55, -187500.02, 0.000, 0.000, 0.000, 12:59:25.810
228, -23879.13, -108427.41, -187500.02, -187500.02, -187500.02, 12498.18, -91773.06, -187500.02, -0.338, -0.060, -0.958, 12:59:25.810
229, -23820.19, -108368.41, -187500.02, -187500.02, -187500.02, 12567.07, -91692.64, -187500.02, 0.000, 0.000, 0.000, 12:59:25.810
230, -23730.64, -108365.73, -187500.02, -187500.02, -187500.02, 12589.11, -91660.95, -187500.02, 0.000, 0.000, 0.000, 12:59:25.810
231, -23826.53, -108441.88, -187500.02, -187500.02, -187500.02, 12528.40, -91722.59, -187500.02, 0.000, 0.000, 0.000, 12:59:25.811
232, -23922.22, -108470.98, -187500.02, -187500.02, -187500.02, 12505.82, -91744.95, -187500.02, 0.000, 0.000, 0.000, 12:59:25.811
233, -23834.83, -108400.80, -187500.02, -187500.02, -187500.02, 12585.06, -91653.98, -187500.02, 0.000, 0.000, 0.000, 12:59:25.811
234, -23722.35, -108414.52, -187500.02, -187500.02, -187500.02, 12591.59, -91638.22, -187500.02, 0.000, 0.000, 0.000, 12:59:25.811
235, -23804.99, -108502.43, -187500.02, -187500.02, -187500.02, 12513.89, -91708.51, -187500.02, 0.000, 0.000, 0.000, 12:59:25.811
236, -23895.11, -108488.68, -187500.02, -187500.02, -187500.02, 12527.30, -91688.71, -187500.02, 0.000, 0.000, 0.000, 12:59:25.811
237, -23847.88, -108491.90, -187500.02, -187500.02, -187500.02, 12539.62, -91676.19, -187500.02, 0.000, 0.000, 0.000, 12:59:25.811
238, -23753.85, -108497.98, -187500.02, -187500.02, -187500.02, 12555.40, -91655.41, -187500.02, -0.336, -0.060, -0.956, 12:59:25.812
239, -23768.78, -108548.20, -187500.02, -187500.02, -187500.02, 12511.43, -91687.26, -187500.02, 0.000, 0.000, 0.000, 12:59:25.812
240, -23878.30, -108520.11, -187500.02, -187500.02, -187500.02, 12534.72, -91652.52, -187500.02, 0.000, 0.000, 0.000, 12:59:25.812
241, -23863.19, -108505.45, -187500.02, -187500.02, -187500.02, 12561.61, -91623.17, -187500.02, 0.000, 0.000, 0.000, 12:59:25.812
242, -23778.50, -108473.55, -187500.02, -187500.02, -187500.02, 12613.74, -91560.88, -187500.02, 0.000, 0.000, 0.000, 12:59:25.812
243, -23763.41, -108539.89, -187500.02, -187500.02, -187500.02, 12558.01, -91603.23, -187500.02, 0.000, 0.000, 0.000, 12:59:25.812
244, -23875.73, -108545.05, -187500.02, -187500.02, -187500.02, 12549.83, -91600.71, -187500.02, 0.000, 0.000, 0.000, 12:59:25.813
245, -23845.15, -108565.81, -187500.02, -187500.02, -187500.02, 12538.34, -91611.93, -187500.02, 0.000, 0.000, 0.000, 12:59:25.813
246, -23775.24, -108554.22, -187500.02, -187500.02, -187500.02, 12563.67, -91573.89, -187500.02, 0.000, 0.000, 0.000, 12:59:25.813
247, -23753.89, -108575.36, -187500.02, -187500.02, -187500.02, 12561.88, -91563.83, -187500.02, 0.000, 0.000, 0.000, 12:59:25.814
248, -23876.76, -108590.18, -187500.02, -187500.02, -187500.02, 12560.32, -91568.81, -187500.02, -0.340, -0.058, -0.956, 12:59:25.814
249, -23883.55, -108588.81, -187500.02, -187500.02, -187500.02, 12570.26, -91559.47, -187500.02, 0.000, 0.000, 0.000, 12:59:25.814
250, -23784.98, -108600.66, -187500.02, -187500.02, -187500.02, 12564.34, -91547.35, -187500.02, 0.000, 0.000, 0.000, 12:59:25.815
251, -23731.65, -108608.62, -187500.02, -187500.02, -187500.02, 12566.24, -91526.52, -187500.02, 0.000, 0.000, 0.000, 12:59:25.815
252, -23842.02, -108597.20, -187500.02, -187500.02, -187500.02, 12581.39, -91500.87, -187500.02, 0.000, 0.000, 0.000, 12:59:25.815
253, -23889.14, -108583.66, -187500.02, -187500.02, -187500.02, 12601.91, -91479.38, -187500.02, 0.000, 0.000, 0.000, 12:59:25.816
254, -23817.84, -108607.70, -187500.02, -187500.02, -187500.02, 12596.57, -91486.34, -187500.02, 0.000, 0.000, 0.000, 12:59:25.816
255, -23747.25, -108627.38, -187500.02, -187500.02, -187500.02, 12596.68, -91480.61, -187500.02, 0.000, 0.000, 0.000, 12:59:25.816
0, -23815.49, -108725.66, -187500.02, -187500.02, -187500.02, 12502.63, -91569.70, -187500.02, 0.000, 0.000, 0.000, 12:59:25.817
1, -23910.69, -108726.86, -187500.02, -187500.02, -187500.02, 12495.97, -91565.64, -187500.02, 0.000, 0.000, 0.000, 12:59:25.817
2, -23828.72, -108698.34, -187500.02, -187500.02, -187500.02, 12532.98, -91517.29, -187500.02, -0.336, -0.060, -0.952, 12:59:25.817
3, -23735.90, -108701.60, -187500.02, -187500.02, -187500.02, 12551.42, -91490.85, -187500.02, 0.000, 0.000, 0.000, 12:59:25.817
4, -23809.64, -108760.91, -187500.02, -187500.02, -187500.02, 12505.51, -91533.56, -187500.02, 0.000, 0.000, 0.000, 12:59:25.818
5, -23904.45, -108788.89, -187500.02, -187500.02, -187500.02, 12475.38, -91556.23, -187500.02, 0.000, 0.000, 0.000, 12:59:25.818
6, -23861.09, -108758.04, -187500.02, -187500.02, -187500.02, 12510.25, -91509.00, -187500.02, 0.000, 0.000, 0.000, 12:59:25.818
7, -23729.04, -108734.51, -187500.02, -187500.02, -187500.02, 12555.11, -91454.91, -187500.02, 0.000, 0.000, 0.000, 12:59:25.819
8, -23767.19, -108744.32, -187500.02, -187500.02, -187500.02, 12566.44, -91439.44, -187500.02, 0.000, 0.000, 0.000, 12:59:25.819
9, -23875.55, -108810.16, -187500.02, -187500.02, -187500.02, 12511.08, -91501.02, -187500.02, 0.000, 0.000, 0.000, 12:59:25.819
10, -23864.13, -108818.48, -187500.02, -187500.02, -187500.02, 12508.04, -91500.15, -187500.02, 0.000, 0.000, 0.000, 12:59:25.820
11, -23776.64, -108777.35, -187500.02, -187500.02, -187500.02, 12566.80, -91431.38, -187500.02, -0.338, -0.052, -0.962, 12:59:25.820
12, -23756.48, -108850.29, -187500.02, -187500.02, -187500.02, 12510.23, -91478.89, -187500.02, 0.000, 0.000, 0.000, 12:59:25.820
13, -23888.40, -108877.87, -187500.02, -187500.02, -187500.02, 12479.89, -91499.97, -187500.02, 0.000, 0.000, 0.000, 12:59:25.821
14, -23855.70, -108836.52, -187500.02, -187500.02, -187500.02, 12529.18, -91448.92, -187500.02, 0.000, 0.000, 0.000, 12:59:25.821
15, -23764.29, -108827.66, -187500.02, -187500.02, -187500.02, 12559.27, -91416.82, -187500.02, 0.000, 0.000, 0.000, 12:59:25.821
16, -23732.72, -108901.36, -187500.02, -187500.02, -187500.02, 12499.90, -91467.31, -187500.02, 0.000, 0.000, 0.000, 12:59:25.821
17, -23847.95, -108910.70, -187500.02, -187500.02, -187500.02, 12487.76, -91467.16, -187500.02, 0.000, 0.000, 0.000, 12:59:25.822
18, -23894.28, -108891.86, -187500.02, -187500.02, -187500.02, 12512.82, -91439.53, -187500.02, 0.000, 0.000, 0.000, 12:59:25.822
19, -23811.09, -108909.34, -187500.02, -187500.02, -187500.02, 12508.42, -91439.33, -187500.02, 0.000, 0.000, 0.000, 12:59:25.822
20, -23741.37, -108979.93, -187500.02, -187500.02, -187500.02, 12443.86, -91486.11, -187500.02, 0.000, 0.000, 0.000, 12:59:25.823
21, -23843.01, -108999.10, -187500.02, -187500.02, -187500.02, 12427.23, -91495.09, -187500.02, -0.346, -0.052, -0.960, 12:59:25.823
22, -23883.31, -108986.19, -187500.02, -187500.02, -187500.02, 12453.45, -91474.91, -187500.02, 0.000, 0.000, 0.000, 12:59:25.823
23, -23809.93, -108974.83, -187500.02, -187500.02, -187500.02, 12486.60, -91441.90, -187500.02, 0.000, 0.000, 0.000, 12:59:25.824
24, -23721.44, -108992.73, -187500.02, -187500.02, -187500.02, 12492.41, -91431.53, -187500.02, 0.000, 0.000, 0.000, 12:59:25.824
25, -23812.68, -109038.09, -187500.02, -187500.02, -187500.02, 12454.30, -91461.79, -187500.02, 0.000, 0.000, 0.000, 12:59:25.824
26, -23908.45, -109032.19, -187500.02, -187500.02, -187500.02, 12468.94, -91449.03, -187500.02, 0.000, 0.000, 0.000, 12:59:25.825
27, -23844.33, -109062.23, -187500.02, -187500.02, -187500.02, 12453.86, -91463.80, -187500.02, 0.000, 0.000, 0.000, 12:59:25.825
28, -23727.56, -109048.77, -187500.02, -187500.02, -187500.02, 12479.67, -91422.56, -187500.02, 0.000, 0.000, 0.000, 12:59:25.825
29, -23779.82, -109062.56, -187500.02, -187500.02, -187500.02, 12483.18, -91417.20, -187500.02, 0.000, 0.000, 0.000, 12:59:25.825
30, -23885.10, -109057.11, -187500.02, -187500.02, -187500.02, 12501.24, -91406.59, -187500.02, 0.000, 0.000, 0.000, 12:59:25.826
31, -23845.49, -109065.02, -187500.02, -187500.02, -187500.02, 12501.42, -91399.77, -187500.02, -0.338, -0.050, -0.960, 12:59:25.826
32, -23741.53, -109045.48, -187500.02, -187500.02, -187500.02, 12534.14, -91353.12, -187500.02, 0.000, 0.000, 0.000, 12:59:25.826
33, -23763.03, -109103.15, -187500.02, -187500.02, -187500.02, 12495.47, -91388.23, -187500.02, 0.000, 0.000, 0.000, 12:59:25.827
34, -23893.25, -109107.89, -187500.02, -187500.02, -187500.02, 12497.98, -91384.27, -187500.02, 0.000, 0.000, 0.000, 12:59:25.827
35, -23872.91, -109104.38, -187500.02, -187500.02, -187500.02, 12509.09, -91368.27, -187500.02, 0.000, 0.000, 0.000, 12:59:25.827
36, -23781.00, -109076.48, -187500.02, -187500.02, -187500.02, 12550.64, -91313.63, -187500.02, 0.000, 0.000, 0.000, 12:59:25.828
37, -23722.55, -109111.02, -187500.02, -187500.02, -187500.02, 12536.87, -91323.44, -187500.02, 0.000, 0.000, 0.000, 12:59:25.828
38, -23850.99, -109147.86, -187500.02, -187500.02, -187500.02, 12509.40, -91354.75, -187500.02, 0.000, 0.000, 0.000, 12:59:25.828
39, -23883.89, -109153.71, -187500.02, -187500.02, -187500.02, 12507.34, -91352.41, -187500.02, 0.000, 0.000, 0.000, 12:59:25.829
40, -23794.59, -109103.09, -187500.02, -187500.02, -187500.02, 12574.22, -91276.52, -187500.02, 0.000, 0.000, 0.000, 12:59:25.829
41, -23739.76, -109156.23, -187500.02, -187500.02, -187500.02, 12543.31, -91300.66, -187500.02, -0.340, -0.050, -0.958, 12:59:25.830
42, -23843.54, -109221.95, -187500.02, -187500.02, -187500.02, 12490.15, -91354.91, -187500.02, 0.000, 0.000, 0.000, 12:59:25.830
43, -23888.02, -109208.74, -187500.02, -187500.02, -187500.02, 12503.63, -91332.87, -187500.02, 0.000, 0.000, 0.000, 12:59:25.831
44, -23794.53, -109159.79, -187500.02, -187500.02, -187500.02, 12562.55, -91262.04, -187500.02, 0.000, 0.000, 0.000, 12:59:25.831
45, -23734.00, -109190.57, -187500.02, -187500.02, -187500.02, 12553.52, -91265.27, -187500.02, 0.000, 0.000, 0.000, 12:59:25.831
46, -23812.97, -109247.63, -187500.02, -187500.02, -187500.02, 12506.74, -91310.94, -187500.02, 0.000, 0.000, 0.000, 12:59:25.836
47, -23885.07, -109229.87, -187500.02, -187500.02, -187500.02, 12527.62, -91283.76, -187500.02, 0.000, 0.000, 0.000, 12:59:25.836
48, -23813.79, -109212.16, -187500.02, -187500.02, -187500.02, 12563.38, -91243.73, -187500.02, 0.000, 0.000, 0.000, 12:59:25.836
49, -23716.45, -109241.73, -187500.02, -187500.02, -187500.02, 12553.21, -91245.34, -187500.02, 0.000, 0.000, 0.000, 12:59:25.837
50, -23793.36, -109272.29, -187500.02, -187500.02, -187500.02, 12528.06, -91260.25, -187500.02, 0.000, 0.000, 0.000, 12:59:25.837
51, -23888.34, -109242.11, -187500.02, -187500.02, -187500.02, 12561.99, -91224.84, -187500.02, -0.336, -0.050, -0.952, 12:59:25.837
52, -23837.51, -109269.12, -187500.02, -187500.02, -187500.02, 12549.36, -91239.33, -187500.02, 0.000, 0.000, 0.000, 12:59:25.838
53, -23727.52, -109261.73, -187500.02, -187500.02, -187500.02, 12570.02, -91205.66, -187500.02, 0.000, 0.000, 0.000, 12:59:25.838
54, -23767.99, -109304.45, -187500.02, -187500.02, -187500.02, 12534.57, -91232.35, -187500.02, 0.000, 0.000, 0.000, 12:59:25.838
55, -23889.57, -109322.04, -187500.02, -187500.02, -187500.02, 12518.32, -91244.13, -187500.02, 0.000, 0.000, 0.000, 12:59:25.839
56, -23850.50, -109286.62, -187500.02, -187500.02, -187500.02, 12558.44, -91191.36, -187500.02, 0.000, 0.000, 0.000, 12:59:25.839
57, -23759.12, -109272.51, -187500.02, -187500.02, -187500.02, 12592.08, -91149.90, -187500.02, 0.000, 0.000, 0.000, 12:59:25.839
58, -23780.15, -109352.71, -187500.02, -187500.02, -187500.02, 12527.84, -91209.55, -187500.02, 0.000, 0.000, 0.000, 12:59:25.840
59, -23862.59, -109364.38, -187500.02, -187500.02, -187500.02, 12517.31, -91214.49, -187500.02, 0.000, 0.000, 0.000, 12:59:25.840
60, -23865.16, -109303.36, -187500.02, -187500.02, -187500.02, 12584.77, -91142.59, -187500.02, 0.000, 0.000, 0.000, 12:59:25.840
61, -23772.80, -109326.23, -187500.02, -187500.02, -187500.02, 12581.57, -91139.08, -187500.02, -0.346, -0.050, -0.958, 12:59:25.840
62, -23710.77, -109430.05, -187500.02, -187500.02, -187500.02, 12489.22, -91217.76, -187500.02, 0.000, 0.000, 0.000, 12:59:25.841
63, -23857.94, -109446.90, -187500.02, -187500.02, -187500.02, 12470.66, -91227.91, -187500.02, 0.000, 0.000, 0.000, 12:59:25.841
64, -23893.46, -109387.47, -187500.02, -187500.02, -187500.02, 12540.02, -91160.55, -187500.02, 0.000, 0.000, 0.000, 12:59:25.841
65, -23784.02, -109325.42, -187500.02, -187500.02, -187500.02, 12621.67, -91073.27, -187500.02, 0.000, 0.000, 0.000, 12:59:25.842
66, -23732.90, -109372.96, -187500.02, -187500.02, -187500.02, 12593.84, -91091.58, -187500.02, 0.000, 0.000, 0.000, 12:59:25.842
67, -23833.91, -109434.05, -187500.02, -187500.02, -187500.02, 12537.45, -91141.45, -187500.02, 0.000, 0.000, 0.000, 12:59:25.842
68, -23868.11, -109409.80, -187500.02, -187500.02, -187500.02, 12563.51, -91108.81, -187500.02, 0.000, 0.000, 0.000, 12:59:25.843
69, -23809.90, -109397.84, -187500.02, -187500.02, -187500.02, 12593.40, -91077.90, -187500.02, 0.000, 0.000, 0.000, 12:59:25.843
70, -23737.71, -109442.20, -187500.02, -187500.02, -187500.02, 12569.35, -91096.56, -187500.02, 0.000, 0.000, 0.000, 12:59:25.843
71, -23813.48, -109463.87, -187500.02, -187500.02, -187500.02, 12548.47, -91107.07, -187500.02, -0.342, -0.054, -0.956, 12:59:25.843
72, -23864.51, -109475.31, -187500.02, -187500.02, -187500.02, 12537.94, -91113.28, -187500.02, 0.000, 0.000, 0.000, 12:59:25.843
73, -23813.77, -109507.48, -187500.02, -187500.02, -187500.02, 12514.16, -91129.09, -187500.02, 0.000, 0.000, 0.000, 12:59:26.287
74, -23719.02, -109491.45, -187500.02, -187500.02, -187500.02, 12544.94, -91084.79, -187500.02, 0.000, 0.000, 0.000, 12:59:26.287
75, -23782.59, -109576.74, -187500.02, -187500.02, -187500.02, 12470.91, -91157.38, -187500.02, 0.000, 0.000, 0.000, 12:59:26.287
76, -23892.52, -109549.16, -187500.02, -187500.02, -187500.02, 12499.63, -91126.00, -187500.02, 0.000, 0.000, 0.000, 12:59:26.287
77, -23827.43, -109560.31, -187500.02, -187500.02, -187500.02, 12503.77, -91121.58, -187500.02, 0.000, 0.000, 0.000, 12:59:26.287
78, -23741.11, -109601.57, -187500.02, -187500.02, -187500.02, 12483.09, -91137.20, -187500.02, 0.000, 0.000, 0.000, 12:59:26.287
79, -23769.67, -109633.49, -187500.02, -187500.02, -187500.02, 12456.63, -91148.82, -187500.02, 0.000, 0.000, 0.000, 12:59:26.288
80, -23894.75, -109605.55, -187500.02, -187500.02, -187500.02, 12481.19, -91117.30, -187500.02, 0.000, 0.000, 0.000, 12:59:26.288
81, -23858.52, -109602.13, -187500.02, -187500.02, -187500.02, 12498.51, -91102.51, -187500.02, -0.332, -0.056, -0.958, 12:59:26.288
82, -23737.13, -109580.20, -187500.02, -187500.02, -187500.02, 12542.90, -91052.16, -187500.02, 0.000, 0.000, 0.000, 12:59:26.288
83, -23747.21, -109646.39, -187500.02, -187500.02, -187500.02, 12489.22, -91096.74, -187500.02, 0.000, 0.000, 0.000, 12:59:26.288
84, -23847.79, -109654.73, -187500.02, -187500.02, -187500.02, 12474.80, -91101.26, -187500.02, 0.000, 0.000, 0.000, 12:59:26.288
85, -23845.64, -109615.77, -187500.02, -187500.02, -187500.02, 12520.02, -91053.23, -187500.02, 0.000, 0.000, 0.000, 12:59:26.288
86, -23778.37, -109601.48, -187500.02, -187500.02, -187500.02, 12551.93, -91017.84, -187500.02, 0.000, 0.000, 0.000, 12:59:26.288
87, -23725.01, -109672.34, -187500.02, -187500.02, -187500.02, 12499.23, -91069.20, -187500.02, 0.000, 0.000, 0.000, 12:59:26.289
88, -23837.96, -109728.29, -187500.02, -187500.02, -187500.02, 12445.96, -91122.13, -187500.02, 0.000, 0.000, 0.000, 12:59:26.289
89, -23885.32, -109729.90, -187500.02, -187500.02, -187500.02, 12441.29, -91117.84, -187500.02, 0.000, 0.000, 0.000, 12:59:26.289
90, -23797.81, -109686.55, -187500.02, -187500.02, -187500.02, 12500.93, -91054.09, -187500.02, 0.000, 0.000, 0.000, 12:59:26.289
91, -23727.45, -109726.07, -187500.02, -187500.02, -187500.02, 12477.77, -91071.76, -187500.02, -0.332, -0.060, -0.956, 12:59:26.289
92, -23832.97, -109705.09, -187500.02, -187500.02, -187500.02, 12497.13, -91041.52, -187500.02, 0.000, 0.000, 0.000, 12:59:26.289
93, -23860.75, -109681.77, -187500.02, -187500.02, -187500.02, 12527.30, -91011.00, -187500.02, 0.000, 0.000, 0.000, 12:59:26.289
94, -23802.01, -109717.83, -187500.02, -187500.02, -187500.02, 12509.78, -91029.17, -187500.02, 0.000, 0.000, 0.000, 12:59:26.290
95, -23731.07, -109775.67, -187500.02, -187500.02, -187500.02, 12472.47, -91061.49, -187500.02, 0.000, 0.000, 0.000, 12:59:26.290
96, -23790.37, -109813.58, -187500.02, -187500.02, -187500.02, 12435.75, -91086.84, -187500.02, 0.000, 0.000, 0.000, 12:59:26.290
97, -23868.80, -109784.86, -187500.02, -187500.02, -187500.02, 12462.39, -91053.23, -187500.02, 0.000, 0.000, 0.000, 12:59:26.290
98, -23804.58, -109786.22, -187500.02, -187500.02, -187500.02, 12476.39, -91039.48, -187500.02, 0.000, 0.000, 0.000, 12:59:26.290
99, -23730.42, -109790.47, -187500.02, -187500.02, -187500.02, 12493.24, -91016.26, -187500.02, 0.000, 0.000, 0.000, 12:59:26.290
100, -23787.04, -109856.83, -187500.02, -187500.02, -187500.02, 12435.24, -91069.77, -187500.02, 0.000, 0.000, 0.000, 12:59:26.290
101, -23902.44, -109832.91, -187500.02, -187500.02, -187500.02, 12461.54, -91044.64, -187500.02, -0.330, -0.058, -0.954, 12:59:26.290
102, -23840.01, -109812.87, -187500.02, -187500.02, -187500.02, 12490.87, -91012.73, -187500.02, 0.000, 0.000, 0.000, 12:59:26.291
103, -23741.51, -109789.02, -187500.02, -187500.02, -187500.02, 12525.22, -90961.90, -187500.02, 0.000, 0.000, 0.000, 12:59:26.291
104, -23761.07, -109861.77, -187500.02, -187500.02, -187500.02, 12466.06, -91015.65, -187500.02, 0.000, 0.000, 0.000, 12:59:26.387
105, -23880.63, -109828.16, -187500.02, -187500.02, -187500.02, 12503.88, -90976.18, -187500.02, 0.000, 0.000, 0.000, 12:59:26.387
106, -23860.64, -109791.52, -187500.02, -187500.02, -187500.02, 12552.27, -90930.13, -187500.02, 0.000, 0.000, 0.000, 12:59:26.387
107, -23747.48, -109804.73, -187500.02, -187500.02, -187500.02, 12555.82, -90920.84, -187500.02, 0.000, 0.000, 0.000, 12:59:26.387
108, -23749.94, -109862.80, -187500.02, -187500.02, -187500.02, 12512.60, -90959.05, -187500.02, 0.000, 0.000, 0.000, 12:59:26.387
109, -23864.15, -109878.60, -187500.02, -187500.02, -187500.02, 12493.26, -90971.33, -187500.02, 0.000, 0.000, 0.000, 12:59:26.387
110, -23843.54, -109896.91, -187500.02, -187500.02, -187500.02, 12479.67, -90984.72, -187500.02, 0.000, 0.000, 0.000, 12:59:26.387
111, -23760.71, -109856.34, -187500.02, -187500.02, -187500.02, 12537.85, -90922.38, -187500.02, -0.336, -0.058, -0.952, 12:59:26.388
112, -23726.55, -109892.86, -187500.02, -187500.02, -187500.02, 12522.05, -90935.99, -187500.02, 0.000, 0.000, 0.000, 12:59:26.388
113, -23834.02, -109921.13, -187500.02, -187500.02, -187500.02, 12497.20, -90958.48, -187500.02, 0.000, 0.000, 0.000, 12:59:26.388
114, -23868.78, -109902.12, -187500.02, -187500.02, -187500.02, 12518.72, -90932.73, -187500.02, 0.000, 0.000, 0.000, 12:59:26.388
115, -23777.61, -109907.57, -187500.02, -187500.02, -187500.02, 12533.32, -90917.35, -187500.02, 0.000, 0.000, 0.000, 12:59:26.388
116, -23733.66, -109940.41, -187500.02, -187500.02, -187500.02, 12522.05, -90924.01, -187500.02, 0.000, 0.000, 0.000, 12:59:26.388
117, -23826.20, -109953.08, -187500.02, -187500.02, -187500.02, 12513.76, -90928.97, -187500.02, 0.000, 0.000, 0.000, 12:59:26.388
118, -23879.96, -109913.38, -187500.02, -187500.02, -187500.02, 12560.56, -90886.37, -187500.02, 0.000, 0.000, 0.000, 12:59:26.388
119, -23796.78, -109909.70, -187500.02, -187500.02, -187500.02, 12577.73, -90866.14, -187500.02, 0.000, 0.000, 0.000, 12:59:26.388
120, -23718.62, -109956.88, -187500.02, -187500.02, -187500.02, 12542.93, -90885.45, -187500.02, 0.000, 0.000, 0.000, 12:59:26.388
121, -23811.58, -109980.88, -187500.02, -187500.02, -187500.02, 12521.80, -90895.02, -187500.02, -0.332, -0.056, -0.952, 12:59:26.388
122, -23914.22, -109977.58, -187500.02, -187500.02, -187500.02, 12524.15, -90889.30, -187500.02, 0.000, 0.000, 0.000, 12:59:26.389
123, -23846.00, -109955.73, -187500.02, -187500.02, -187500.02, 12559.69, -90855.99, -187500.02, 0.000, 0.000, 0.000, 12:59:26.389
124, -23715.63, -109985.33, -187500.02, -187500.02, -187500.02, 12550.37, -90862.81, -187500.02, 0.000, 0.000, 0.000, 12:59:26.389
125, -23759.05, -110059.12, -187500.02, -187500.02, -187500.02, 12484.39, -90922.27, -187500.02, 0.000, 0.000, 0.000, 12:59:26.389
126, -23890.59, -110051.52, -187500.02, -187500.02, -187500.02, 12491.85, -90910.38, -187500.02, 0.000, 0.000, 0.000, 12:59:26.389
127, -23866.39, -110003.30, -187500.02, -187500.02, -187500.02, 12554.66, -90847.70, -187500.02, 0.000, 0.000, 0.000, 12:59:26.389
128, -23742.60, -110026.84, -187500.02, -187500.02, -187500.02, 12554.04, -90846.63, -187500.02, 0.000, 0.000, 0.000, 12:59:26.389
129, -23754.67, -110089.31, -187500.02, -187500.02, -187500.02, 12506.87, -90890.93, -187500.02, 0.000, 0.000, 0.000, 12:59:26.389
130, -23862.97, -110094.85, -187500.02, -187500.02, -187500.02, 12499.97, -90892.88, -187500.02, -0.332, -0.058, -0.954, 12:59:26.389
131, -23860.80, -110064.95, -187500.02, -187500.02, -187500.02, 12538.41, -90854.45, -187500.02, 0.000, 0.000, 0.000, 12:59:26.389
132, -23760.51, -110026.44, -187500.02, -187500.02, -187500.02, 12595.45, -90793.77, -187500.02, 0.000, 0.000, 0.000, 12:59:26.389
133, -23717.95, -110060.74, -187500.02, -187500.02, -187500.02, 12569.15, -90808.01, -187500.02, 0.000, 0.000, 0.000, 12:59:26.390
134, -23850.07, -110066.16, -187500.02, -187500.02, -187500.02, 12557.79, -90811.02, -187500.02, 0.000, 0.000, 0.000, 12:59:26.390
135, -23860.31, -110050.13, -187500.02, -187500.02, -187500.02, 12580.52, -90790.64, -187500.02, 0.000, 0.000, 0.000, 12:59:26.390
136, -23783.57, -110056.41, -187500.02, -187500.02, -187500.02, 12588.55, -90778.59, -187500.02, 0.000, 0.000, 0.000, 12:59:26.390
137, -23734.89, -110096.80, -187500.02, -187500.02, -187500.02, 12563.45, -90795.02, -187500.02, 0.000, 0.000, 0.000, 12:59:26.390
138, -23826.45, -110112.87, -187500.02, -187500.02, -187500.02, 12552.72, -90803.27, -187500.02, 0.000, 0.000, 0.000, 12:59:26.390
139, -23860.89, -110114.37, -187500.02, -187500.02, -187500.02, 12555.89, -90801.16, -187500.02, 0.000, 0.000, 0.000, 12:59:26.390
140, -23784.96, -110105.94, -187500.02, -187500.02, -187500.02, 12573.39, -90775.35, -187500.02, -0.334, -0.054, -0.954, 12:59:26.390
141, -23723.38, -110145.50, -187500.02, -187500.02, -187500.02, 12549.52, -90791.02, -187500.02, 0.000, 0.000, 0.000, 12:59:26.390
142, -23821.86, -110227.42, -187500.02, -187500.02, -187500.02, 12471.96, -90866.86, -187500.02, 0.000, 0.000, 0.000, 12:59:26.390
143, -23893.59, -110219.84, -187500.02, -187500.02, -187500.02, 12473.50, -90857.09, -187500.02, 0.000, 0.000, 0.000, 12:59:26.390
144, -23835.65, -110176.98, -187500.02, -187500.02, -187500.02, 12526.03, -90798.73, -187500.02, 0.000, 0.000, 0.000, 12:59:26.391
145, -23699.02, -110210.84, -187500.02, -187500.02, -187500.02, 12513.53, -90807.80, -187500.02, 0.000, 0.000, 0.000, 12:59:26.391
146, -23773.83, -110275.70, -187500.02, -187500.02, -187500.02, 12461.12, -90857.85, -187500.02, 0.000, 0.000, 0.000, 12:59:26.391
147, -23883.82, -110248.26, -187500.02, -187500.02, -187500.02, 12496.73, -90825.59, -187500.02, 0.000, 0.000, 0.000, 12:59:26.391
148, -23861.02, -110245.75, -187500.02, -187500.02, -187500.02, 12514.38, -90812.54, -187500.02, 0.000, 0.000, 0.000, 12:59:26.391
149, -23711.31, -110244.55, -187500.02, -187500.02, -187500.02, 12536.69, -90788.23, -187500.02, 0.000, 0.000, 0.000, 12:59:26.391
