%OpenBCI Raw EEG Data
%
%Sample Rate = 250.0 Hz
%First Column = SampleIndex
%Last Column = Timestamp 
%Other Columns = EEG data in microvolts followed by Accel Data (in G) interleaved with Aux Data
0, -22280.84, -69998.62, -166584.44, -126659.20, -112832.63, 9070.43, -101142.00, -159029.69, -0.350, -0.060, -0.952, 13:01:51.679
1, -22203.75, -70073.25, -166810.92, -126781.99, -112954.47, 9110.86, -101124.67, -159139.09, 0.000, 0.000, 0.000, 13:01:51.680
2, -22243.70, -70248.98, -167143.19, -127008.22, -113188.38, 9044.50, -101221.08, -159364.31, 0.000, 0.000, 0.000, 13:01:51.680
3, -22338.78, -70350.80, -167408.30, -127170.18, -113359.13, 9042.82, -101258.45, -159529.36, 0.000, 0.000, 0.000, 13:01:51.681
4, -22282.14, -70462.42, -167678.69, -127338.04, -113531.03, 9038.13, -101296.52, -159691.94, 0.000, 0.000, 0.000, 13:01:51.681
5, -22185.54, -70546.93, -167912.64, -127470.45, -113663.38, 9069.22, -101292.31, -159810.03, 0.000, 0.000, 0.000, 13:01:51.681
6, -22201.09, -70676.34, -168194.03, -127650.07, -113848.27, 9049.86, -101338.94, -159983.28, 0.000, 0.000, 0.000, 13:01:51.682
7, -22307.00, -70767.07, -168445.02, -127800.50, -114008.22, 9058.33, -101367.10, -160140.77, -0.360, -0.060, -0.954, 13:01:51.682
8, -22314.46, -70863.45, -168701.97, -127953.65, -114170.23, 9064.10, -101395.40, -160296.14, 0.000, 0.000, 0.000, 13:01:51.682
9, -22210.35, -70921.73, -168910.19, -128060.49, -114281.18, 9117.81, -101366.27, -160391.23, 0.000, 0.000, 0.000, 13:01:51.683
10, -22201.23, -71007.78, -169144.72, -128193.44, -114418.98, 9143.76, -101362.81, -160514.44, 0.000, 0.000, 0.000, 13:01:51.683
11, -22318.53, -71114.73, -169408.53, -128356.92, -114588.90, 9140.21, -101402.13, -160680.45, 0.000, 0.000, 0.000, 13:01:51.683
12, -22316.67, -71210.42, -169662.36, -128509.25, -114745.52, 9148.14, -101430.78, -160834.23, 0.000, 0.000, 0.000, 13:01:51.684
13, -22241.46, -71305.95, -169909.44, -128653.58, -114892.19, 9162.47, -101442.23, -160970.55, 0.000, 0.000, 0.000, 13:01:51.684
14, -22192.53, -71437.55, -170193.02, -128833.08, -115074.73, 9140.08, -101487.02, -161141.41, 0.000, 0.000, 0.000, 13:01:51.684
15, -22294.61, -71554.39, -170469.02, -129005.63, -115255.07, 9125.57, -101534.36, -161316.47, 0.000, 0.000, 0.000, 13:01:51.685
16, -22300.58, -71617.91, -170692.47, -129125.82, -115383.08, 9163.81, -101531.61, -161439.06, 0.000, 0.000, 0.000, 13:01:51.685
17, -22240.77, -71704.77, -170933.47, -129261.34, -115524.02, 9185.20, -101536.93, -161570.03, -0.358, -0.060, -0.952, 13:01:51.686
18, -22173.67, -71825.45, -171204.13, -129429.31, -115695.60, 9174.30, -101569.56, -161726.06, 0.000, 0.000, 0.000, 13:01:51.686
19, -22253.29, -71979.19, -171515.86, -129640.25, -115911.76, 9120.92, -101653.74, -161936.95, 0.000, 0.000, 0.000, 13:01:51.686
20, -22332.72, -72035.55, -171733.23, -129756.84, -116034.45, 9162.34, -101647.33, -162056.38, 0.000, 0.000, 0.000, 13:01:51.687
21, -22283.82, -72101.49, -171952.17, -129873.48, -116155.40, 9201.34, -101633.36, -162167.94, 0.000, 0.000, 0.000, 13:01:51.687
22, -22189.65, -72221.81, -172219.89, -130035.98, -116321.63, 9193.58, -101660.09, -162320.80, 0.000, 0.000, 0.000, 13:01:51.687
23, -22263.43, -72394.66, -172546.34, -130259.26, -116553.63, 9125.64, -101757.07, -162544.39, 0.000, 0.000, 0.000, 13:01:51.688
24, -22333.62, -72497.88, -172808.50, -130419.14, -116725.19, 9120.94, -101797.04, -162710.09, 0.000, 0.000, 0.000, 13:01:51.688
25, -22262.69, -72562.08, -173028.02, -130535.08, -116848.75, 9161.82, -101785.28, -162821.19, 0.000, 0.000, 0.000, 13:01:51.689
26, -22195.15, -72633.47, -173246.42, -130651.46, -116968.30, 9201.97, -101765.97, -162923.77, -0.352, -0.062, -0.952, 13:01:51.689
27, -22209.47, -72751.04, -173514.84, -130818.66, -117142.29, 9190.99, -101801.28, -163085.19, 0.000, 0.000, 0.000, 13:01:51.690
28, -22312.90, -72871.65, -173796.31, -130999.70, -117334.52, 9165.15, -101859.78, -163270.53, 0.000, 0.000, 0.000, 13:01:51.690
29, -22303.62, -72987.49, -174072.41, -131172.03, -117515.73, 9149.19, -101906.31, -163441.88, 0.000, 0.000, 0.000, 13:01:51.690
30, -22216.47, -73041.79, -174277.47, -131272.95, -117620.10, 9204.76, -101872.43, -163532.78, 0.000, 0.000, 0.000, 13:01:51.691
31, -22196.85, -73172.34, -174559.67, -131451.59, -117804.58, 9180.69, -101920.33, -163705.44, 0.000, 0.000, 0.000, 13:01:51.691
32, -22309.88, -73310.50, -174858.11, -131646.73, -118012.02, 9140.66, -101996.64, -163906.66, 0.000, 0.000, 0.000, 13:01:51.691
33, -22301.54, -73400.60, -175105.89, -131791.53, -118164.66, 9152.06, -102018.81, -164053.53, 0.000, 0.000, 0.000, 13:01:51.692
34, -22216.94, -73477.13, -175334.50, -131917.63, -118293.38, 9183.50, -102011.59, -164167.70, 0.000, 0.000, 0.000, 13:01:51.692
35, -22195.35, -73598.91, -175607.56, -132086.89, -118467.86, 9169.27, -102050.26, -164327.14, 0.000, 0.000, 0.000, 13:01:51.692
36, -22288.49, -73717.80, -175883.81, -132260.39, -118651.91, 9149.75, -102101.89, -164502.91, -0.346, -0.058, -0.952, 13:01:51.693
37, -22301.07, -73771.62, -176095.78, -132368.19, -118766.44, 9195.31, -102086.59, -164611.67, 0.000, 0.000, 0.000, 13:01:51.693
38, -22240.97, -73845.34, -176321.59, -132488.59, -118891.20, 9229.28, -102076.88, -164724.06, 0.000, 0.000, 0.000, 13:01:51.694
39, -22187.93, -73941.89, -176568.14, -132631.36, -119038.93, 9240.30, -102086.09, -164857.63, 0.000, 0.000, 0.000, 13:01:51.694
40, -22274.83, -74048.78, -176831.70, -132793.98, -119210.90, 9229.68, -102125.07, -165020.53, 0.000, 0.000, 0.000, 13:01:51.694
41, -22316.81, -74091.52, -177033.86, -132895.06, -119319.98, 9280.78, -102104.27, -165121.31, 0.000, 0.000, 0.000, 13:01:51.695
42, -22251.56, -74168.16, -177261.86, -133019.52, -119449.10, 9308.03, -102099.70, -165237.30, 0.000, 0.000, 0.000, 13:01:51.695
43, -22178.32, -74329.20, -177571.89, -133224.94, -119658.09, 9256.10, -102171.95, -165430.98, 0.000, 0.000, 0.000, 13:01:51.695
44, -22261.40, -74460.43, -177857.56, -133407.48, -119849.52, 9225.41, -102232.49, -165613.28, 0.000, 0.000, 0.000, 13:01:51.696
45, -22329.97, -74551.67, -178107.83, -133557.39, -120008.95, 9227.16, -102263.20, -165768.25, 0.000, 0.000, 0.000, 13:01:51.696
46, -22270.18, -74617.09, -178325.39, -133671.61, -120131.05, 9264.57, -102250.11, -165878.53, -0.348, -0.058, -0.950, 13:01:51.697
47, -22192.53, -74712.20, -178566.42, -133808.94, -120274.87, 9278.70, -102251.49, -166005.27, 0.000, 0.000, 0.000, 13:01:51.697
48, -22247.90, -74842.38, -178848.73, -133991.38, -120463.31, 9248.59, -102304.58, -166182.59, 0.000, 0.000, 0.000, 13:01:51.697
49, -22331.11, -74929.75, -179096.19, -134139.55, -120619.35, 9252.64, -102330.77, -166332.38, 0.000, 0.000, 0.000, 13:01:51.698
50, -22297.76, -74998.10, -179319.69, -134258.47, -120745.20, 9283.89, -102324.13, -166449.75, 0.000, 0.000, 0.000, 13:01:51.698
51, -22200.67, -75049.58, -179515.92, -134352.16, -120842.84, 9339.47, -102284.26, -166532.56, 0.000, 0.000, 0.000, 13:01:51.699
52, -22227.40, -75164.78, -179779.95, -134515.16, -121013.19, 9324.50, -102317.48, -166690.23, 0.000, 0.000, 0.000, 13:01:51.699
53, -22331.54, -75277.03, -180050.25, -134683.25, -121191.73, 9303.96, -102366.72, -166864.08, 0.000, 0.000, 0.000, 13:01:51.700
54, -22305.72, -75396.09, -180325.17, -134854.50, -121372.96, 9283.06, -102414.93, -167034.78, 0.000, 0.000, 0.000, 13:01:51.700
55, -22209.65, -75459.91, -180535.77, -134962.36, -121484.48, 9326.22, -102389.63, -167131.05, 0.000, 0.000, 0.000, 13:01:51.701
56, -22215.17, -75603.72, -180829.16, -135154.88, -121679.77, 9285.65, -102449.20, -167311.88, -0.346, -0.058, -0.944, 13:01:51.701
57, -22307.24, -75677.62, -181062.41, -135288.59, -121818.77, 9302.66, -102460.64, -167444.89, 0.000, 0.000, 0.000, 13:01:51.702
58, -22316.92, -75734.34, -181275.14, -135400.52, -121935.22, 9339.92, -102450.05, -167556.88, 0.000, 0.000, 0.000, 13:01:51.702
59, -22219.47, -75850.06, -181542.34, -135562.14, -122101.79, 9329.66, -102481.29, -167710.78, 0.000, 0.000, 0.000, 13:01:51.703
60, -22184.08, -75985.80, -181828.44, -135743.86, -122288.89, 9299.20, -102531.38, -167883.80, 0.000, 0.000, 0.000, 13:01:51.703
61, -22283.86, -76098.63, -182099.95, -135914.50, -122467.59, 9278.97, -102578.88, -168055.70, 0.000, 0.000, 0.000, 13:01:51.703
62, -22312.72, -76169.87, -182329.98, -136041.08, -122602.31, 9300.14, -102585.30, -168183.17, 0.000, 0.000, 0.000, 13:01:51.703
63, -22244.84, -76247.07, -182557.02, -136162.91, -122730.72, 9324.10, -102579.35, -168299.22, 0.000, 0.000, 0.000, 13:01:51.704
64, -22176.19, -76373.47, -182831.83, -136334.73, -122907.81, 9301.03, -102617.41, -168460.44, 0.000, 0.000, 0.000, 13:01:51.704
65, -22267.28, -76490.51, -183105.13, -136508.94, -123091.21, 9274.99, -102668.24, -168633.16, 0.000, 0.000, 0.000, 13:01:51.704
66, -22327.36, -76547.19, -183319.06, -136623.05, -123215.66, 9307.13, -102664.27, -168751.06, -0.340, -0.056, -0.952, 13:01:51.704
67, -22262.56, -76601.59, -183525.94, -136726.53, -123325.74, 9350.85, -102640.88, -168848.67, 0.000, 0.000, 0.000, 13:01:51.704
68, -22185.87, -76719.16, -183794.70, -136888.61, -123492.09, 9336.55, -102671.20, -169001.56, 0.000, 0.000, 0.000, 13:01:51.704
69, -22256.53, -76845.95, -184076.33, -137067.23, -123677.34, 9306.01, -102726.63, -169180.69, 0.000, 0.000, 0.000, 13:01:51.704
70, -22330.04, -76903.14, -184291.31, -137181.91, -123800.19, 9338.58, -102724.16, -169299.84, 0.000, 0.000, 0.000, 13:01:51.705
71, -22283.84, -77005.16, -184549.67, -137334.81, -123961.92, 9333.33, -102754.09, -169449.98, 0.000, 0.000, 0.000, 13:01:51.705
72, -22201.85, -77121.36, -184815.53, -137495.56, -124128.28, 9321.53, -102782.33, -169599.53, 0.000, 0.000, 0.000, 13:01:51.705
73, -22255.94, -77220.49, -185067.00, -137644.61, -124285.02, 9319.49, -102804.56, -169745.64, 0.000, 0.000, 0.000, 13:01:51.705
74, -22359.70, -77287.63, -185292.42, -137769.58, -124421.96, 9340.35, -102812.23, -169874.80, 0.000, 0.000, 0.000, 13:01:51.705
75, -22291.88, -77399.48, -185561.25, -137935.67, -124598.14, 9321.04, -102857.31, -170039.33, 0.000, 0.000, 0.000, 13:01:51.706
76, -22176.37, -77514.28, -185826.50, -138098.50, -124765.89, 9306.30, -102890.04, -170190.72, -0.346, -0.064, -0.950, 13:01:51.706
77, -22203.71, -77657.20, -186116.75, -138288.56, -124964.22, 9262.54, -102951.41, -170373.11, 0.000, 0.000, 0.000, 13:01:51.706
78, -22308.65, -77732.55, -186349.08, -138420.58, -125106.89, 9276.62, -102965.23, -170507.19, 0.000, 0.000, 0.000, 13:01:51.706
79, -22282.23, -77792.70, -186564.06, -138531.61, -125227.68, 9309.81, -102955.69, -170618.03, 0.000, 0.000, 0.000, 13:01:51.706
80, -22213.54, -77866.79, -186786.17, -138650.13, -125353.18, 9337.84, -102943.46, -170727.58, 0.000, 0.000, 0.000, 13:01:51.707
81, -22223.51, -77983.76, -187053.31, -138813.66, -125524.77, 9320.81, -102977.43, -170883.55, 0.000, 0.000, 0.000, 13:01:51.707
82, -22290.90, -78095.23, -187322.50, -138982.63, -125706.70, 9296.67, -103028.75, -171055.17, 0.000, 0.000, 0.000, 13:01:51.707
83, -22277.47, -78164.07, -187500.02, -139106.19, -125841.03, 9318.51, -103035.59, -171180.27, 0.000, 0.000, 0.000, 13:01:51.707
84, -22222.19, -78231.20, -187500.02, -139219.41, -125961.66, 9350.58, -103022.74, -171288.36, 0.000, 0.000, 0.000, 13:01:51.707
85, -22158.07, -78341.90, -187500.02, -139373.89, -126122.91, 9340.17, -103047.73, -171435.17, 0.000, 0.000, 0.000, 13:01:51.707
86, -22277.89, -78458.55, -187500.02, -139544.75, -126303.47, 9313.84, -103100.23, -171609.33, -0.350, -0.062, -0.954, 13:01:51.707
87, -22312.92, -78534.55, -187500.02, -139676.66, -126444.75, 9328.03, -103113.63, -171743.72, 0.000, 0.000, 0.000, 13:01:51.708
88, -22242.27, -78599.10, -187500.02, -139788.83, -126561.81, 9361.04, -103097.04, -171848.45, 0.000, 0.000, 0.000, 13:01:51.708
89, -22158.09, -78681.16, -187500.02, -139916.03, -126693.70, 9377.29, -103092.19, -171964.28, 0.000, 0.000, 0.000, 13:01:51.708
90, -22270.72, -78798.03, -187500.02, -140087.03, -126875.67, 9349.04, -103142.61, -172137.28, 0.000, 0.000, 0.000, 13:01:51.708
91, -22350.63, -78861.63, -187500.02, -140207.22, -127004.84, 9372.89, -103144.76, -172259.25, 0.000, 0.000, 0.000, 13:01:51.708
92, -22274.09, -78916.36, -187500.02, -140306.97, -127114.01, 9413.93, -103123.48, -172356.23, 0.000, 0.000, 0.000, 13:01:51.708
93, -22170.16, -79013.16, -187500.02, -140445.19, -127259.14, 9415.49, -103132.55, -172485.72, 0.000, 0.000, 0.000, 13:01:51.709
94, -22249.08, -79183.09, -187500.02, -140666.30, -127490.91, 9334.27, -103232.31, -172708.13, 0.000, 0.000, 0.000, 13:01:51.709
95, -22336.16, -79245.41, -187500.02, -140785.47, -127622.11, 9357.31, -103235.62, -172833.11, 0.000, 0.000, 0.000, 13:01:51.709
96, -22277.38, -79294.51, -187500.02, -140885.70, -127729.80, 9400.90, -103213.34, -172929.97, -0.354, -0.064, -0.948, 13:01:51.709
97, -22184.49, -79355.48, -187500.02, -140990.23, -127840.71, 9438.11, -103189.30, -173024.00, 0.000, 0.000, 0.000, 13:01:51.709
98, -22223.76, -79476.30, -187500.02, -141157.41, -128020.23, 9409.59, -103237.48, -173191.44, 0.000, 0.000, 0.000, 13:01:51.710
99, -22321.14, -79584.81, -187500.02, -141321.27, -128196.21, 9385.65, -103290.85, -173364.81, 0.000, 0.000, 0.000, 13:01:51.710
100, -22310.48, -79688.15, -187500.02, -141476.95, -128360.92, 9372.78, -103328.63, -173520.50, 0.000, 0.000, 0.000, 13:01:51.710
101, -22206.99, -79765.64, -187500.02, -141600.22, -128489.76, 9392.76, -103323.93, -173632.77, 0.000, 0.000, 0.000, 13:01:51.710
102, -22194.16, -79888.82, -187500.02, -141770.42, -128669.78, 9362.52, -103368.70, -173799.31, 0.000, 0.000, 0.000, 13:01:51.710
103, -22310.19, -79965.24, -187500.02, -141902.86, -128813.21, 9368.71, -103386.47, -173938.56, 0.000, 0.000, 0.000, 13:01:51.710
104, -22308.92, -80043.65, -187500.02, -142033.55, -128951.92, 9377.94, -103399.10, -174070.39, 0.000, 0.000, 0.000, 13:01:51.711
105, -22202.30, -80097.63, -187500.02, -142133.02, -129055.26, 9421.89, -103369.73, -174160.41, 0.000, 0.000, 0.000, 13:01:51.711
106, -22194.92, -80189.30, -187500.02, -142272.17, -129201.55, 9424.25, -103382.34, -174291.88, -0.348, -0.066, -0.946, 13:01:51.711
107, -22302.48, -80280.67, -187500.02, -142419.50, -129361.77, 9414.58, -103415.28, -174443.67, 0.000, 0.000, 0.000, 13:01:51.711
108, -22314.64, -80357.91, -187500.02, -142551.58, -129505.45, 9419.54, -103432.29, -174578.50, 0.000, 0.000, 0.000, 13:01:51.711
109, -22230.35, -80429.15, -187500.02, -142666.53, -129630.19, 9443.46, -103424.85, -174686.72, 0.000, 0.000, 0.000, 13:01:51.712
110, -22197.83, -80532.73, -187500.02, -142811.08, -129785.53, 9436.50, -103441.57, -174822.80, 0.000, 0.000, 0.000, 13:01:51.712
111, -22312.14, -80663.84, -187500.02, -142994.63, -129985.36, 9391.06, -103508.60, -175012.72, 0.000, 0.000, 0.000, 13:01:51.712
112, -22334.15, -80695.27, -187500.02, -143079.44, -130081.94, 9446.54, -103478.54, -175102.38, 0.000, 0.000, 0.000, 13:01:51.712
113, -22263.77, -80735.98, -187500.02, -143164.73, -130175.98, 9499.42, -103440.30, -175184.67, 0.000, 0.000, 0.000, 13:01:51.712
114, -22175.30, -80818.67, -187500.02, -143287.55, -130309.81, 9510.29, -103437.70, -175301.39, 0.000, 0.000, 0.000, 13:01:51.712
115, -22220.20, -80980.88, -187500.02, -143499.25, -130538.48, 9433.33, -103535.31, -175517.38, 0.000, 0.000, 0.000, 13:01:51.712
116, -22307.02, -81052.98, -187500.02, -143626.31, -130679.67, 9443.90, -103548.92, -175649.41, -0.350, -0.062, -0.956, 13:01:51.713
117, -22268.57, -81103.28, -187500.02, -143723.81, -130786.29, 9484.36, -103524.60, -175739.56, 0.000, 0.000, 0.000, 13:01:51.713
118, -22187.64, -81183.86, -187500.02, -143847.00, -130914.56, 9499.80, -103521.14, -175849.89, 0.000, 0.000, 0.000, 13:01:51.713
119, -22235.78, -81308.18, -187500.02, -144029.66, -131098.47, 9461.40, -103576.02, -176021.80, 0.000, 0.000, 0.000, 13:01:51.713
120, -22319.47, -81403.64, -187500.02, -144195.50, -131263.28, 9448.75, -103615.91, -176178.91, 0.000, 0.000, 0.000, 13:01:52.158
121, -22296.11, -81441.82, -187500.02, -144298.97, -131358.52, 9500.41, -103583.48, -176260.58, 0.000, 0.000, 0.000, 13:01:52.159
122, -22178.21, -81491.64, -187500.02, -144409.09, -131456.97, 9545.58, -103549.57, -176340.48, 0.000, 0.000, 0.000, 13:01:52.159
123, -22191.91, -81594.08, -187500.02, -144577.16, -131616.92, 9532.44, -103579.52, -176487.05, 0.000, 0.000, 0.000, 13:01:52.159
124, -22304.74, -81645.16, -187500.02, -144703.89, -131737.00, 9559.59, -103575.05, -176598.83, 0.000, 0.000, 0.000, 13:01:52.160
125, -22284.85, -81697.27, -187500.02, -144825.28, -131849.69, 9592.16, -103561.40, -176699.05, 0.000, 0.000, 0.000, 13:01:52.160
126, -22224.81, -81768.13, -187500.02, -144961.27, -131970.44, 9614.74, -103553.80, -176801.94, -0.354, -0.056, -0.954, 13:01:52.161
127, -22237.95, -81870.05, -187500.02, -145132.69, -132128.33, 9600.48, -103581.71, -176945.28, 0.000, 0.000, 0.000, 13:01:52.161
128, -22321.14, -81966.44, -187500.02, -145312.31, -132297.38, 9580.47, -103622.77, -177104.06, 0.000, 0.000, 0.000, 13:01:52.161
129, -22306.10, -82015.19, -187500.02, -145434.75, -132410.41, 9613.66, -103609.12, -177203.23, 0.000, 0.000, 0.000, 13:01:52.161
130, -22210.39, -82066.77, -187500.02, -145548.39, -132512.67, 9652.47, -103580.23, -177286.45, 0.000, 0.000, 0.000, 13:01:52.162
131, -22188.22, -82173.52, -187500.02, -145720.56, -132672.78, 9634.12, -103607.46, -177428.34, 0.000, 0.000, 0.000, 13:01:52.162
132, -22314.95, -82237.95, -187500.02, -145860.34, -132801.98, 9649.36, -103611.04, -177548.34, 0.000, 0.000, 0.000, 13:01:52.162
133, -22318.55, -82289.27, -187500.02, -145983.38, -132916.36, 9677.32, -103600.29, -177652.47, 0.000, 0.000, 0.000, 13:01:52.163
134, -22217.66, -82339.64, -187500.02, -146095.44, -133017.73, 9715.41, -103572.88, -177739.08, 0.000, 0.000, 0.000, 13:01:52.163
135, -22177.51, -82429.95, -187500.02, -146247.34, -133157.98, 9715.27, -103580.75, -177860.16, -0.350, -0.058, -0.954, 13:01:52.163
136, -22293.90, -82510.48, -187500.02, -146402.17, -133300.56, 9712.68, -103598.14, -177992.13, 0.000, 0.000, 0.000, 13:01:52.164
137, -22347.72, -82532.14, -187500.02, -146497.44, -133386.53, 9765.01, -103563.09, -178070.91, 0.000, 0.000, 0.000, 13:01:52.164
138, -22271.61, -82599.10, -187500.02, -146628.36, -133506.88, 9782.80, -103557.33, -178176.61, 0.000, 0.000, 0.000, 13:01:52.164
139, -22167.61, -82681.58, -187500.02, -146771.09, -133637.55, 9788.63, -103558.06, -178289.28, 0.000, 0.000, 0.000, 13:01:52.165
140, -22238.85, -82793.63, -187500.02, -146954.48, -133812.67, 9754.55, -103608.24, -178452.88, 0.000, 0.000, 0.000, 13:01:52.165
141, -22413.35, -82843.14, -187500.02, -147079.64, -133926.16, 9782.96, -103599.30, -178556.64, 0.000, 0.000, 0.000, 13:01:52.165
142, -22352.32, -82876.40, -187500.02, -147179.44, -134012.20, 9833.36, -103558.04, -178629.80, 0.000, 0.000, 0.000, 13:01:52.165
143, -22084.91, -82954.27, -187500.02, -147321.89, -134142.02, 9839.08, -103562.52, -178747.36, 0.000, 0.000, 0.000, 13:01:52.166
144, -22152.61, -83020.32, -187500.02, -147461.14, -134270.48, 9849.25, -103568.52, -178866.67, 0.000, 0.000, 0.000, 13:01:52.166
145, -22453.02, -83085.39, -187500.02, -147595.52, -134393.08, 9865.34, -103565.48, -178975.84, -0.346, -0.060, -0.954, 13:01:52.166
146, -22402.95, -83139.70, -187500.02, -147715.83, -134500.91, 9894.83, -103542.48, -179065.50, 0.000, 0.000, 0.000, 13:01:52.167
147, -22049.01, -83170.91, -187500.02, -147810.98, -134588.31, 9942.55, -103504.22, -179137.64, 0.000, 0.000, 0.000, 13:01:52.167
148, -22118.30, -83258.34, -187500.02, -147965.66, -134737.23, 9929.23, -103531.29, -179277.56, 0.000, 0.000, 0.000, 13:01:52.167
149, -22480.33, -83322.45, -187500.02, -148095.59, -134858.13, 9945.32, -103524.72, -179381.02, 0.000, 0.000, 0.000, 13:01:52.168
150, -22443.14, -83383.63, -187500.02, -148220.56, -134972.59, 9967.94, -103511.13, -179477.53, 0.000, 0.000, 0.000, 13:01:52.168
151, -22076.46, -83419.81, -187500.02, -148324.70, -135067.42, 10009.63, -103482.59, -179558.89, 0.000, 0.000, 0.000, 13:01:52.168
152, -22042.04, -83505.20, -187500.02, -148481.98, -135216.89, 9997.73, -103510.03, -179697.83, 0.000, 0.000, 0.000, 13:01:52.169
153, -22442.63, -83599.97, -187500.02, -148648.13, -135370.50, 9980.79, -103537.16, -179834.70, 0.000, 0.000, 0.000, 13:01:52.169
154, -22454.16, -83685.66, -187500.02, -148801.92, -135510.63, 9978.78, -103550.73, -179956.06, 0.000, 0.000, 0.000, 13:01:52.169
155, -22131.36, -83738.28, -187500.02, -148923.28, -135619.94, 10003.28, -103537.99, -180052.73, -0.342, -0.058, -0.962, 13:01:52.170
156, -22013.43, -83794.88, -187500.02, -149048.56, -135738.39, 10019.24, -103534.59, -180160.80, 0.000, 0.000, 0.000, 13:01:52.170
157, -22387.15, -83875.48, -187500.02, -149197.48, -135878.27, 10014.03, -103548.07, -180284.78, 0.000, 0.000, 0.000, 13:01:52.170
158, -22500.09, -83976.38, -187500.02, -149366.80, -136035.66, 9993.02, -103577.71, -180422.00, 0.000, 0.000, 0.000, 13:01:52.171
159, -22219.04, -84023.69, -187500.02, -149482.47, -136142.77, 10021.99, -103560.55, -180513.84, 0.000, 0.000, 0.000, 13:01:52.171
160, -21990.38, -84047.12, -187500.02, -149573.83, -136227.70, 10069.37, -103523.15, -180589.06, 0.000, 0.000, 0.000, 13:01:52.171
161, -22290.05, -84122.15, -187500.02, -149716.14, -136361.78, 10067.65, -103531.47, -180709.36, 0.000, 0.000, 0.000, 13:01:52.172
162, -22510.84, -84203.60, -187500.02, -149864.95, -136497.27, 10066.15, -103540.14, -180825.55, 0.000, 0.000, 0.000, 13:01:52.172
163, -22269.40, -84243.37, -187500.02, -149970.16, -136591.44, 10102.05, -103511.46, -180905.52, 0.000, 0.000, 0.000, 13:01:52.172
164, -21960.30, -84300.48, -187500.02, -150091.11, -136707.22, 10116.13, -103508.82, -181012.58, 0.000, 0.000, 0.000, 13:01:52.172
165, -22227.98, -84411.88, -187500.02, -150270.13, -136878.70, 10076.70, -103558.42, -181171.48, -0.342, -0.058, -0.958, 13:01:52.173
166, -22518.31, -84493.34, -187500.02, -150417.41, -137016.22, 10073.33, -103566.65, -181289.88, 0.000, 0.000, 0.000, 13:01:52.173
167, -22331.69, -84507.79, -187500.02, -150495.88, -137087.27, 10135.04, -103511.30, -181344.70, 0.000, 0.000, 0.000, 13:01:52.173
168, -21993.20, -84543.30, -187500.02, -150594.81, -137183.25, 10168.48, -103485.87, -181429.64, 0.000, 0.000, 0.000, 13:01:52.174
169, -22168.57, -84640.45, -187500.02, -150757.81, -137340.83, 10141.08, -103521.50, -181573.55, 0.000, 0.000, 0.000, 13:01:52.174
170, -22521.55, -84694.52, -187500.02, -150875.88, -137448.97, 10163.14, -103501.76, -181661.36, 0.000, 0.000, 0.000, 13:01:52.174
171, -22383.60, -84729.41, -187500.02, -150975.28, -137537.36, 10205.52, -103465.55, -181733.47, 0.000, 0.000, 0.000, 13:01:52.175
172, -22032.36, -84777.80, -187500.02, -151088.64, -137646.83, 10227.51, -103454.84, -181831.28, 0.000, 0.000, 0.000, 13:01:52.175
173, -22105.56, -84848.94, -187500.02, -151228.13, -137780.86, 10223.33, -103469.26, -181954.19, 0.000, 0.000, 0.000, 13:01:52.175
174, -22477.96, -84932.70, -187500.02, -151375.70, -137921.69, 10213.32, -103483.37, -182074.84, 0.000, 0.000, 0.000, 13:01:52.176
175, -22424.28, -85012.33, -187500.02, -151518.72, -138056.14, 10208.82, -103493.87, -182191.64, -0.344, -0.062, -0.950, 13:01:52.176
176, -22085.33, -85062.22, -187500.02, -151634.83, -138162.05, 10231.26, -103481.76, -182286.89, 0.000, 0.000, 0.000, 13:01:52.176
177, -22047.51, -85142.91, -187500.02, -151784.67, -138303.98, 10217.23, -103505.09, -182419.67, 0.000, 0.000, 0.000, 13:01:52.177
178, -22445.08, -85231.65, -187500.02, -151940.88, -138451.14, 10199.82, -103525.99, -182548.08, 0.000, 0.000, 0.000, 13:01:52.177
179, -22489.03, -85297.18, -187500.02, -152070.69, -138571.25, 10210.23, -103520.65, -182649.03, 0.000, 0.000, 0.000, 13:01:52.177
180, -22147.61, -85357.73, -187500.02, -152198.41, -138690.31, 10222.30, -103518.39, -182753.27, 0.000, 0.000, 0.000, 13:01:52.177
181, -21988.21, -85375.08, -187500.02, -152281.47, -138768.70, 10272.41, -103476.48, -182822.16, 0.000, 0.000, 0.000, 13:01:52.178
182, -22396.60, -85467.05, -187500.02, -152439.05, -138918.55, 10250.40, -103503.21, -182956.16, 0.000, 0.000, 0.000, 13:01:52.178
183, -22515.54, -85548.10, -187500.02, -152584.09, -139053.73, 10245.19, -103513.41, -183069.77, 0.000, 0.000, 0.000, 13:01:52.178
184, -22187.48, -85603.69, -187500.02, -152706.31, -139167.33, 10260.86, -103504.95, -183167.13, 0.000, 0.000, 0.000, 13:01:52.179
185, -21952.52, -85703.31, -187500.02, -152875.42, -139328.13, 10227.73, -103547.91, -183318.03, -0.348, -0.060, -0.946, 13:01:52.179
186, -22305.34, -85775.98, -187500.02, -153017.17, -139455.88, 10225.77, -103556.99, -183430.56, 0.000, 0.000, 0.000, 13:01:52.179
187, -22512.47, -85842.88, -187500.02, -153148.06, -139574.50, 10234.04, -103552.74, -183529.66, 0.000, 0.000, 0.000, 13:01:52.180
188, -22277.02, -85887.60, -187500.02, -153255.95, -139674.80, 10260.30, -103532.65, -183614.67, 0.000, 0.000, 0.000, 13:01:52.180
189, -21997.76, -85917.55, -187500.02, -153349.66, -139764.64, 10297.96, -103502.52, -183693.36, 0.000, 0.000, 0.000, 13:01:52.180
190, -22253.26, -86028.76, -187500.02, -153526.91, -139936.48, 10255.45, -103551.54, -183850.38, 0.000, 0.000, 0.000, 13:01:52.181
191, -22540.75, -86080.74, -187500.02, -153641.91, -140041.20, 10278.38, -103532.13, -183936.25, 0.000, 0.000, 0.000, 13:01:52.181
192, -22340.88, -86124.98, -187500.02, -153746.63, -140141.00, 10307.10, -103510.08, -184019.98, 0.000, 0.000, 0.000, 13:01:52.181
193, -21982.47, -86174.63, -187500.02, -153860.22, -140250.53, 10322.95, -103504.38, -184119.22, 0.000, 0.000, 0.000, 13:01:52.182
194, -22134.78, -86263.67, -187500.02, -154016.28, -140399.81, 10299.33, -103536.61, -184257.41, 0.000, 0.000, 0.000, 13:01:52.182
195, -22526.27, -86347.89, -187500.02, -154166.48, -140540.03, 10289.27, -103552.19, -184376.25, -0.350, -0.068, -0.944, 13:01:52.182
196, -22423.09, -86360.56, -187500.02, -154239.25, -140607.59, 10350.33, -103495.66, -184424.86, 0.000, 0.000, 0.000, 13:01:52.183
197, -22009.58, -86397.91, -187500.02, -154338.14, -140705.03, 10380.55, -103476.52, -184510.66, 0.000, 0.000, 0.000, 13:01:52.183
198, -22068.30, -86494.37, -187500.02, -154500.92, -140866.48, 10347.52, -103520.34, -184658.64, 0.000, 0.000, 0.000, 13:01:52.183
199, -22481.14, -86561.82, -187500.02, -154633.13, -140991.58, 10350.38, -103521.12, -184761.66, 0.000, 0.000, 0.000, 13:01:52.183
200, -22445.04, -86593.83, -187500.02, -154728.97, -141078.42, 10388.96, -103485.24, -184826.61, 0.000, 0.000, 0.000, 13:01:52.183
201, -22095.53, -86635.05, -187500.02, -154835.11, -141179.73, 10413.43, -103467.59, -184912.20, 0.000, 0.000, 0.000, 13:01:52.183
202, -22026.37, -86713.19, -187500.02, -154978.66, -141320.33, 10398.34, -103490.34, -185040.08, 0.000, 0.000, 0.000, 13:01:52.183
203, -22423.69, -86841.58, -187500.02, -155174.61, -141509.14, 10338.31, -103556.50, -185208.36, 0.000, 0.000, 0.000, 13:01:52.184
204, -22478.72, -86906.24, -187500.02, -155304.41, -141631.91, 10344.03, -103555.49, -185308.97, 0.000, 0.000, 0.000, 13:01:52.184
205, -22155.05, -86952.89, -187500.02, -155416.70, -141738.83, 10364.68, -103542.91, -185399.58, -0.348, -0.066, -0.952, 13:01:52.184
206, -22004.38, -87010.63, -187500.02, -155541.88, -141860.70, 10370.07, -103548.68, -185509.73, 0.000, 0.000, 0.000, 13:01:52.184
207, -22407.78, -87060.66, -187500.02, -155652.95, -141967.25, 10387.73, -103534.95, -185600.44, 0.000, 0.000, 0.000, 13:01:52.184
208, -22517.62, -87104.66, -187500.02, -155756.50, -142064.31, 10415.04, -103508.51, -185676.66, 0.000, 0.000, 0.000, 13:01:52.184
209, -22243.07, -87152.38, -187500.02, -155866.94, -142169.52, 10433.88, -103495.19, -185764.66, 0.000, 0.000, 0.000, 13:01:52.185
210, -21973.31, -87181.21, -187500.02, -155959.94, -142258.97, 10464.50, -103468.23, -185841.34, 0.000, 0.000, 0.000, 13:01:52.185
211, -22290.46, -87279.89, -187500.02, -156123.39, -142418.06, 10429.79, -103507.70, -185982.84, 0.000, 0.000, 0.000, 13:01:52.185
212, -22543.01, -87334.05, -187500.02, -156238.44, -142525.83, 10448.01, -103494.30, -186069.23, 0.000, 0.000, 0.000, 13:01:52.185
213, -22294.75, -87376.20, -187500.02, -156343.31, -142624.52, 10472.13, -103476.59, -186151.09, 0.000, 0.000, 0.000, 13:01:52.185
214, -22003.23, -87454.84, -187500.02, -156488.47, -142765.58, 10454.94, -103503.30, -186279.86, 0.000, 0.000, 0.000, 13:01:52.185
215, -22239.92, -87537.30, -187500.02, -156635.41, -142909.42, 10436.59, -103528.78, -186406.86, -0.350, -0.058, -0.950, 13:01:52.186
216, -22535.95, -87619.02, -187500.02, -156778.86, -143045.50, 10424.74, -103544.61, -186520.47, 0.000, 0.000, 0.000, 13:01:52.186
217, -22344.88, -87666.27, -187500.02, -156889.55, -143147.31, 10445.55, -103529.12, -186603.11, 0.000, 0.000, 0.000, 13:01:52.186
218, -21981.58, -87696.13, -187500.02, -156980.88, -143235.97, 10478.30, -103504.22, -186678.20, 0.000, 0.000, 0.000, 13:01:52.186
219, -22158.71, -87795.26, -187500.02, -157142.19, -143396.94, 10441.30, -103547.85, -186823.94, 0.000, 0.000, 0.000, 13:01:52.186
220, -22505.68, -87870.70, -187500.02, -157279.92, -143525.17, 10435.38, -103555.13, -186930.69, 0.000, 0.000, 0.000, 13:01:52.186
221, -22381.67, -87874.80, -187500.02, -157342.89, -143581.44, 10500.02, -103493.24, -186966.81, 0.000, 0.000, 0.000, 13:01:52.186
222, -22023.04, -87899.51, -187500.02, -157428.03, -143667.94, 10534.33, -103465.02, -187037.33, 0.000, 0.000, 0.000, 13:01:52.187
223, -22054.73, -87994.39, -187500.02, -157584.53, -143825.95, 10498.23, -103508.42, -187180.78, 0.000, 0.000, 0.000, 13:01:52.187
224, -22472.46, -88068.80, -187500.02, -157722.86, -143958.97, 10489.83, -103519.02, -187291.03, 0.000, 0.000, 0.000, 13:01:52.187
225, -22450.94, -88149.29, -187500.02, -157866.08, -144097.42, 10476.64, -103537.21, -187407.61, -0.350, -0.060, -0.954, 13:01:52.187
226, -22097.22, -88218.02, -187500.02, -157999.63, -144227.28, 10471.88, -103553.26, -187500.02, 0.000, 0.000, 0.000, 13:01:52.187
227, -22017.90, -88266.56, -187500.02, -158112.75, -144337.59, 10485.38, -103548.45, -187500.02, 0.000, 0.000, 0.000, 13:01:52.187
228, -22435.56, -88348.38, -187500.02, -158255.00, -144476.23, 10469.98, -103566.18, -187500.02, 0.000, 0.000, 0.000, 13:01:52.187
229, -22499.73, -88420.50, -187500.02, -158388.66, -144602.14, 10469.07, -103571.74, -187500.02, 0.000, 0.000, 0.000, 13:01:52.188
230, -22158.09, -88473.30, -187500.02, -158503.33, -144714.06, 10481.27, -103566.60, -187500.02, 0.000, 0.000, 0.000, 13:01:52.188
231, -21983.99, -88528.41, -187500.02, -158623.33, -144830.66, 10485.09, -103570.85, -187500.02, 0.000, 0.000, 0.000, 13:01:52.188
232, -22354.16, -88584.19, -187500.02, -158739.33, -144941.72, 10493.70, -103565.59, -187500.02, 0.000, 0.000, 0.000, 13:01:52.188
233, -22510.08, -88646.28, -187500.02, -158860.41, -145057.94, 10500.13, -103561.55, -187500.02, 0.000, 0.000, 0.000, 13:01:52.188
234, -22241.17, -88687.88, -187500.02, -158961.56, -145157.63, 10522.82, -103544.63, -187500.02, 0.000, 0.000, 0.000, 13:01:52.188
235, -21975.52, -88740.13, -187500.02, -159075.91, -145272.19, 10529.48, -103546.66, -187500.02, -0.352, -0.054, -0.954, 13:01:52.188
236, -22303.29, -88853.81, -187500.02, -159254.31, -145447.31, 10478.92, -103606.73, -187500.02, 0.000, 0.000, 0.000, 13:01:52.189
237, -22527.56, -88926.16, -187500.02, -159389.33, -145574.72, 10474.65, -103614.95, -187500.02, 0.000, 0.000, 0.000, 13:01:52.189
238, -22280.80, -88958.06, -187500.02, -159483.92, -145664.02, 10504.63, -103589.07, -187500.02, 0.000, 0.000, 0.000, 13:01:52.189
239, -21964.57, -88983.55, -187500.02, -159573.97, -145750.58, 10534.67, -103563.77, -187500.02, 0.000, 0.000, 0.000, 13:01:52.189
240, -22180.84, -89074.38, -187500.02, -159726.14, -145903.06, 10500.74, -103600.58, -187500.02, 0.000, 0.000, 0.000, 13:01:52.638
241, -22522.98, -89136.16, -187500.02, -159843.59, -146018.27, 10506.28, -103595.84, -187500.02, 0.000, 0.000, 0.000, 13:01:52.638
242, -22350.49, -89161.98, -187500.02, -159925.91, -146099.13, 10545.06, -103558.89, -187500.02, 0.000, 0.000, 0.000, 13:01:52.638
243, -22030.62, -89195.68, -187500.02, -160020.31, -146192.16, 10568.91, -103539.58, -187500.02, 0.000, 0.000, 0.000, 13:01:52.638
244, -22117.36, -89239.02, -187500.02, -160125.70, -146295.72, 10581.45, -103529.08, -187500.02, -0.352, -0.056, -0.950, 13:01:52.639
245, -22466.43, -89322.93, -187500.02, -160268.38, -146434.59, 10561.94, -103549.34, -187500.02, 0.000, 0.000, 0.000, 13:01:52.639
246, -22416.23, -89359.32, -187500.02, -160364.86, -146525.36, 10589.90, -103522.64, -187500.02, 0.000, 0.000, 0.000, 13:01:52.639
247, -22053.79, -89398.64, -187500.02, -160464.98, -146623.06, 10609.84, -103507.77, -187500.02, 0.000, 0.000, 0.000, 13:01:52.639
248, -22036.88, -89469.72, -187500.02, -160599.56, -146756.19, 10593.99, -103530.35, -187500.02, 0.000, 0.000, 0.000, 13:01:52.640
249, -22436.81, -89548.22, -187500.02, -160741.64, -146890.09, 10576.60, -103549.41, -187500.02, 0.000, 0.000, 0.000, 13:01:52.640
250, -22454.94, -89574.23, -187500.02, -160827.36, -146970.27, 10615.36, -103511.88, -187500.02, 0.000, 0.000, 0.000, 13:01:52.640
251, -22114.39, -89608.97, -187500.02, -160921.00, -147062.88, 10640.91, -103489.73, -187500.02, 0.000, 0.000, 0.000, 13:01:52.640
252, -21999.82, -89645.76, -187500.02, -161016.78, -147160.61, 10659.48, -103475.48, -187500.02, 0.000, 0.000, 0.000, 13:01:52.641
253, -22396.31, -89689.14, -187500.02, -161113.77, -147259.59, 10676.62, -103457.15, -187500.02, 0.000, 0.000, 0.000, 13:01:52.641
254, -22494.26, -89759.28, -187500.02, -161237.75, -147384.69, 10669.60, -103462.24, -187500.02, -0.352, -0.060, -0.952, 13:01:52.641
255, -22206.48, -89796.25, -187500.02, -161334.86, -147480.78, 10692.76, -103443.00, -187500.02, 0.000, 0.000, 0.000, 13:01:52.642
0, -21958.44, -89835.30, -187500.02, -161433.28, -147581.09, 10710.31, -103431.69, -187500.02, 0.000, 0.000, 0.000, 13:01:52.642
1, -22277.04, -89938.68, -187500.02, -161595.75, -147743.03, 10667.79, -103478.56, -187500.02, 0.000, 0.000, 0.000, 13:01:52.642
2, -22519.83, -90008.84, -187500.02, -161725.55, -147867.09, 10663.23, -103485.04, -187500.02, 0.000, 0.000, 0.000, 13:01:52.643
3, -22280.96, -90019.44, -187500.02, -161794.23, -147933.14, 10712.92, -103437.63, -187500.02, 0.000, 0.000, 0.000, 13:01:52.643
4, -21965.15, -90094.89, -187500.02, -161929.31, -148070.83, 10691.64, -103466.60, -187500.02, 0.000, 0.000, 0.000, 13:01:52.643
5, -22242.47, -90150.69, -187500.02, -162045.98, -148186.34, 10691.98, -103469.87, -187500.02, 0.000, 0.000, 0.000, 13:01:52.644
6, -22508.70, -90213.90, -187500.02, -162166.75, -148303.31, 10692.60, -103472.41, -187500.02, 0.000, 0.000, 0.000, 13:01:52.644
7, -22316.12, -90270.69, -187500.02, -162282.08, -148416.09, 10697.52, -103472.28, -187500.02, 0.000, 0.000, 0.000, 13:01:52.644
8, -21986.38, -90285.51, -187500.02, -162358.95, -148492.63, 10737.91, -103437.50, -187500.02, -0.348, -0.064, -0.950, 13:01:52.645
9, -22145.41, -90339.35, -187500.02, -162474.47, -148607.95, 10738.14, -103440.12, -187500.02, 0.000, 0.000, 0.000, 13:01:52.645
10, -22457.60, -90426.39, -187500.02, -162621.31, -148752.86, 10712.03, -103465.82, -187500.02, 0.000, 0.000, 0.000, 13:01:52.646
11, -22340.75, -90459.63, -187500.02, -162712.47, -148844.06, 10737.84, -103438.41, -187500.02, 0.000, 0.000, 0.000, 13:01:52.646
12, -21998.94, -90493.27, -187500.02, -162803.70, -148938.98, 10760.29, -103418.48, -187500.02, 0.000, 0.000, 0.000, 13:01:52.646
13, -22078.98, -90556.37, -187500.02, -162927.98, -149063.20, 10751.23, -103429.61, -187500.02, 0.000, 0.000, 0.000, 13:01:52.647
14, -22474.86, -90613.90, -187500.02, -163043.28, -149175.30, 10754.25, -103424.96, -187500.02, 0.000, 0.000, 0.000, 13:01:52.647
15, -22414.73, -90647.66, -187500.02, -163134.36, -149262.39, 10783.02, -103395.68, -187500.02, 0.000, 0.000, 0.000, 13:01:52.647
16, -22059.65, -90699.98, -187500.02, -163248.00, -149374.16, 10786.21, -103394.85, -187500.02, 0.000, 0.000, 0.000, 13:01:52.648
17, -21995.88, -90805.05, -187500.02, -163416.25, -149541.59, 10732.84, -103453.05, -187500.02, 0.000, 0.000, 0.000, 13:01:52.648
18, -22425.15, -90875.08, -187500.02, -163547.34, -149666.52, 10723.34, -103464.59, -187500.02, -0.352, -0.062, -0.946, 13:01:52.648
19, -22464.31, -90928.97, -187500.02, -163658.91, -149774.97, 10732.01, -103457.98, -187500.02, 0.000, 0.000, 0.000, 13:01:52.649
20, -22136.23, -90948.59, -187500.02, -163737.03, -149854.81, 10769.54, -103426.15, -187500.02, 0.000, 0.000, 0.000, 13:01:52.649
21, -21994.29, -90969.38, -187500.02, -163813.89, -149936.38, 10801.64, -103396.80, -187500.02, 0.000, 0.000, 0.000, 13:01:52.649
22, -22381.49, -91068.76, -187500.02, -163969.03, -150093.02, 10760.26, -103439.76, -187500.02, 0.000, 0.000, 0.000, 13:01:52.650
23, -22490.21, -91094.13, -187500.02, -164048.81, -150171.02, 10797.55, -103401.47, -187500.02, 0.000, 0.000, 0.000, 13:01:52.650
24, -22199.51, -91121.87, -187500.02, -164135.61, -150258.56, 10823.70, -103374.45, -187500.02, 0.000, 0.000, 0.000, 13:01:52.650
25, -22007.62, -91164.25, -187500.02, -164239.05, -150365.64, 10830.38, -103371.02, -187500.02, 0.000, 0.000, 0.000, 13:01:52.651
26, -22319.85, -91242.66, -187500.02, -164376.05, -150504.55, 10805.95, -103395.61, -187500.02, 0.000, 0.000, 0.000, 13:01:52.651
27, -22505.79, -91347.98, -187500.02, -164543.09, -150667.53, 10760.98, -103441.12, -187500.02, 0.000, 0.000, 0.000, 13:01:52.652
28, -22277.69, -91371.31, -187500.02, -164625.83, -150747.69, 10795.65, -103409.31, -187500.02, -0.354, -0.060, -0.950, 13:01:52.652
29, -21955.69, -91387.02, -187500.02, -164700.28, -150821.09, 10831.61, -103376.61, -187500.02, 0.000, 0.000, 0.000, 13:01:52.652
30, -22207.42, -91475.05, -187500.02, -164843.63, -150968.13, 10798.95, -103410.34, -187500.02, 0.000, 0.000, 0.000, 13:01:52.653
31, -22482.08, -91564.01, -187500.02, -164989.44, -151112.56, 10771.37, -103438.20, -187500.02, 0.000, 0.000, 0.000, 13:01:52.653
32, -22303.44, -91595.91, -187500.02, -165077.63, -151200.97, 10798.51, -103412.11, -187500.02, 0.000, 0.000, 0.000, 13:01:52.653
33, -21973.11, -91625.20, -187500.02, -165165.84, -151293.44, 10820.95, -103392.62, -187500.02, 0.000, 0.000, 0.000, 13:01:52.654
34, -22153.86, -91706.25, -187500.02, -165305.52, -151435.83, 10791.15, -103424.00, -187500.02, 0.000, 0.000, 0.000, 13:01:52.654
35, -22505.48, -91750.82, -187500.02, -165404.61, -151532.39, 10805.12, -103405.73, -187500.02, 0.000, 0.000, 0.000, 13:01:52.655
36, -22382.61, -91802.73, -187500.02, -165510.55, -151639.06, 10812.16, -103397.55, -187500.02, 0.000, 0.000, 0.000, 13:01:52.655
37, -22024.65, -91869.47, -187500.02, -165635.94, -151765.72, 10798.64, -103415.84, -187500.02, 0.000, 0.000, 0.000, 13:01:52.655
38, -22054.71, -91906.88, -187500.02, -165733.95, -151862.08, 10810.89, -103404.48, -187500.02, -0.350, -0.058, -0.954, 13:01:52.656
39, -22438.54, -91985.70, -187500.02, -165870.64, -151996.55, 10789.57, -103423.48, -187500.02, 0.000, 0.000, 0.000, 13:01:52.656
40, -22411.33, -92037.15, -187500.02, -165979.53, -152104.80, 10797.32, -103417.65, -187500.02, 0.000, 0.000, 0.000, 13:01:52.656
41, -22068.35, -92061.60, -187500.02, -166062.55, -152189.17, 10824.79, -103394.14, -187500.02, 0.000, 0.000, 0.000, 13:01:52.657
42, -22008.71, -92121.35, -187500.02, -166182.39, -152311.47, 10813.77, -103408.51, -187500.02, 0.000, 0.000, 0.000, 13:01:52.657
43, -22429.10, -92183.02, -187500.02, -166303.88, -152431.34, 10807.47, -103414.73, -187500.02, 0.000, 0.000, 0.000, 13:01:52.657
44, -22485.38, -92245.80, -187500.02, -166420.52, -152548.27, 10803.31, -103419.04, -187500.02, 0.000, 0.000, 0.000, 13:01:52.658
45, -22114.77, -92261.59, -187500.02, -166492.03, -152621.94, 10840.53, -103383.38, -187500.02, 0.000, 0.000, 0.000, 13:01:52.658
46, -21964.01, -92293.13, -187500.02, -166579.83, -152713.44, 10858.10, -103367.96, -187500.02, 0.000, 0.000, 0.000, 13:01:52.658
47, -22356.26, -92368.60, -187500.02, -166713.08, -152843.61, 10837.44, -103390.47, -187500.02, 0.000, 0.000, 0.000, 13:01:52.659
48, -22481.23, -92399.29, -187500.02, -166799.48, -152926.27, 10866.12, -103361.77, -187500.02, -0.344, -0.058, -0.950, 13:01:52.659
49, -22204.74, -92420.80, -187500.02, -166875.70, -153002.84, 10898.29, -103330.26, -187500.02, 0.000, 0.000, 0.000, 13:01:52.659
50, -21962.31, -92473.59, -187500.02, -166985.83, -153115.80, 10895.29, -103337.19, -187500.02, 0.000, 0.000, 0.000, 13:01:52.660
51, -22308.94, -92546.61, -187500.02, -167115.09, -153245.86, 10872.38, -103357.13, -187500.02, 0.000, 0.000, 0.000, 13:01:52.660
52, -22520.21, -92614.27, -187500.02, -167237.00, -153365.28, 10860.69, -103364.25, -187500.02, 0.000, 0.000, 0.000, 13:01:52.661
53, -22268.17, -92657.39, -187500.02, -167333.98, -153462.44, 10872.54, -103352.49, -187500.02, 0.000, 0.000, 0.000, 13:01:52.661
54, -21986.14, -92672.88, -187500.02, -167404.28, -153537.69, 10904.48, -103322.14, -187500.02, 0.000, 0.000, 0.000, 13:01:52.661
55, -22210.75, -92746.13, -187500.02, -167533.34, -153671.61, 10880.69, -103347.09, -187500.02, 0.000, 0.000, 0.000, 13:01:52.662
56, -22467.41, -92817.76, -187500.02, -167661.34, -153797.50, 10866.55, -103362.11, -187500.02, 0.000, 0.000, 0.000, 13:01:52.662
57, -22303.04, -92833.19, -187500.02, -167735.05, -153869.88, 10904.61, -103327.15, -187500.02, 0.000, 0.000, 0.000, 13:01:52.662
58, -21969.02, -92816.76, -187500.02, -167775.70, -153915.02, 10968.63, -103266.15, -187500.02, -0.344, -0.066, -0.956, 13:01:52.662
59, -22107.46, -92872.97, -187500.02, -167884.95, -154030.36, 10960.76, -103274.94, -187500.02, 0.000, 0.000, 0.000, 13:01:52.662
60, -22478.72, -92980.82, -187500.02, -168049.63, -154192.20, 10908.17, -103329.63, -187500.02, 0.000, 0.000, 0.000, 13:01:52.663
61, -22388.80, -93018.13, -187500.02, -168142.27, -154283.78, 10925.85, -103315.10, -187500.02, 0.000, 0.000, 0.000, 13:01:52.663
62, -22056.86, -93007.70, -187500.02, -168185.86, -154332.20, 10985.41, -103260.30, -187500.02, 0.000, 0.000, 0.000, 13:01:52.663
63, -22069.44, -93065.48, -187500.02, -168298.11, -154450.70, 10974.33, -103275.09, -187500.02, 0.000, 0.000, 0.000, 13:01:52.663
64, -22432.39, -93152.66, -187500.02, -168441.38, -154592.75, 10943.59, -103310.25, -187500.02, 0.000, 0.000, 0.000, 13:01:52.663
65, -22422.00, -93182.97, -187500.02, -168524.59, -154677.23, 10968.47, -103287.43, -187500.02, 0.000, 0.000, 0.000, 13:01:52.663
66, -22073.31, -93232.41, -187500.02, -168630.66, -154787.08, 10967.42, -103294.65, -187500.02, 0.000, 0.000, 0.000, 13:01:52.664
67, -22010.92, -93265.11, -187500.02, -168720.08, -154881.77, 10980.63, -103288.03, -187500.02, 0.000, 0.000, 0.000, 13:01:52.664
68, -22451.52, -93339.25, -187500.02, -168850.34, -155015.02, 10957.58, -103312.93, -187500.02, -0.348, -0.054, -0.956, 13:01:52.664
69, -22480.40, -93353.31, -187500.02, -168917.30, -155083.70, 10997.33, -103271.83, -187500.02, 0.000, 0.000, 0.000, 13:01:52.664
70, -22102.70, -93380.22, -187500.02, -168998.53, -155168.47, 11019.81, -103251.63, -187500.02, 0.000, 0.000, 0.000, 13:01:52.664
71, -21937.83, -93466.50, -187500.02, -169142.53, -155314.53, 10979.67, -103296.66, -187500.02, 0.000, 0.000, 0.000, 13:01:52.665
72, -22340.48, -93521.04, -187500.02, -169250.55, -155422.33, 10976.81, -103300.10, -187500.02, 0.000, 0.000, 0.000, 13:01:52.665
73, -22523.90, -93574.28, -187500.02, -169356.50, -155528.59, 10978.98, -103299.86, -187500.02, 0.000, 0.000, 0.000, 13:01:52.665
74, -22267.10, -93527.20, -187500.02, -169362.31, -155537.27, 11075.76, -103203.97, -187500.02, 0.000, 0.000, 0.000, 13:01:52.665
75, -21932.18, -93552.13, -187500.02, -169440.59, -155624.31, 11091.56, -103189.98, -187500.02, 0.000, 0.000, 0.000, 13:01:52.665
76, -22240.07, -93662.73, -187500.02, -169603.67, -155796.64, 11026.09, -103257.66, -187500.02, 0.000, 0.000, 0.000, 13:01:52.665
77, -22498.66, -93729.87, -187500.02, -169725.58, -155918.70, 11012.32, -103271.85, -187500.02, 0.000, 0.000, 0.000, 13:01:52.666
78, -22279.95, -93747.98, -187500.02, -169798.98, -155993.41, 11045.02, -103242.55, -187500.02, -0.352, -0.056, -0.950, 13:01:52.666
79, -21964.16, -93752.65, -187500.02, -169856.73, -156057.45, 11085.82, -103204.17, -187500.02, 0.000, 0.000, 0.000, 13:01:52.666
80, -22207.80, -93846.05, -187500.02, -170004.56, -156209.78, 11037.67, -103254.80, -187500.02, 0.000, 0.000, 0.000, 13:01:52.666
81, -22520.19, -93893.66, -187500.02, -170105.28, -156309.86, 11043.13, -103250.30, -187500.02, 0.000, 0.000, 0.000, 13:01:52.666
82, -22328.52, -93928.98, -187500.02, -170192.84, -156401.88, 11059.84, -103237.95, -187500.02, 0.000, 0.000, 0.000, 13:01:52.666
83, -22020.11, -93947.33, -187500.02, -170266.39, -156482.34, 11086.15, -103217.11, -187500.02, 0.000, 0.000, 0.000, 13:01:52.667
84, -22139.20, -94010.20, -187500.02, -170384.03, -156607.69, 11065.63, -103240.11, -187500.02, 0.000, 0.000, 0.000, 13:01:52.667
85, -22476.71, -94061.70, -187500.02, -170487.20, -156713.50, 11066.77, -103240.20, -187500.02, 0.000, 0.000, 0.000, 13:01:52.667
86, -22375.50, -94091.77, -187500.02, -170570.41, -156800.52, 11087.45, -103221.65, -187500.02, 0.000, 0.000, 0.000, 13:01:52.667
87, -22005.89, -94161.39, -187500.02, -170697.52, -156931.45, 11064.02, -103253.26, -187500.02, 0.000, 0.000, 0.000, 13:01:52.667
88, -22031.02, -94224.22, -187500.02, -170816.39, -157055.78, 11046.70, -103277.82, -187500.02, -0.360, -0.060, -0.954, 13:01:52.667
89, -22437.73, -94293.24, -187500.02, -170937.80, -157179.63, 11028.10, -103298.09, -187500.02, 0.000, 0.000, 0.000, 13:01:52.668
90, -22440.39, -94319.64, -187500.02, -171014.63, -157259.47, 11053.23, -103271.90, -187500.02, 0.000, 0.000, 0.000, 13:01:52.668
91, -22094.90, -94310.03, -187500.02, -171055.91, -157310.36, 11107.79, -103217.88, -187500.02, 0.000, 0.000, 0.000, 13:01:52.668
92, -21968.12, -94366.80, -187500.02, -171167.16, -157430.84, 11091.00, -103236.24, -187500.02, 0.000, 0.000, 0.000, 13:01:52.668
93, -22370.16, -94414.59, -187500.02, -171268.02, -157535.64, 11091.34, -103234.75, -187500.02, 0.000, 0.000, 0.000, 13:01:52.668
94, -22484.16, -94471.73, -187500.02, -171375.05, -157646.78, 11086.76, -103238.62, -187500.02, 0.000, 0.000, 0.000, 13:01:52.668
95, -22167.28, -94477.36, -187500.02, -171434.16, -157708.47, 11129.36, -103197.76, -187500.02, 0.000, 0.000, 0.000, 13:01:52.669
96, -21934.30, -94486.38, -187500.02, -171497.94, -157778.81, 11161.70, -103168.07, -187500.02, 0.000, 0.000, 0.000, 13:01:52.669
97, -22301.56, -94563.09, -187500.02, -171629.14, -157914.83, 11128.40, -103203.70, -187500.02, -0.350, -0.060, -0.954, 13:01:52.669
98, -22488.07, -94652.59, -187500.02, -171772.72, -158057.58, 11091.09, -103244.76, -187500.02, 0.000, 0.000, 0.000, 13:01:52.669
99, -22228.94, -94655.23, -187500.02, -171829.23, -158117.52, 11136.20, -103202.60, -187500.02, 0.000, 0.000, 0.000, 13:01:52.669
100, -21947.71, -94672.62, -187500.02, -171900.63, -158195.41, 11159.98, -103182.89, -187500.02, 0.000, 0.000, 0.000, 13:01:52.670
101, -22243.58, -94738.07, -187500.02, -172017.36, -158315.41, 11140.33, -103203.61, -187500.02, 0.000, 0.000, 0.000, 13:01:52.670
102, -22518.24, -94790.44, -187500.02, -172121.13, -158420.05, 11140.09, -103202.11, -187500.02, 0.000, 0.000, 0.000, 13:01:52.670
103, -22308.74, -94807.71, -187500.02, -172191.73, -158491.63, 11171.25, -103172.01, -187500.02, 0.000, 0.000, 0.000, 13:01:52.670
104, -21956.92, -94802.48, -187500.02, -172238.11, -158544.97, 11218.34, -103124.95, -187500.02, 0.000, 0.000, 0.000, 13:01:53.119
105, -22146.35, -94913.75, -187500.02, -172407.02, -158719.00, 11147.04, -103197.27, -187500.02, 0.000, 0.000, 0.000, 13:01:53.119
106, -22491.76, -94992.50, -187500.02, -172541.72, -158851.83, 11118.29, -103227.41, -187500.02, 0.000, 0.000, 0.000, 13:01:53.120
107, -22371.39, -95011.32, -187500.02, -172613.42, -158924.30, 11147.04, -103201.29, -187500.02, -0.348, -0.058, -0.950, 13:01:53.120
108, -22004.20, -95041.00, -187500.02, -172697.86, -159013.59, 11160.36, -103193.73, -187500.02, 0.000, 0.000, 0.000, 13:01:53.120
109, -22078.45, -95072.88, -187500.02, -172782.98, -159103.80, 11171.78, -103184.43, -187500.02, 0.000, 0.000, 0.000, 13:01:53.121
110, -22459.84, -95101.69, -187500.02, -172863.31, -159186.53, 11191.72, -103161.92, -187500.02, 0.000, 0.000, 0.000, 13:01:53.121
111, -22413.30, -95139.08, -187500.02, -172953.34, -159279.00, 11202.20, -103149.97, -187500.02, 0.000, 0.000, 0.000, 13:01:53.121
112, -22072.48, -95180.56, -187500.02, -173052.81, -159380.72, 11202.11, -103153.92, -187500.02, 0.000, 0.000, 0.000, 13:01:53.121
113, -21996.66, -95249.01, -187500.02, -173178.20, -159509.36, 11173.03, -103184.97, -187500.02, 0.000, 0.000, 0.000, 13:01:53.122
114, -22398.75, -95335.23, -187500.02, -173318.38, -159652.38, 11132.69, -103224.64, -187500.02, 0.000, 0.000, 0.000, 13:01:53.122
115, -22443.77, -95371.88, -187500.02, -173406.14, -159743.83, 11143.42, -103211.68, -187500.02, 0.000, 0.000, 0.000, 13:01:53.122
116, -22099.88, -95345.74, -187500.02, -173430.17, -159773.81, 11211.70, -103142.39, -187500.02, 0.000, 0.000, 0.000, 13:01:53.123
117, -21976.08, -95375.88, -187500.02, -173513.25, -159863.84, 11218.23, -103135.10, -187500.02, -0.356, -0.062, -0.946, 13:01:53.123
118, -22376.08, -95440.25, -187500.02, -173630.67, -159984.77, 11196.84, -103153.72, -187500.02, 0.000, 0.000, 0.000, 13:01:53.123
119, -22501.84, -95496.08, -187500.02, -173737.38, -160094.41, 11190.20, -103160.09, -187500.02, 0.000, 0.000, 0.000, 13:01:53.124
120, -22167.61, -95521.52, -187500.02, -173816.03, -160177.20, 11210.83, -103142.68, -187500.02, 0.000, 0.000, 0.000, 13:01:53.124
121, -21932.13, -95545.23, -187500.02, -173891.89, -160261.08, 11226.03, -103129.38, -187500.02, 0.000, 0.000, 0.000, 13:01:53.124
122, -22305.43, -95619.44, -187500.02, -174018.06, -160392.22, 11194.78, -103160.16, -187500.02, 0.000, 0.000, 0.000, 13:01:53.125
123, -22516.39, -95637.73, -187500.02, -174087.61, -160463.09, 11224.33, -103127.88, -187500.02, 0.000, 0.000, 0.000, 13:01:53.125
124, -22258.71, -95626.05, -187500.02, -174125.47, -160507.02, 11278.20, -103070.46, -187500.02, 0.000, 0.000, 0.000, 13:01:53.125
125, -21967.88, -95662.40, -187500.02, -174212.48, -160604.98, 11279.54, -103070.23, -187500.02, 0.000, 0.000, 0.000, 13:01:53.126
126, -22207.37, -95727.73, -187500.02, -174329.98, -160728.66, 11255.98, -103094.11, -187500.02, 0.000, 0.000, 0.000, 13:01:53.126
127, -22497.41, -95771.45, -187500.02, -174425.31, -160825.13, 11262.17, -103085.70, -187500.02, -0.354, -0.064, -0.948, 13:01:53.126
128, -22289.43, -95854.02, -187500.02, -174562.58, -160966.53, 11225.81, -103124.84, -187500.02, 0.000, 0.000, 0.000, 13:01:53.127
129, -21954.26, -95890.86, -187500.02, -174657.84, -161067.84, 11227.57, -103130.81, -187500.02, 0.000, 0.000, 0.000, 13:01:53.127
130, -22102.41, -95920.85, -187500.02, -174742.53, -161158.67, 11236.71, -103124.55, -187500.02, 0.000, 0.000, 0.000, 13:01:53.127
131, -22475.04, -95964.02, -187500.02, -174838.02, -161254.78, 11238.88, -103119.32, -187500.02, 0.000, 0.000, 0.000, 13:01:53.128
132, -22366.92, -95985.23, -187500.02, -174910.91, -161331.00, 11262.13, -103097.55, -187500.02, 0.000, 0.000, 0.000, 13:01:53.128
133, -22005.11, -96001.16, -187500.02, -174978.41, -161405.58, 11285.40, -103076.16, -187500.02, 0.000, 0.000, 0.000, 13:01:53.128
134, -22048.59, -96085.77, -187500.02, -175117.86, -161549.00, 11239.10, -103123.68, -187500.02, 0.000, 0.000, 0.000, 13:01:53.129
135, -22463.14, -96131.20, -187500.02, -175217.75, -161647.36, 11238.79, -103119.84, -187500.02, 0.000, 0.000, 0.000, 13:01:53.129
136, -22413.86, -96138.78, -187500.02, -175277.14, -161707.13, 11276.43, -103077.21, -187500.02, 0.000, 0.000, 0.000, 13:01:53.129
137, -22065.24, -96158.07, -187500.02, -175347.34, -161784.52, 11297.06, -103054.97, -187500.02, -0.348, -0.060, -0.946, 13:01:53.130
138, -22013.25, -96220.66, -187500.02, -175464.77, -161907.58, 11272.05, -103081.86, -187500.02, 0.000, 0.000, 0.000, 13:01:53.130
139, -22408.21, -96302.35, -187500.02, -175598.97, -162042.47, 11234.28, -103118.52, -187500.02, 0.000, 0.000, 0.000, 13:01:53.130
140, -22457.09, -96327.23, -187500.02, -175673.78, -162119.92, 11256.54, -103094.80, -187500.02, 0.000, 0.000, 0.000, 13:01:53.131
141, -22129.37, -96302.13, -187500.02, -175695.52, -162152.28, 11322.37, -103025.96, -187500.02, 0.000, 0.000, 0.000, 13:01:53.131
142, -21959.83, -96344.20, -187500.02, -175787.50, -162255.98, 11316.11, -103032.38, -187500.02, 0.000, 0.000, 0.000, 13:01:53.131
143, -22330.96, -96453.83, -187500.02, -175948.56, -162421.05, 11248.94, -103099.14, -187500.02, 0.000, 0.000, 0.000, 13:01:53.132
144, -22478.34, -96510.72, -187500.02, -176056.58, -162529.14, 11238.75, -103106.49, -187500.02, 0.000, 0.000, 0.000, 13:01:53.132
145, -22182.68, -96508.62, -187500.02, -176103.31, -162582.27, 11283.79, -103060.38, -187500.02, 0.000, 0.000, 0.000, 13:01:53.132
146, -21940.45, -96524.53, -187500.02, -176169.45, -162658.31, 11303.34, -103040.98, -187500.02, 0.000, 0.000, 0.000, 13:01:53.133
147, -22284.51, -96576.48, -187500.02, -176271.45, -162766.58, 11291.05, -103051.13, -187500.02, -0.350, -0.060, -0.950, 13:01:53.133
148, -22514.87, -96631.08, -187500.02, -176375.48, -162874.88, 11281.80, -103058.44, -187500.02, 0.000, 0.000, 0.000, 13:01:53.134
149, -22260.59, -96641.02, -187500.02, -176435.97, -162940.80, 11312.98, -103025.71, -187500.02, 0.000, 0.000, 0.000, 13:01:53.134
150, -21945.08, -96667.24, -187500.02, -176513.98, -163025.81, 11321.05, -103016.68, -187500.02, 0.000, 0.000, 0.000, 13:01:53.134
151, -22188.44, -96729.90, -187500.02, -176628.39, -163146.19, 11296.28, -103039.30, -187500.02, 0.000, 0.000, 0.000, 13:01:53.135
152, -22499.20, -96812.53, -187500.02, -176763.72, -163284.66, 11257.41, -103076.12, -187500.02, 0.000, 0.000, 0.000, 13:01:53.135
153, -22318.08, -96842.93, -187500.02, -176847.72, -163370.09, 11269.28, -103065.32, -187500.02, 0.000, 0.000, 0.000, 13:01:53.135
154, -21973.08, -96861.80, -187500.02, -176920.67, -163447.38, 11286.87, -103049.61, -187500.02, 0.000, 0.000, 0.000, 13:01:53.136
155, -22127.24, -96914.84, -187500.02, -177024.83, -163560.36, 11270.80, -103066.23, -187500.02, 0.000, 0.000, 0.000, 13:01:53.136
156, -22495.09, -96989.78, -187500.02, -177150.44, -163689.22, 11240.67, -103093.75, -187500.02, 0.000, 0.000, 0.000, 13:01:53.136
157, -22378.05, -97009.34, -187500.02, -177220.06, -163762.78, 11265.37, -103066.30, -187500.02, -0.350, -0.062, -0.948, 13:01:53.137
158, -22030.04, -97005.41, -187500.02, -177265.22, -163818.09, 11309.16, -103023.50, -187500.02, 0.000, 0.000, 0.000, 13:01:53.137
159, -22068.90, -97031.13, -187500.02, -177337.75, -163901.53, 11320.85, -103009.48, -187500.02, 0.000, 0.000, 0.000, 13:01:53.138
160, -22479.37, -97107.64, -187500.02, -177465.38, -164033.02, 11286.71, -103040.40, -187500.02, 0.000, 0.000, 0.000, 13:01:53.138
161, -22421.41, -97166.61, -187500.02, -177577.92, -164149.06, 11269.59, -103056.13, -187500.02, 0.000, 0.000, 0.000, 13:01:53.139
162, -22052.28, -97220.12, -187500.02, -177687.52, -164263.45, 11253.70, -103075.20, -187500.02, 0.000, 0.000, 0.000, 13:01:53.139
163, -21984.46, -97259.59, -187500.02, -177782.11, -164363.75, 11249.16, -103083.85, -187500.02, 0.000, 0.000, 0.000, 13:01:53.139
164, -22429.01, -97313.50, -187500.02, -177887.73, -164472.33, 11235.57, -103096.66, -187500.02, 0.000, 0.000, 0.000, 13:01:53.140
165, -22497.07, -97371.88, -187500.02, -177996.64, -164583.42, 11221.45, -103109.31, -187500.02, 0.000, 0.000, 0.000, 13:01:53.140
166, -22128.63, -97329.13, -187500.02, -178002.83, -164595.48, 11305.36, -103024.80, -187500.02, 0.000, 0.000, 0.000, 13:01:53.140
167, -21954.42, -97348.41, -187500.02, -178071.42, -164672.92, 11322.14, -103008.16, -187500.02, -0.348, -0.064, -0.954, 13:01:53.141
168, -22304.40, -97471.22, -187500.02, -178245.86, -164851.70, 11240.02, -103091.98, -187500.02, 0.000, 0.000, 0.000, 13:01:53.141
169, -22475.62, -97497.99, -187500.02, -178323.81, -164930.55, 11257.54, -103071.76, -187500.02, 0.000, 0.000, 0.000, 13:01:53.141
170, -22178.32, -97476.67, -187500.02, -178350.94, -164964.50, 11319.50, -103007.38, -187500.02, 0.000, 0.000, 0.000, 13:01:53.142
171, -21925.09, -97511.80, -187500.02, -178436.45, -165058.86, 11319.77, -103008.73, -187500.02, 0.000, 0.000, 0.000, 13:01:53.142
172, -22239.29, -97597.30, -187500.02, -178575.81, -165204.38, 11271.40, -103057.34, -187500.02, 0.000, 0.000, 0.000, 13:01:53.142
173, -22494.77, -97656.94, -187500.02, -178688.05, -165318.77, 11255.87, -103070.91, -187500.02, 0.000, 0.000, 0.000, 13:01:53.143
174, -22284.78, -97683.52, -187500.02, -178766.77, -165402.55, 11271.34, -103055.87, -187500.02, 0.000, 0.000, 0.000, 13:01:53.143
175, -21939.06, -97709.58, -187500.02, -178846.94, -165486.91, 11282.45, -103046.75, -187500.02, 0.000, 0.000, 0.000, 13:01:53.143
176, -22159.94, -97787.54, -187500.02, -178979.59, -165622.31, 11242.75, -103088.16, -187500.02, 0.000, 0.000, 0.000, 13:01:53.143
177, -22504.56, -97855.60, -187500.02, -179099.47, -165743.08, 11219.70, -103110.20, -187500.02, -0.348, -0.060, -0.958, 13:01:53.143
178, -22332.07, -97835.68, -187500.02, -179127.20, -165777.14, 11282.36, -103045.92, -187500.02, 0.000, 0.000, 0.000, 13:01:53.143
179, -21980.68, -97847.09, -187500.02, -179188.25, -165848.28, 11304.82, -103023.57, -187500.02, 0.000, 0.000, 0.000, 13:01:53.143
180, -22113.63, -97911.73, -187500.02, -179304.45, -165972.00, 11276.21, -103054.86, -187500.02, 0.000, 0.000, 0.000, 13:01:53.144
181, -22483.24, -97935.33, -187500.02, -179373.69, -166047.55, 11297.76, -103031.23, -187500.02, 0.000, 0.000, 0.000, 13:01:53.144
182, -22380.20, -97954.84, -187500.02, -179435.19, -166118.41, 11322.14, -103004.01, -187500.02, 0.000, 0.000, 0.000, 13:01:53.144
183, -22030.84, -97999.72, -187500.02, -179528.52, -166219.56, 11316.98, -103012.39, -187500.02, 0.000, 0.000, 0.000, 13:01:53.144
184, -22035.62, -98045.12, -187500.02, -179626.23, -166323.58, 11307.14, -103024.08, -187500.02, 0.000, 0.000, 0.000, 13:01:53.144
185, -22465.02, -98097.96, -187500.02, -179729.64, -166431.00, 11295.39, -103035.57, -187500.02, 0.000, 0.000, 0.000, 13:01:53.144
186, -22451.32, -98099.44, -187500.02, -179778.81, -166483.83, 11337.12, -102991.56, -187500.02, 0.000, 0.000, 0.000, 13:01:53.145
187, -22110.59, -98118.50, -187500.02, -179845.64, -166559.14, 11354.28, -102973.14, -187500.02, -0.346, -0.050, -0.950, 13:01:53.145
188, -21987.10, -98203.77, -187500.02, -179982.66, -166704.92, 11302.45, -103028.04, -187500.02, 0.000, 0.000, 0.000, 13:01:53.145
189, -22373.20, -98256.30, -187500.02, -180088.16, -166812.81, 11290.18, -103038.23, -187500.02, 0.000, 0.000, 0.000, 13:01:53.145
190, -22457.74, -98288.91, -187500.02, -180168.33, -166894.97, 11303.03, -103023.43, -187500.02, 0.000, 0.000, 0.000, 13:01:53.145
191, -22161.40, -98280.77, -187500.02, -180206.39, -166939.73, 11350.55, -102974.98, -187500.02, 0.000, 0.000, 0.000, 13:01:53.145
192, -21968.17, -98311.04, -187500.02, -180286.06, -167029.48, 11352.41, -102972.96, -187500.02, 0.000, 0.000, 0.000, 13:01:53.145
193, -22307.53, -98384.59, -187500.02, -180407.42, -167158.72, 11317.74, -103007.25, -187500.02, 0.000, 0.000, 0.000, 13:01:53.146
194, -22494.37, -98453.38, -187500.02, -180524.89, -167279.20, 11293.84, -103032.06, -187500.02, 0.000, 0.000, 0.000, 13:01:53.146
195, -22225.19, -98446.38, -187500.02, -180568.20, -167326.31, 11339.96, -102987.60, -187500.02, 0.000, 0.000, 0.000, 13:01:53.146
196, -21930.44, -98414.98, -187500.02, -180585.97, -167355.38, 11402.63, -102923.01, -187500.02, 0.000, 0.000, 0.000, 13:01:53.146
197, -22234.11, -98493.85, -187500.02, -180713.92, -167495.31, 11359.11, -102963.60, -187500.02, -0.352, -0.054, -0.950, 13:01:53.146
198, -22498.42, -98555.72, -187500.02, -180822.59, -167611.03, 11342.01, -102978.15, -187500.02, 0.000, 0.000, 0.000, 13:01:53.146
199, -22277.69, -98575.84, -187500.02, -180890.63, -167685.75, 11362.38, -102955.71, -187500.02, 0.000, 0.000, 0.000, 13:01:53.146
200, -21929.52, -98575.23, -187500.02, -180940.25, -167743.98, 11394.72, -102922.54, -187500.02, 0.000, 0.000, 0.000, 13:01:53.147
201, -22136.85, -98687.73, -187500.02, -181103.78, -167916.47, 11313.65, -103002.91, -187500.02, 0.000, 0.000, 0.000, 13:01:53.147
202, -22478.17, -98765.36, -187500.02, -181233.06, -168047.58, 11278.87, -103039.62, -187500.02, 0.000, 0.000, 0.000, 13:01:53.147
203, -22335.47, -98776.55, -187500.02, -181293.94, -168112.30, 11309.38, -103008.46, -187500.02, 0.000, 0.000, 0.000, 13:01:53.147
204, -21990.63, -98764.15, -187500.02, -181328.77, -168156.13, 11356.83, -102958.84, -187500.02, 0.000, 0.000, 0.000, 13:01:53.147
205, -22063.72, -98791.51, -187500.02, -181403.38, -168242.84, 11360.63, -102951.33, -187500.02, 0.000, 0.000, 0.000, 13:01:53.147
206, -22448.28, -98851.03, -187500.02, -181510.78, -168356.81, 11339.29, -102969.27, -187500.02, -0.348, -0.054, -0.944, 13:01:53.147
207, -22390.50, -98865.43, -187500.02, -181572.20, -168424.59, 11366.46, -102941.31, -187500.02, 0.000, 0.000, 0.000, 13:01:53.148
208, -22043.33, -98884.41, -187500.02, -181637.84, -168500.78, 11386.18, -102923.97, -187500.02, 0.000, 0.000, 0.000, 13:01:53.148
209, -22010.68, -98921.87, -187500.02, -181723.14, -168596.78, 11384.37, -102927.12, -187500.02, 0.000, 0.000, 0.000, 13:01:53.148
210, -22435.03, -98984.27, -187500.02, -181830.30, -168712.09, 11360.70, -102945.83, -187500.02, 0.000, 0.000, 0.000, 13:01:53.148
211, -22449.96, -99013.17, -187500.02, -181906.88, -168795.98, 11371.47, -102932.28, -187500.02, 0.000, 0.000, 0.000, 13:01:53.148
212, -22093.80, -99043.98, -187500.02, -181985.30, -168884.39, 11377.86, -102926.43, -187500.02, 0.000, 0.000, 0.000, 13:01:53.148
213, -21954.58, -99074.64, -187500.02, -182065.95, -168974.95, 11382.76, -102926.80, -187500.02, 0.000, 0.000, 0.000, 13:01:53.149
214, -22372.02, -99146.23, -187500.02, -182186.00, -169103.66, 11351.18, -102959.17, -187500.02, 0.000, 0.000, 0.000, 13:01:53.149
215, -22489.79, -99188.08, -187500.02, -182274.31, -169198.44, 11352.74, -102956.22, -187500.02, 0.000, 0.000, 0.000, 13:01:53.149
216, -22159.23, -99218.16, -187500.02, -182354.56, -169285.89, 11361.70, -102949.02, -187500.02, -0.346, -0.052, -0.950, 13:01:53.149
217, -21935.71, -99214.83, -187500.02, -182398.03, -169342.64, 11396.44, -102912.26, -187500.02, 0.000, 0.000, 0.000, 13:01:53.149
218, -22311.80, -99272.72, -187500.02, -182502.48, -169456.61, 11373.57, -102930.16, -187500.02, 0.000, 0.000, 0.000, 13:01:53.149
219, -22501.97, -99308.87, -187500.02, -182583.77, -169545.28, 11379.18, -102919.81, -187500.02, 0.000, 0.000, 0.000, 13:01:53.149
220, -22228.29, -99337.41, -187500.02, -182655.16, -169627.70, 11390.72, -102906.63, -187500.02, 0.000, 0.000, 0.000, 13:01:53.150
221, -21934.35, -99339.24, -187500.02, -182705.77, -169688.33, 11421.52, -102874.73, -187500.02, 0.000, 0.000, 0.000, 13:01:53.150
222, -22220.09, -99369.98, -187500.02, -182784.38, -169776.48, 11423.60, -102868.47, -187500.02, 0.000, 0.000, 0.000, 13:01:53.150
223, -22496.05, -99423.71, -187500.02, -182883.94, -169882.34, 11411.15, -102878.62, -187500.02, 0.000, 0.000, 0.000, 13:01:53.150
224, -22285.92, -99444.96, -187500.02, -182951.50, -169956.31, 11430.30, -102858.74, -187500.02, 0.000, 0.000, 0.000, 13:01:53.598
225, -21940.49, -99482.23, -187500.02, -183039.25, -170052.52, 11426.61, -102865.61, -187500.02, 0.000, 0.000, 0.000, 13:01:53.598
226, -22117.14, -99520.18, -187500.02, -183127.64, -170147.47, 11421.18, -102869.59, -187500.02, -0.348, -0.056, -0.948, 13:01:53.599
227, -22485.68, -99601.96, -187500.02, -183256.67, -170280.97, 11381.46, -102907.25, -187500.02, 0.000, 0.000, 0.000, 13:01:53.599
228, -22355.10, -99632.16, -187500.02, -183334.91, -170361.73, 11393.67, -102895.78, -187500.02, 0.000, 0.000, 0.000, 13:01:53.599
229, -22002.81, -99641.26, -187500.02, -183392.17, -170425.92, 11419.98, -102871.09, -187500.02, 0.000, 0.000, 0.000, 13:01:53.599
230, -22072.95, -99663.14, -187500.02, -183462.94, -170506.16, 11429.74, -102860.38, -187500.02, 0.000, 0.000, 0.000, 13:01:53.599
231, -22451.07, -99755.54, -187500.02, -183602.08, -170649.64, 11375.56, -102911.32, -187500.02, 0.000, 0.000, 0.000, 13:01:53.599
232, -22406.10, -99771.84, -187500.02, -183664.30, -170715.59, 11399.46, -102884.25, -187500.02, 0.000, 0.000, 0.000, 13:01:53.599
233, -22065.84, -99782.79, -187500.02, -183723.20, -170781.89, 11421.94, -102860.71, -187500.02, 0.000, 0.000, 0.000, 13:01:53.599
234, -21986.49, -99835.77, -187500.02, -183826.91, -170893.44, 11399.93, -102885.23, -187500.02, 0.000, 0.000, 0.000, 13:01:53.600
235, -22423.40, -99903.48, -187500.02, -183941.17, -171014.00, 11370.29, -102912.86, -187500.02, 0.000, 0.000, 0.000, 13:01:53.600
236, -22454.94, -99933.28, -187500.02, -184018.44, -171094.33, 11381.17, -102899.00, -187500.02, -0.342, -0.050, -0.946, 13:01:53.600
237, -22109.92, -99932.14, -187500.02, -184064.23, -171149.22, 11416.18, -102863.87, -187500.02, 0.000, 0.000, 0.000, 13:01:53.600
238, -21946.15, -99978.48, -187500.02, -184156.13, -171253.58, 11400.62, -102881.74, -187500.02, 0.000, 0.000, 0.000, 13:01:53.600
239, -22340.48, -100046.61, -187500.02, -184271.50, -171374.91, 11370.06, -102912.66, -187500.02, 0.000, 0.000, 0.000, 13:01:53.600
240, -22480.09, -100075.17, -187500.02, -184349.53, -171455.47, 11382.45, -102900.66, -187500.02, 0.000, 0.000, 0.000, 13:01:53.600
241, -22178.05, -100083.24, -187500.02, -184405.28, -171519.09, 11408.75, -102872.83, -187500.02, 0.000, 0.000, 0.000, 13:01:53.601
242, -21944.32, -100072.16, -187500.02, -184440.94, -171566.17, 11449.17, -102831.86, -187500.02, 0.000, 0.000, 0.000, 13:01:53.601
243, -22269.29, -100143.57, -187500.02, -184557.03, -171693.17, 11411.50, -102866.08, -187500.02, 0.000, 0.000, 0.000, 13:01:53.601
244, -22500.96, -100195.73, -187500.02, -184654.11, -171796.08, 11399.23, -102875.48, -187500.02, 0.000, 0.000, 0.000, 13:01:53.601
245, -22265.38, -100197.99, -187500.02, -184700.69, -171853.30, 11432.09, -102839.50, -187500.02, 0.000, 0.000, 0.000, 13:01:53.602
246, -21927.98, -100190.93, -187500.02, -184739.23, -171905.06, 11469.13, -102800.32, -187500.02, -0.346, -0.052, -0.950, 13:01:53.602
247, -22170.07, -100276.09, -187500.02, -184871.98, -172046.44, 11416.73, -102852.46, -187500.02, 0.000, 0.000, 0.000, 13:01:53.602
248, -22482.81, -100376.49, -187500.02, -185020.31, -172198.48, 11357.17, -102911.95, -187500.02, 0.000, 0.000, 0.000, 13:01:53.602
249, -22312.90, -100410.65, -187500.02, -185101.92, -172285.61, 11363.02, -102909.02, -187500.02, 0.000, 0.000, 0.000, 13:01:53.602
250, -21969.98, -100376.85, -187500.02, -185114.73, -172310.08, 11429.41, -102844.30, -187500.02, 0.000, 0.000, 0.000, 13:01:53.602
251, -22123.49, -100427.73, -187500.02, -185211.27, -172419.72, 11409.63, -102863.10, -187500.02, 0.000, 0.000, 0.000, 13:01:53.602
252, -22482.77, -100498.38, -187500.02, -185326.05, -172541.72, 11379.34, -102890.84, -187500.02, 0.000, 0.000, 0.000, 13:01:53.603
253, -22356.46, -100537.61, -187500.02, -185408.47, -172634.78, 11379.92, -102890.15, -187500.02, 0.000, 0.000, 0.000, 13:01:53.603
254, -22007.10, -100545.16, -187500.02, -185461.67, -172699.81, 11405.56, -102866.39, -187500.02, 0.000, 0.000, 0.000, 13:01:53.603
255, -22056.54, -100559.27, -187500.02, -185521.06, -172771.64, 11421.99, -102849.13, -187500.02, 0.000, 0.000, 0.000, 13:01:53.603
0, -22466.16, -100616.46, -187500.02, -185623.13, -172879.81, 11402.72, -102864.16, -187500.02, -0.350, -0.054, -0.948, 13:01:53.603
1, -22405.92, -100660.41, -187500.02, -185715.05, -172974.48, 11397.24, -102865.98, -187500.02, 0.000, 0.000, 0.000, 13:01:53.603
2, -22048.63, -100690.85, -187500.02, -185791.97, -173058.27, 11402.72, -102860.55, -187500.02, 0.000, 0.000, 0.000, 13:01:53.603
3, -21972.41, -100714.86, -187500.02, -185862.06, -173138.97, 11411.64, -102853.54, -187500.02, 0.000, 0.000, 0.000, 13:01:53.604
4, -22393.68, -100768.52, -187500.02, -185958.39, -173246.16, 11395.79, -102868.70, -187500.02, 0.000, 0.000, 0.000, 13:01:53.604
5, -22466.39, -100809.41, -187500.02, -186043.13, -173336.92, 11395.63, -102869.12, -187500.02, 0.000, 0.000, 0.000, 13:01:53.604
6, -22153.06, -100785.38, -187500.02, -186065.34, -173367.55, 11454.87, -102810.35, -187500.02, 0.000, 0.000, 0.000, 13:01:53.604
7, -21959.45, -100777.02, -187500.02, -186101.56, -173417.61, 11492.98, -102770.84, -187500.02, 0.000, 0.000, 0.000, 13:01:53.604
8, -22320.34, -100876.93, -187500.02, -186248.39, -173574.05, 11423.95, -102836.04, -187500.02, 0.000, 0.000, 0.000, 13:01:53.604
9, -22479.93, -100905.77, -187500.02, -186323.48, -173653.36, 11431.96, -102823.12, -187500.02, 0.000, 0.000, 0.000, 13:01:53.604
10, -22210.99, -100927.45, -187500.02, -186391.59, -173727.86, 11446.80, -102808.52, -187500.02, -0.354, -0.058, -0.946, 13:01:53.605
11, -21955.80, -100942.51, -187500.02, -186456.03, -173802.22, 11461.66, -102794.06, -187500.02, 0.000, 0.000, 0.000, 13:01:53.605
12, -22288.31, -100973.53, -187500.02, -186532.98, -173889.56, 11460.37, -102789.26, -187500.02, 0.000, 0.000, 0.000, 13:01:53.605
13, -22488.42, -101044.90, -187500.02, -186649.05, -174010.14, 11427.20, -102816.59, -187500.02, 0.000, 0.000, 0.000, 13:01:53.605
14, -22247.47, -101078.32, -187500.02, -186730.69, -174096.92, 11429.83, -102810.66, -187500.02, 0.000, 0.000, 0.000, 13:01:53.605
15, -21985.00, -101070.96, -187500.02, -186772.89, -174146.19, 11467.20, -102773.07, -187500.02, 0.000, 0.000, 0.000, 13:01:53.605
16, -22170.78, -101109.43, -187500.02, -186856.64, -174240.89, 11459.07, -102779.98, -187500.02, 0.000, 0.000, 0.000, 13:01:53.606
17, -22483.64, -101181.41, -187500.02, -186973.88, -174364.66, 11424.00, -102811.90, -187500.02, 0.000, 0.000, 0.000, 13:01:53.606
18, -22318.86, -101192.76, -187500.02, -187029.25, -174427.64, 11447.56, -102784.20, -187500.02, 0.000, 0.000, 0.000, 13:01:53.606
19, -21972.79, -101190.14, -187500.02, -187070.84, -174480.03, 11479.97, -102749.38, -187500.02, 0.000, 0.000, 0.000, 13:01:53.606
20, -22074.34, -101287.09, -187500.02, -187214.20, -174634.75, 11410.63, -102816.39, -187500.02, -0.354, -0.054, -0.950, 13:01:53.606
21, -22465.58, -101346.80, -187500.02, -187321.45, -174744.88, 11387.86, -102836.87, -187500.02, 0.000, 0.000, 0.000, 13:01:53.606
22, -22387.44, -101349.16, -187500.02, -187368.19, -174798.89, 11424.13, -102798.95, -187500.02, 0.000, 0.000, 0.000, 13:01:53.606
23, -22020.92, -101398.66, -187500.02, -187464.72, -174904.77, 11407.95, -102819.72, -187500.02, 0.000, 0.000, 0.000, 13:01:53.606
24, -22028.74, -101428.37, -187500.02, -187500.02, -174988.94, 11408.38, -102819.98, -187500.02, 0.000, 0.000, 0.000, 13:01:53.607
25, -22452.86, -101469.80, -187500.02, -187500.02, -175080.84, 11402.88, -102820.28, -187500.02, 0.000, 0.000, 0.000, 13:01:53.607
26, -22422.64, -101499.09, -187500.02, -187500.02, -175161.50, 11411.03, -102808.79, -187500.02, 0.000, 0.000, 0.000, 13:01:53.607
27, -22071.16, -101505.73, -187500.02, -187500.02, -175224.22, 11436.72, -102782.17, -187500.02, 0.000, 0.000, 0.000, 13:01:53.607
28, -21969.57, -101528.08, -187500.02, -187500.02, -175304.55, 11442.82, -102776.02, -187500.02, 0.000, 0.000, 0.000, 13:01:53.607
29, -22370.61, -101577.95, -187500.02, -187500.02, -175405.64, 11428.20, -102787.47, -187500.02, 0.000, 0.000, 0.000, 13:01:53.607
30, -22475.37, -101619.95, -187500.02, -187500.02, -175496.81, 11424.13, -102790.10, -187500.02, -0.350, -0.058, -0.946, 13:01:53.607
31, -22170.02, -101634.48, -187500.02, -187500.02, -175564.09, 11443.44, -102769.98, -187500.02, 0.000, 0.000, 0.000, 13:01:53.608
32, -21938.59, -101654.73, -187500.02, -187500.02, -175641.14, 11451.94, -102761.91, -187500.02, 0.000, 0.000, 0.000, 13:01:53.608
33, -22303.67, -101742.19, -187500.02, -187500.02, -175780.50, 11400.69, -102810.78, -187500.02, 0.000, 0.000, 0.000, 13:01:53.608
34, -22501.66, -101800.88, -187500.02, -187500.02, -175888.08, 11383.92, -102825.60, -187500.02, 0.000, 0.000, 0.000, 13:01:53.608
35, -22255.72, -101796.91, -187500.02, -187500.02, -175936.77, 11424.20, -102782.62, -187500.02, 0.000, 0.000, 0.000, 13:01:53.608
36, -21935.22, -101817.34, -187500.02, -187500.02, -176014.38, 11433.21, -102772.06, -187500.02, 0.000, 0.000, 0.000, 13:01:53.608
37, -22230.24, -101858.23, -187500.02, -187500.02, -176110.48, 11422.84, -102779.33, -187500.02, 0.000, 0.000, 0.000, 13:01:53.608
38, -22473.11, -101904.37, -187500.02, -187500.02, -176207.20, 11413.22, -102785.25, -187500.02, 0.000, 0.000, 0.000, 13:01:53.609
39, -22269.69, -101881.73, -187500.02, -187500.02, -176236.61, 11469.31, -102725.48, -187500.02, 0.000, 0.000, 0.000, 13:01:53.609
40, -21952.29, -101905.06, -187500.02, -187500.02, -176316.28, 11474.33, -102720.59, -187500.02, -0.350, -0.056, -0.950, 13:01:53.609
41, -22147.16, -101988.97, -187500.02, -187500.02, -176456.16, 11420.65, -102775.80, -187500.02, 0.000, 0.000, 0.000, 13:01:53.609
42, -22479.51, -102023.73, -187500.02, -187500.02, -176540.53, 11425.23, -102770.12, -187500.02, 0.000, 0.000, 0.000, 13:01:53.609
43, -22327.69, -102067.27, -187500.02, -187500.02, -176635.69, 11419.46, -102777.70, -187500.02, 0.000, 0.000, 0.000, 13:01:53.609
44, -21993.13, -102097.38, -187500.02, -187500.02, -176719.08, 11423.28, -102778.50, -187500.02, 0.000, 0.000, 0.000, 13:01:53.609
45, -22085.33, -102126.13, -187500.02, -187500.02, -176803.81, 11424.62, -102776.20, -187500.02, 0.000, 0.000, 0.000, 13:01:53.609
46, -22474.99, -102189.31, -187500.02, -187500.02, -176920.75, 11395.39, -102801.28, -187500.02, 0.000, 0.000, 0.000, 13:01:53.610
47, -22394.26, -102166.60, -187500.02, -187500.02, -176947.52, 11455.72, -102736.93, -187500.02, 0.000, 0.000, 0.000, 13:01:53.610
48, -22042.64, -102196.71, -187500.02, -187500.02, -177033.00, 11457.26, -102735.90, -187500.02, 0.000, 0.000, 0.000, 13:01:53.610
49, -22041.14, -102210.43, -187500.02, -187500.02, -177103.70, 11470.38, -102722.11, -187500.02, 0.000, 0.000, 0.000, 13:01:53.610
50, -22442.34, -102274.25, -187500.02, -187500.02, -177219.13, 11439.60, -102749.24, -187500.02, -0.352, -0.056, -0.952, 13:01:53.610
51, -22427.31, -102319.60, -187500.02, -187500.02, -177316.34, 11429.45, -102756.09, -187500.02, 0.000, 0.000, 0.000, 13:01:53.610
52, -22093.45, -102317.12, -187500.02, -187500.02, -177367.84, 11463.05, -102720.19, -187500.02, 0.000, 0.000, 0.000, 13:01:53.610
53, -21975.32, -102350.52, -187500.02, -187500.02, -177458.06, 11459.47, -102724.70, -187500.02, 0.000, 0.000, 0.000, 13:01:53.611
54, -22359.21, -102404.83, -187500.02, -187500.02, -177565.14, 11439.80, -102745.40, -187500.02, 0.000, 0.000, 0.000, 13:01:53.611
55, -22476.11, -102433.26, -187500.02, -187500.02, -177642.86, 11449.55, -102734.70, -187500.02, 0.000, 0.000, 0.000, 13:01:53.611
56, -22172.28, -102436.21, -187500.02, -187500.02, -177699.00, 11478.65, -102704.97, -187500.02, 0.000, 0.000, 0.000, 13:01:53.611
57, -21946.93, -102472.44, -187500.02, -187500.02, -177792.20, 11469.69, -102713.88, -187500.02, 0.000, 0.000, 0.000, 13:01:53.611
58, -22273.65, -102534.16, -187500.02, -187500.02, -177908.44, 11438.66, -102743.95, -187500.02, 0.000, 0.000, 0.000, 13:01:53.611
59, -22475.13, -102595.69, -187500.02, -187500.02, -178022.47, 11413.38, -102768.49, -187500.02, 0.000, 0.000, 0.000, 13:01:53.611
60, -22237.84, -102599.89, -187500.02, -187500.02, -178079.16, 11442.55, -102738.49, -187500.02, -0.356, -0.056, -0.948, 13:01:53.611
61, -21947.71, -102604.59, -187500.02, -187500.02, -178139.28, 11465.19, -102716.56, -187500.02, 0.000, 0.000, 0.000, 13:01:53.612
62, -22205.34, -102650.31, -187500.02, -187500.02, -178242.77, 11446.73, -102733.58, -187500.02, 0.000, 0.000, 0.000, 13:01:53.612
63, -22486.79, -102684.11, -187500.02, -187500.02, -178327.11, 11449.61, -102727.14, -187500.02, 0.000, 0.000, 0.000, 13:01:53.612
64, -22294.95, -102712.79, -187500.02, -187500.02, -178409.19, 11455.27, -102718.76, -187500.02, 0.000, 0.000, 0.000, 13:01:53.612
65, -21969.10, -102739.01, -187500.02, -187500.02, -178494.03, 11457.93, -102717.77, -187500.02, 0.000, 0.000, 0.000, 13:01:53.612
66, -22122.84, -102802.87, -187500.02, -187500.02, -178616.22, 11423.22, -102755.19, -187500.02, 0.000, 0.000, 0.000, 13:01:53.612
67, -22478.99, -102868.73, -187500.02, -187500.02, -178734.28, 11393.60, -102784.70, -187500.02, 0.000, 0.000, 0.000, 13:01:53.612
68, -22357.71, -102851.08, -187500.02, -187500.02, -178767.25, 11448.21, -102730.24, -187500.02, 0.000, 0.000, 0.000, 13:01:53.612
69, -22008.00, -102807.90, -187500.02, -187500.02, -178779.59, 11520.13, -102656.35, -187500.02, -0.348, -0.060, -0.950, 13:01:53.613
70, -22062.40, -102839.57, -187500.02, -187500.02, -178871.75, 11513.85, -102661.70, -187500.02, 0.000, 0.000, 0.000, 13:01:53.613
71, -22452.37, -102935.16, -187500.02, -187500.02, -179022.14, 11449.86, -102722.38, -187500.02, 0.000, 0.000, 0.000, 13:01:53.613
72, -22422.13, -102951.66, -187500.02, -187500.02, -179090.22, 11468.41, -102701.45, -187500.02, 0.000, 0.000, 0.000, 13:01:53.613
73, -22069.20, -102946.05, -187500.02, -187500.02, -179139.75, 11503.12, -102666.66, -187500.02, 0.000, 0.000, 0.000, 13:01:53.613
74, -21996.64, -102979.91, -187500.02, -187500.02, -179230.97, 11495.23, -102675.51, -187500.02, 0.000, 0.000, 0.000, 13:01:53.613
75, -22403.15, -103055.11, -187500.02, -187500.02, -179356.94, 11453.84, -102715.23, -187500.02, 0.000, 0.000, 0.000, 13:01:53.613
76, -22471.86, -103053.16, -187500.02, -187500.02, -179402.94, 11492.35, -102672.49, -187500.02, 0.000, 0.000, 0.000, 13:01:53.614
77, -22133.28, -103029.06, -187500.02, -187500.02, -179430.05, 11548.90, -102610.89, -187500.02, 0.000, 0.000, 0.000, 13:01:53.614
78, -21952.77, -103081.08, -187500.02, -187500.02, -179539.59, 11522.77, -102634.20, -187500.02, 0.000, 0.000, 0.000, 13:01:53.614
79, -22321.30, -103154.02, -187500.02, -187500.02, -179665.94, 11480.64, -102674.79, -187500.02, -0.352, -0.058, -0.950, 13:01:53.616
80, -22470.12, -103196.23, -187500.02, -187500.02, -179756.86, 11475.03, -102677.80, -187500.02, 0.000, 0.000, 0.000, 13:01:53.616
81, -22185.04, -103212.69, -187500.02, -187500.02, -179825.55, 11491.84, -102660.91, -187500.02, 0.000, 0.000, 0.000, 13:01:53.617
82, -21950.06, -103216.58, -187500.02, -187500.02, -179885.94, 11514.34, -102640.01, -187500.02, 0.000, 0.000, 0.000, 13:01:53.617
83, -22272.98, -103329.52, -187500.02, -187500.02, -180054.83, 11431.06, -102725.62, -187500.02, 0.000, 0.000, 0.000, 13:01:53.617
84, -22498.28, -103341.19, -187500.02, -187500.02, -180113.48, 11456.70, -102698.53, -187500.02, 0.000, 0.000, 0.000, 13:01:53.617
85, -22233.26, -103343.09, -187500.02, -187500.02, -180165.27, 11489.00, -102663.48, -187500.02, 0.000, 0.000, 0.000, 13:01:53.617
86, -21930.88, -103332.89, -187500.02, -187500.02, -180210.63, 11527.13, -102623.72, -187500.02, 0.000, 0.000, 0.000, 13:01:53.617
87, -22201.70, -103381.98, -187500.02, -187500.02, -180314.75, 11506.25, -102641.42, -187500.02, 0.000, 0.000, 0.000, 13:01:53.617
88, -22519.67, -103441.75, -187500.02, -187500.02, -180423.31, 11481.67, -102662.48, -187500.02, 0.000, 0.000, 0.000, 13:01:53.618
89, -22310.57, -103472.55, -187500.02, -187500.02, -180503.20, 11483.95, -102658.81, -187500.02, -0.350, -0.062, -0.948, 13:01:54.078
90, -21962.31, -103506.95, -187500.02, -187500.02, -180593.91, 11475.56, -102667.88, -187500.02, 0.000, 0.000, 0.000, 13:01:54.078
91, -22105.85, -103531.51, -187500.02, -187500.02, -180673.22, 11476.46, -102665.25, -187500.02, 0.000, 0.000, 0.000, 13:01:54.078
92, -22464.58, -103576.46, -187500.02, -187500.02, -180770.16, 11463.58, -102674.81, -187500.02, 0.000, 0.000, 0.000, 13:01:54.078
93, -22387.48, -103595.26, -187500.02, -187500.02, -180841.08, 11478.65, -102658.05, -187500.02, 0.000, 0.000, 0.000, 13:01:54.078
94, -22029.68, -103595.26, -187500.02, -187500.02, -180897.33, 11507.08, -102629.08, -187500.02, 0.000, 0.000, 0.000, 13:01:54.078
95, -22057.97, -103614.13, -187500.02, -187500.02, -180972.25, 11514.59, -102620.07, -187500.02, 0.000, 0.000, 0.000, 13:01:54.079
96, -22452.75, -103678.16, -187500.02, -187500.02, -181085.73, 11484.77, -102650.18, -187500.02, 0.000, 0.000, 0.000, 13:01:54.079
97, -22416.05, -103705.14, -187500.02, -187500.02, -181160.70, 11493.24, -102642.67, -187500.02, 0.000, 0.000, 0.000, 13:01:54.079
98, -22083.99, -103745.44, -187500.02, -187500.02, -181253.78, 11482.60, -102655.57, -187500.02, 0.000, 0.000, 0.000, 13:01:54.079
99, -21990.83, -103777.83, -187500.02, -187500.02, -181341.66, 11475.23, -102664.66, -187500.02, -0.352, -0.056, -0.952, 13:01:54.079
100, -22357.06, -103828.86, -187500.02, -187500.02, -181444.19, 11456.23, -102680.89, -187500.02, 0.000, 0.000, 0.000, 13:01:54.079
101, -22451.30, -103860.22, -187500.02, -187500.02, -181525.28, 11460.16, -102676.00, -187500.02, 0.000, 0.000, 0.000, 13:01:54.079
102, -22148.16, -103860.55, -187500.02, -187500.02, -181578.66, 11490.34, -102647.63, -187500.02, 0.000, 0.000, 0.000, 13:01:54.079
103, -21958.20, -103829.48, -187500.02, -187500.02, -181602.64, 11547.56, -102590.99, -187500.02, 0.000, 0.000, 0.000, 13:01:54.079
104, -22306.37, -103891.84, -187500.02, -187500.02, -181721.17, 11515.01, -102621.05, -187500.02, 0.000, 0.000, 0.000, 13:01:54.080
105, -22487.15, -103986.13, -187500.02, -187500.02, -181867.08, 11453.91, -102678.59, -187500.02, 0.000, 0.000, 0.000, 13:01:54.080
106, -22221.39, -103983.38, -187500.02, -187500.02, -181914.06, 11488.84, -102642.02, -187500.02, 0.000, 0.000, 0.000, 13:01:54.080
107, -21954.35, -103988.16, -187500.02, -187500.02, -181974.58, 11509.14, -102622.58, -187500.02, 0.000, 0.000, 0.000, 13:01:54.080
108, -22275.70, -104033.20, -187500.02, -187500.02, -182073.70, 11489.02, -102639.54, -187500.02, 0.000, 0.000, 0.000, 13:01:54.080
109, -22492.11, -104074.57, -187500.02, -187500.02, -182160.31, 11482.09, -102641.35, -187500.02, -0.350, -0.056, -0.950, 13:01:54.080
110, -22238.85, -104085.66, -187500.02, -187500.02, -182222.52, 11501.72, -102618.24, -187500.02, 0.000, 0.000, 0.000, 13:01:54.080
111, -21942.97, -104117.23, -187500.02, -187500.02, -182311.27, 11494.36, -102626.80, -187500.02, 0.000, 0.000, 0.000, 13:01:54.080
112, -22176.53, -104183.02, -187500.02, -187500.02, -182432.00, 11457.10, -102664.17, -187500.02, 0.000, 0.000, 0.000, 13:01:54.081
113, -22491.42, -104251.46, -187500.02, -187500.02, -182549.13, 11425.63, -102695.29, -187500.02, 0.000, 0.000, 0.000, 13:01:54.081
114, -22329.97, -104269.92, -187500.02, -187500.02, -182615.56, 11441.25, -102678.93, -187500.02, 0.000, 0.000, 0.000, 13:01:54.081
115, -21974.87, -104256.71, -187500.02, -187500.02, -182656.77, 11480.82, -102639.12, -187500.02, 0.000, 0.000, 0.000, 13:01:54.081
116, -22098.07, -104257.83, -187500.02, -187500.02, -182710.28, 11506.79, -102611.67, -187500.02, 0.000, 0.000, 0.000, 13:01:54.081
117, -22486.41, -104309.77, -187500.02, -187500.02, -182810.33, 11488.44, -102624.99, -187500.02, 0.000, 0.000, 0.000, 13:01:54.081
118, -22432.39, -104290.38, -187500.02, -187500.02, -182839.77, 11540.36, -102567.93, -187500.02, 0.000, 0.000, 0.000, 13:01:54.081
119, -22017.65, -104326.52, -187500.02, -187500.02, -182929.69, 11531.40, -102577.65, -187500.02, -0.348, -0.056, -0.946, 13:01:54.081
120, -22015.98, -104374.02, -187500.02, -187500.02, -183030.50, 11509.29, -102601.57, -187500.02, 0.000, 0.000, 0.000, 13:01:54.081
121, -22414.87, -104412.75, -187500.02, -187500.02, -183119.20, 11500.24, -102605.37, -187500.02, 0.000, 0.000, 0.000, 13:01:54.082
122, -22417.84, -104399.16, -187500.02, -187500.02, -183154.50, 11544.88, -102554.09, -187500.02, 0.000, 0.000, 0.000, 13:01:54.082
123, -22061.55, -104418.92, -187500.02, -187500.02, -183227.75, 11550.35, -102545.02, -187500.02, 0.000, 0.000, 0.000, 13:01:54.082
124, -21977.80, -104498.89, -187500.02, -187500.02, -183365.03, 11493.76, -102603.13, -187500.02, 0.000, 0.000, 0.000, 13:01:54.082
125, -22379.62, -104582.91, -187500.02, -187500.02, -183501.42, 11439.24, -102657.83, -187500.02, 0.000, 0.000, 0.000, 13:01:54.082
126, -22475.88, -104626.79, -187500.02, -187500.02, -183595.13, 11429.18, -102668.02, -187500.02, 0.000, 0.000, 0.000, 13:01:54.082
127, -22153.06, -104612.77, -187500.02, -187500.02, -183633.34, 11472.68, -102624.63, -187500.02, 0.000, 0.000, 0.000, 13:01:54.082
128, -21926.14, -104618.41, -187500.02, -187500.02, -183693.31, 11490.88, -102605.14, -187500.02, 0.000, 0.000, 0.000, 13:01:54.083
129, -22295.89, -104663.45, -187500.02, -187500.02, -183790.98, 11472.84, -102620.45, -187500.02, -0.350, -0.058, -0.946, 13:01:54.083
130, -22485.14, -104700.62, -187500.02, -187500.02, -183877.52, 11467.67, -102623.09, -187500.02, 0.000, 0.000, 0.000, 13:01:54.083
131, -22219.58, -104719.64, -187500.02, -187500.02, -183948.72, 11478.02, -102611.27, -187500.02, 0.000, 0.000, 0.000, 13:01:54.083
132, -21938.66, -104742.95, -187500.02, -187500.02, -184028.16, 11478.56, -102610.48, -187500.02, 0.000, 0.000, 0.000, 13:01:54.083
133, -22228.14, -104761.69, -187500.02, -187500.02, -184100.41, 11484.79, -102602.33, -187500.02, 0.000, 0.000, 0.000, 13:01:54.083
134, -22504.65, -104805.25, -187500.02, -187500.02, -184193.25, 11474.04, -102612.02, -187500.02, 0.000, 0.000, 0.000, 13:01:54.083
135, -22310.50, -104810.99, -187500.02, -187500.02, -184247.50, 11500.89, -102582.88, -187500.02, 0.000, 0.000, 0.000, 13:01:54.083
136, -21952.29, -104770.49, -187500.02, -187500.02, -184257.45, 11567.12, -102512.72, -187500.02, 0.000, 0.000, 0.000, 13:01:54.083
137, -22130.44, -104812.96, -187500.02, -187500.02, -184354.70, 11547.83, -102528.01, -187500.02, 0.000, 0.000, 0.000, 13:01:54.084
138, -22476.91, -104850.27, -187500.02, -187500.02, -184442.00, 11541.17, -102529.15, -187500.02, 0.000, 0.000, 0.000, 13:01:54.084
139, -22349.17, -104861.06, -187500.02, -187500.02, -184502.17, 11559.52, -102506.21, -187500.02, -0.348, -0.062, -0.948, 13:01:54.084
140, -21972.50, -104899.05, -187500.02, -187500.02, -184594.13, 11547.54, -102520.38, -187500.02, 0.000, 0.000, 0.000, 13:01:54.084
141, -22061.44, -104960.01, -187500.02, -187500.02, -184710.56, 11512.80, -102559.32, -187500.02, 0.000, 0.000, 0.000, 13:01:54.084
142, -22475.28, -105013.61, -187500.02, -187500.02, -184814.08, 11491.39, -102579.69, -187500.02, 0.000, 0.000, 0.000, 13:01:54.084
143, -22398.86, -105050.18, -187500.02, -187500.02, -184900.64, 11486.76, -102581.80, -187500.02, 0.000, 0.000, 0.000, 13:01:54.084
144, -22018.35, -105056.10, -187500.02, -187500.02, -184959.58, 11509.27, -102560.77, -187500.02, 0.000, 0.000, 0.000, 13:01:54.085
145, -22010.01, -105075.01, -187500.02, -187500.02, -185034.84, 11512.96, -102556.95, -187500.02, 0.000, 0.000, 0.000, 13:01:54.085
146, -22417.21, -105133.64, -187500.02, -187500.02, -185146.89, 11484.21, -102584.98, -187500.02, 0.000, 0.000, 0.000, 13:01:54.085
147, -22458.43, -105136.63, -187500.02, -187500.02, -185198.97, 11516.04, -102551.66, -187500.02, 0.000, 0.000, 0.000, 13:01:54.085
148, -22139.27, -105126.20, -187500.02, -187500.02, -185239.72, 11553.84, -102511.78, -187500.02, 0.000, 0.000, 0.000, 13:01:54.085
149, -21998.01, -105163.91, -187500.02, -187500.02, -185331.42, 11539.74, -102525.93, -187500.02, -0.350, -0.060, -0.952, 13:01:54.085
150, -22388.02, -105230.02, -187500.02, -187500.02, -185448.97, 11502.95, -102562.23, -187500.02, 0.000, 0.000, 0.000, 13:01:54.085
151, -22453.87, -105255.75, -187500.02, -187500.02, -185519.67, 11511.33, -102551.61, -187500.02, 0.000, 0.000, 0.000, 13:01:54.086
152, -22154.87, -105248.26, -187500.02, -187500.02, -185560.98, 11547.80, -102512.36, -187500.02, 0.000, 0.000, 0.000, 13:01:54.086
153, -21955.60, -105305.19, -187500.02, -187500.02, -185672.56, 11516.13, -102545.77, -187500.02, 0.000, 0.000, 0.000, 13:01:54.086
154, -22290.79, -105359.44, -187500.02, -187500.02, -185778.34, 11491.57, -102573.45, -187500.02, 0.000, 0.000, 0.000, 13:01:54.086
155, -22509.12, -105373.67, -187500.02, -187500.02, -185838.41, 11510.68, -102553.22, -187500.02, 0.000, 0.000, 0.000, 13:01:54.086
156, -22250.63, -105335.77, -187500.02, -187500.02, -185846.95, 11579.03, -102481.34, -187500.02, 0.000, 0.000, 0.000, 13:01:54.086
157, -21938.21, -105320.50, -187500.02, -187500.02, -185884.66, 11618.62, -102438.42, -187500.02, 0.000, 0.000, 0.000, 13:01:54.086
158, -22210.88, -105363.82, -187500.02, -187500.02, -185982.94, 11599.21, -102454.96, -187500.02, 0.000, 0.000, 0.000, 13:01:54.086
159, -22493.12, -105418.20, -187500.02, -187500.02, -186086.05, 11577.15, -102473.83, -187500.02, -0.352, -0.058, -0.952, 13:01:54.086
160, -22295.80, -105478.80, -187500.02, -187500.02, -186195.30, 11550.00, -102501.38, -187500.02, 0.000, 0.000, 0.000, 13:01:54.087
161, -21969.73, -105438.52, -187500.02, -187500.02, -186204.69, 11618.44, -102433.21, -187500.02, 0.000, 0.000, 0.000, 13:01:54.087
162, -22124.40, -105482.77, -187500.02, -187500.02, -186300.98, 11600.02, -102450.73, -187500.02, 0.000, 0.000, 0.000, 13:01:54.087
163, -22471.44, -105545.29, -187500.02, -187500.02, -186413.00, 11567.07, -102481.65, -187500.02, 0.000, 0.000, 0.000, 13:01:54.087
164, -22359.95, -105565.90, -187500.02, -187500.02, -186482.19, 11576.62, -102471.93, -187500.02, 0.000, 0.000, 0.000, 13:01:54.087
165, -22029.57, -105572.36, -187500.02, -187500.02, -186540.92, 11595.93, -102453.64, -187500.02, 0.000, 0.000, 0.000, 13:01:54.087
166, -22069.42, -105608.34, -187500.02, -187500.02, -186630.47, 11585.31, -102466.45, -187500.02, 0.000, 0.000, 0.000, 13:01:54.087
167, -22446.16, -105617.71, -187500.02, -187500.02, -186689.83, 11604.82, -102441.64, -187500.02, 0.000, 0.000, 0.000, 13:01:54.087
168, -22419.60, -105624.41, -187500.02, -187500.02, -186745.38, 11627.49, -102412.49, -187500.02, 0.000, 0.000, 0.000, 13:01:54.088
169, -22069.08, -105629.20, -187500.02, -187500.02, -186802.23, 11648.23, -102387.98, -187500.02, -0.350, -0.058, -0.956, 13:01:54.088
170, -22001.58, -105649.18, -187500.02, -187500.02, -186878.09, 11647.40, -102385.09, -187500.02, 0.000, 0.000, 0.000, 13:01:54.088
171, -22392.31, -105710.94, -187500.02, -187500.02, -186993.70, 11611.53, -102417.86, -187500.02, 0.000, 0.000, 0.000, 13:01:54.088
172, -22451.14, -105731.73, -187500.02, -187500.02, -187064.81, 11620.07, -102404.09, -187500.02, 0.000, 0.000, 0.000, 13:01:54.088
173, -22136.00, -105748.83, -187500.02, -187500.02, -187134.41, 11629.48, -102395.55, -187500.02, 0.000, 0.000, 0.000, 13:01:54.088
174, -21981.96, -105758.44, -187500.02, -187500.02, -187198.80, 11641.73, -102384.93, -187500.02, 0.000, 0.000, 0.000, 13:01:54.089
175, -22348.55, -105793.64, -187500.02, -187500.02, -187284.17, 11632.65, -102389.52, -187500.02, 0.000, 0.000, 0.000, 13:01:54.089
176, -22489.36, -105801.91, -187500.02, -187500.02, -187337.36, 11655.74, -102358.60, -187500.02, 0.000, 0.000, 0.000, 13:01:54.089
177, -22221.63, -105788.50, -187500.02, -187500.02, -187373.59, 11693.47, -102314.52, -187500.02, 0.000, 0.000, 0.000, 13:01:54.089
178, -21951.18, -105810.38, -187500.02, -187500.02, -187449.48, 11691.95, -102315.87, -187500.02, -0.352, -0.056, -0.956, 13:01:54.089
179, -22259.19, -105869.77, -187500.02, -187500.02, -187500.02, 11656.77, -102350.22, -187500.02, 0.000, 0.000, 0.000, 13:01:54.089
180, -22483.19, -105927.71, -187500.02, -187500.02, -187500.02, 11632.25, -102373.47, -187500.02, 0.000, 0.000, 0.000, 13:01:54.089
181, -22266.83, -105908.73, -187500.02, -187500.02, -187500.02, 11678.92, -102322.51, -187500.02, 0.000, 0.000, 0.000, 13:01:54.089
182, -21977.49, -105927.13, -187500.02, -187500.02, -187500.02, 11681.71, -102314.93, -187500.02, 0.000, 0.000, 0.000, 13:01:54.089
183, -22208.89, -105976.14, -187500.02, -187500.02, -187500.02, 11657.02, -102338.82, -187500.02, 0.000, 0.000, 0.000, 13:01:54.090
184, -22472.60, -106024.76, -187500.02, -187500.02, -187500.02, 11638.67, -102354.45, -187500.02, 0.000, 0.000, 0.000, 13:01:54.090
185, -22337.04, -106041.92, -187500.02, -187500.02, -187500.02, 11648.72, -102341.70, -187500.02, 0.000, 0.000, 0.000, 13:01:54.090
186, -22018.39, -106016.65, -187500.02, -187500.02, -187500.02, 11692.96, -102294.07, -187500.02, 0.000, 0.000, 0.000, 13:01:54.090
187, -22119.71, -106064.81, -187500.02, -187500.02, -187500.02, 11663.39, -102320.90, -187500.02, 0.000, 0.000, 0.000, 13:01:54.090
188, -22469.02, -106120.89, -187500.02, -187500.02, -187500.02, 11633.32, -102347.38, -187500.02, -0.346, -0.056, -0.954, 13:01:54.090
189, -22359.79, -106112.53, -187500.02, -187500.02, -187500.02, 11670.58, -102305.32, -187500.02, 0.000, 0.000, 0.000, 13:01:54.090
190, -22010.37, -106098.36, -187500.02, -187500.02, -187500.02, 11708.92, -102261.48, -187500.02, 0.000, 0.000, 0.000, 13:01:54.090
191, -22049.97, -106177.58, -187500.02, -187500.02, -187500.02, 11649.35, -102317.77, -187500.02, 0.000, 0.000, 0.000, 13:01:54.091
192, -22425.39, -106234.30, -187500.02, -187500.02, -187500.02, 11620.65, -102343.59, -187500.02, 0.000, 0.000, 0.000, 13:01:54.091
193, -22420.90, -106250.66, -187500.02, -187500.02, -187500.02, 11634.40, -102328.48, -187500.02, 0.000, 0.000, 0.000, 13:01:54.091
194, -22067.83, -106254.42, -187500.02, -187500.02, -187500.02, 11655.00, -102307.89, -187500.02, 0.000, 0.000, 0.000, 13:01:54.091
195, -21985.22, -106281.18, -187500.02, -187500.02, -187500.02, 11647.18, -102313.70, -187500.02, 0.000, 0.000, 0.000, 13:01:54.091
196, -22386.61, -106330.20, -187500.02, -187500.02, -187500.02, 11623.20, -102333.59, -187500.02, 0.000, 0.000, 0.000, 13:01:54.091
197, -22455.28, -106304.71, -187500.02, -187500.02, -187500.02, 11676.13, -102272.77, -187500.02, 0.000, 0.000, 0.000, 13:01:54.091
198, -22146.60, -106303.26, -187500.02, -187500.02, -187500.02, 11700.49, -102243.98, -187500.02, -0.350, -0.056, -0.960, 13:01:54.092
199, -21954.20, -106325.99, -187500.02, -187500.02, -187500.02, 11698.84, -102246.60, -187500.02, 0.000, 0.000, 0.000, 13:01:54.092
200, -22327.02, -106373.76, -187500.02, -187500.02, -187500.02, 11677.53, -102267.14, -187500.02, 0.000, 0.000, 0.000, 13:01:54.092
201, -22499.94, -106407.17, -187500.02, -187500.02, -187500.02, 11674.49, -102268.66, -187500.02, 0.000, 0.000, 0.000, 13:01:54.092
202, -22220.47, -106439.72, -187500.02, -187500.02, -187500.02, 11668.15, -102275.14, -187500.02, 0.000, 0.000, 0.000, 13:01:54.092
203, -21952.45, -106451.43, -187500.02, -187500.02, -187500.02, 11677.53, -102265.58, -187500.02, 0.000, 0.000, 0.000, 13:01:54.092
204, -22266.65, -106471.13, -187500.02, -187500.02, -187500.02, 11679.41, -102260.55, -187500.02, 0.000, 0.000, 0.000, 13:01:54.092
205, -22503.58, -106487.88, -187500.02, -187500.02, -187500.02, 11690.72, -102243.96, -187500.02, 0.000, 0.000, 0.000, 13:01:54.092
206, -22257.38, -106432.21, -187500.02, -187500.02, -187500.02, 11772.31, -102155.31, -187500.02, 0.000, 0.000, 0.000, 13:01:54.093
207, -21954.04, -106461.02, -187500.02, -187500.02, -187500.02, 11763.79, -102160.86, -187500.02, 0.000, 0.000, 0.000, 13:01:54.093
208, -22174.05, -106508.98, -187500.02, -187500.02, -187500.02, 11735.67, -102187.39, -187500.02, -0.348, -0.062, -0.952, 13:01:54.093
209, -22476.71, -106513.63, -187500.02, -187500.02, -187500.02, 11754.51, -102159.45, -187500.02, 0.000, 0.000, 0.000, 13:01:54.559
210, -22322.75, -106553.42, -187500.02, -187500.02, -187500.02, 11741.77, -102166.00, -187500.02, 0.000, 0.000, 0.000, 13:01:54.559
211, -21994.03, -106575.48, -187500.02, -187500.02, -187500.02, 11741.84, -102164.48, -187500.02, 0.000, 0.000, 0.000, 13:01:54.560
212, -22094.99, -106604.20, -187500.02, -187500.02, -187500.02, 11733.12, -102170.18, -187500.02, 0.000, 0.000, 0.000, 13:01:54.560
213, -22459.17, -106635.61, -187500.02, -187500.02, -187500.02, 11728.34, -102170.87, -187500.02, 0.000, 0.000, 0.000, 13:01:54.560
214, -22382.19, -106647.48, -187500.02, -187500.02, -187500.02, 11744.05, -102150.04, -187500.02, 0.000, 0.000, 0.000, 13:01:54.560
215, -22022.37, -106661.05, -187500.02, -187500.02, -187500.02, 11753.53, -102138.48, -187500.02, 0.000, 0.000, 0.000, 13:01:54.561
216, -22038.26, -106730.96, -187500.02, -187500.02, -187500.02, 11705.88, -102189.36, -187500.02, 0.000, 0.000, 0.000, 13:01:54.561
217, -22413.86, -106762.23, -187500.02, -187500.02, -187500.02, 11701.67, -102191.37, -187500.02, 0.000, 0.000, 0.000, 13:01:54.561
218, -22397.86, -106789.88, -187500.02, -187500.02, -187500.02, 11701.65, -102186.95, -187500.02, -0.354, -0.058, -0.948, 13:01:54.561
219, -22085.22, -106790.59, -187500.02, -187500.02, -187500.02, 11724.81, -102162.91, -187500.02, 0.000, 0.000, 0.000, 13:01:54.562
220, -21978.89, -106840.80, -187500.02, -187500.02, -187500.02, 11694.16, -102194.50, -187500.02, 0.000, 0.000, 0.000, 13:01:54.562
221, -22379.39, -106886.17, -187500.02, -187500.02, -187500.02, 11674.76, -102212.96, -187500.02, 0.000, 0.000, 0.000, 13:01:54.562
222, -22468.53, -106864.23, -187500.02, -187500.02, -187500.02, 11726.46, -102157.51, -187500.02, 0.000, 0.000, 0.000, 13:01:54.562
223, -22169.15, -106880.14, -187500.02, -187500.02, -187500.02, 11735.31, -102145.62, -187500.02, 0.000, 0.000, 0.000, 13:01:54.562
224, -21960.03, -106888.88, -187500.02, -187500.02, -187500.02, 11746.51, -102132.63, -187500.02, 0.000, 0.000, 0.000, 13:01:54.563
225, -22312.18, -106925.40, -187500.02, -187500.02, -187500.02, 11733.41, -102141.92, -187500.02, 0.000, 0.000, 0.000, 13:01:54.563
226, -22487.02, -106959.24, -187500.02, -187500.02, -187500.02, 11727.36, -102142.98, -187500.02, 0.000, 0.000, 0.000, 13:01:54.563
227, -22216.29, -106965.79, -187500.02, -187500.02, -187500.02, 11743.92, -102122.16, -187500.02, 0.000, 0.000, 0.000, 13:01:54.563
228, -21941.07, -106993.95, -187500.02, -187500.02, -187500.02, 11734.06, -102131.15, -187500.02, -0.348, -0.056, -0.952, 13:01:54.564
229, -22227.02, -107058.08, -187500.02, -187500.02, -187500.02, 11692.46, -102172.41, -187500.02, 0.000, 0.000, 0.000, 13:01:54.564
230, -22512.16, -107084.55, -187500.02, -187500.02, -187500.02, 11694.52, -102165.57, -187500.02, 0.000, 0.000, 0.000, 13:01:54.564
231, -22289.03, -107077.55, -187500.02, -187500.02, -187500.02, 11727.38, -102127.17, -187500.02, 0.000, 0.000, 0.000, 13:01:54.564
232, -21946.64, -107070.75, -187500.02, -187500.02, -187500.02, 11755.90, -102096.71, -187500.02, 0.000, 0.000, 0.000, 13:01:54.565
233, -22129.50, -107099.45, -187500.02, -187500.02, -187500.02, 11748.32, -102102.84, -187500.02, 0.000, 0.000, 0.000, 13:01:54.565
234, -22497.57, -107146.37, -187500.02, -187500.02, -187500.02, 11728.12, -102119.17, -187500.02, 0.000, 0.000, 0.000, 13:01:54.565
235, -22360.01, -107174.87, -187500.02, -187500.02, -187500.02, 11728.07, -102118.68, -187500.02, 0.000, 0.000, 0.000, 13:01:54.565
236, -22001.96, -107148.13, -187500.02, -187500.02, -187500.02, 11774.88, -102068.90, -187500.02, 0.000, 0.000, 0.000, 13:01:54.566
237, -22064.28, -107197.33, -187500.02, -187500.02, -187500.02, 11742.38, -102095.92, -187500.02, 0.000, 0.000, 0.000, 13:01:54.566
238, -22430.36, -107263.29, -187500.02, -187500.02, -187500.02, 11701.94, -102132.60, -187500.02, -0.348, -0.062, -0.952, 13:01:54.566
239, -22395.02, -107239.11, -187500.02, -187500.02, -187500.02, 11753.28, -102076.37, -187500.02, 0.000, 0.000, 0.000, 13:01:54.566
240, -22041.17, -107254.57, -187500.02, -187500.02, -187500.02, 11760.50, -102064.86, -187500.02, 0.000, 0.000, 0.000, 13:01:54.567
241, -22003.44, -107310.52, -187500.02, -187500.02, -187500.02, 11723.74, -102101.96, -187500.02, 0.000, 0.000, 0.000, 13:01:54.567
242, -22399.67, -107360.55, -187500.02, -187500.02, -187500.02, 11698.12, -102123.58, -187500.02, 0.000, 0.000, 0.000, 13:01:54.567
243, -22426.82, -107356.81, -187500.02, -187500.02, -187500.02, 11726.33, -102089.22, -187500.02, 0.000, 0.000, 0.000, 13:01:54.568
244, -22081.58, -107357.52, -187500.02, -187500.02, -187500.02, 11747.05, -102065.13, -187500.02, 0.000, 0.000, 0.000, 13:01:54.568
245, -21963.85, -107379.77, -187500.02, -187500.02, -187500.02, 11743.14, -102067.88, -187500.02, 0.000, 0.000, 0.000, 13:01:54.568
246, -22362.00, -107430.66, -187500.02, -187500.02, -187500.02, 11715.71, -102091.79, -187500.02, 0.000, 0.000, 0.000, 13:01:54.569
247, -22457.27, -107483.81, -187500.02, -187500.02, -187500.02, 11689.85, -102114.01, -187500.02, 0.000, 0.000, 0.000, 13:01:54.569
248, -22170.98, -107433.81, -187500.02, -187500.02, -187500.02, 11764.64, -102034.75, -187500.02, -0.356, -0.066, -0.948, 13:01:54.569
249, -21940.67, -107434.70, -187500.02, -187500.02, -187500.02, 11780.33, -102015.64, -187500.02, 0.000, 0.000, 0.000, 13:01:54.569
250, -22295.91, -107524.60, -187500.02, -187500.02, -187500.02, 11709.39, -102085.27, -187500.02, 0.000, 0.000, 0.000, 13:01:54.570
251, -22495.29, -107555.54, -187500.02, -187500.02, -187500.02, 11704.80, -102089.29, -187500.02, 0.000, 0.000, 0.000, 13:01:54.570
252, -22244.92, -107522.03, -187500.02, -187500.02, -187500.02, 11760.21, -102028.16, -187500.02, 0.000, 0.000, 0.000, 13:01:54.570
253, -21958.22, -107497.52, -187500.02, -187500.02, -187500.02, 11800.60, -101983.02, -187500.02, 0.000, 0.000, 0.000, 13:01:54.570
254, -22216.34, -107558.91, -187500.02, -187500.02, -187500.02, 11756.48, -102022.61, -187500.02, 0.000, 0.000, 0.000, 13:01:54.571
255, -22489.56, -107616.11, -187500.02, -187500.02, -187500.02, 11722.80, -102054.24, -187500.02, 0.000, 0.000, 0.000, 13:01:54.571
0, -22311.51, -107568.03, -187500.02, -187500.02, -187500.02, 11792.56, -101980.97, -187500.02, 0.000, 0.000, 0.000, 13:01:54.571
1, -21965.35, -107550.60, -187500.02, -187500.02, -187500.02, 11825.55, -101942.97, -187500.02, 0.000, 0.000, 0.000, 13:01:54.571
2, -22103.91, -107623.00, -187500.02, -187500.02, -187500.02, 11771.05, -101994.74, -187500.02, -0.358, -0.062, -0.950, 13:01:54.572
3, -22462.65, -107667.61, -187500.02, -187500.02, -187500.02, 11750.40, -102009.54, -187500.02, 0.000, 0.000, 0.000, 13:01:54.572
4, -22360.26, -107675.30, -187500.02, -187500.02, -187500.02, 11764.62, -101989.82, -187500.02, 0.000, 0.000, 0.000, 13:01:54.572
5, -21981.13, -107665.98, -187500.02, -187500.02, -187500.02, 11792.29, -101958.59, -187500.02, 0.000, 0.000, 0.000, 13:01:54.572
6, -22041.35, -107721.01, -187500.02, -187500.02, -187500.02, 11753.80, -101995.70, -187500.02, 0.000, 0.000, 0.000, 13:01:54.572
7, -22441.66, -107753.04, -187500.02, -187500.02, -187500.02, 11747.88, -101997.63, -187500.02, 0.000, 0.000, 0.000, 13:01:54.573
8, -22394.59, -107752.88, -187500.02, -187500.02, -187500.02, 11774.81, -101964.63, -187500.02, 0.000, 0.000, 0.000, 13:01:54.573
9, -22048.32, -107755.16, -187500.02, -187500.02, -187500.02, 11793.56, -101942.30, -187500.02, 0.000, 0.000, 0.000, 13:01:54.573
10, -21995.43, -107785.63, -187500.02, -187500.02, -187500.02, 11782.79, -101953.05, -187500.02, 0.000, 0.000, 0.000, 13:01:54.573
11, -22385.38, -107821.55, -187500.02, -187500.02, -187500.02, 11772.24, -101962.09, -187500.02, 0.000, 0.000, 0.000, 13:01:54.574
12, -22431.38, -107808.18, -187500.02, -187500.02, -187500.02, 11811.91, -101917.23, -187500.02, -0.350, -0.060, -0.948, 13:01:54.574
13, -22090.81, -107812.63, -187500.02, -187500.02, -187500.02, 11827.16, -101899.19, -187500.02, 0.000, 0.000, 0.000, 13:01:54.574
14, -21934.68, -107836.01, -187500.02, -187500.02, -187500.02, 11819.45, -101906.34, -187500.02, 0.000, 0.000, 0.000, 13:01:54.574
15, -22322.20, -107898.28, -187500.02, -187500.02, -187500.02, 11778.01, -101944.88, -187500.02, 0.000, 0.000, 0.000, 13:01:54.575
16, -22465.76, -107960.69, -187500.02, -187500.02, -187500.02, 11742.35, -101979.70, -187500.02, 0.000, 0.000, 0.000, 13:01:54.575
17, -22200.15, -107920.56, -187500.02, -187500.02, -187500.02, 11803.98, -101915.32, -187500.02, 0.000, 0.000, 0.000, 13:01:54.575
18, -21937.50, -107906.93, -187500.02, -187500.02, -187500.02, 11832.23, -101883.54, -187500.02, 0.000, 0.000, 0.000, 13:01:54.575
19, -22240.52, -108000.77, -187500.02, -187500.02, -187500.02, 11755.85, -101957.59, -187500.02, 0.000, 0.000, 0.000, 13:01:54.575
20, -22461.02, -108042.90, -187500.02, -187500.02, -187500.02, 11740.83, -101971.16, -187500.02, 0.000, 0.000, 0.000, 13:01:54.576
21, -22233.14, -108031.16, -187500.02, -187500.02, -187500.02, 11776.71, -101933.00, -187500.02, 0.000, 0.000, 0.000, 13:01:54.576
22, -21927.82, -108037.58, -187500.02, -187500.02, -187500.02, 11787.13, -101920.91, -187500.02, -0.354, -0.058, -0.950, 13:01:54.576
23, -22195.91, -108068.71, -187500.02, -187500.02, -187500.02, 11775.26, -101930.91, -187500.02, 0.000, 0.000, 0.000, 13:01:54.576
24, -22462.07, -108104.50, -187500.02, -187500.02, -187500.02, 11765.89, -101935.87, -187500.02, 0.000, 0.000, 0.000, 13:01:54.577
25, -22285.58, -108103.25, -187500.02, -187500.02, -187500.02, 11793.74, -101905.42, -187500.02, 0.000, 0.000, 0.000, 13:01:54.577
26, -21967.43, -108074.05, -187500.02, -187500.02, -187500.02, 11841.26, -101854.02, -187500.02, 0.000, 0.000, 0.000, 13:01:54.577
27, -22098.32, -108130.92, -187500.02, -187500.02, -187500.02, 11799.53, -101892.46, -187500.02, 0.000, 0.000, 0.000, 13:01:54.577
28, -22470.79, -108162.03, -187500.02, -187500.02, -187500.02, 11792.60, -101893.80, -187500.02, 0.000, 0.000, 0.000, 13:01:54.577
29, -22386.05, -108168.47, -187500.02, -187500.02, -187500.02, 11810.08, -101871.40, -187500.02, 0.000, 0.000, 0.000, 13:01:54.578
30, -22013.05, -108166.16, -187500.02, -187500.02, -187500.02, 11831.56, -101850.23, -187500.02, 0.000, 0.000, 0.000, 13:01:54.578
31, -22021.07, -108214.42, -187500.02, -187500.02, -187500.02, 11799.33, -101881.57, -187500.02, -0.354, -0.058, -0.956, 13:01:54.578
32, -22410.48, -108260.20, -187500.02, -187500.02, -187500.02, 11780.17, -101896.70, -187500.02, 0.000, 0.000, 0.000, 13:01:54.578
33, -22380.35, -108262.59, -187500.02, -187500.02, -187500.02, 11804.87, -101867.42, -187500.02, 0.000, 0.000, 0.000, 13:01:54.579
34, -22039.87, -108267.31, -187500.02, -187500.02, -187500.02, 11819.04, -101851.06, -187500.02, 0.000, 0.000, 0.000, 13:01:54.579
35, -21988.21, -108286.22, -187500.02, -187500.02, -187500.02, 11814.80, -101854.59, -187500.02, 0.000, 0.000, 0.000, 13:01:54.579
36, -22387.19, -108334.25, -187500.02, -187500.02, -187500.02, 11789.00, -101877.88, -187500.02, 0.000, 0.000, 0.000, 13:01:54.579
37, -22438.51, -108401.53, -187500.02, -187500.02, -187500.02, 11747.65, -101915.77, -187500.02, 0.000, 0.000, 0.000, 13:01:54.580
38, -22137.90, -108375.02, -187500.02, -187500.02, -187500.02, 11794.93, -101864.77, -187500.02, 0.000, 0.000, 0.000, 13:01:54.580
39, -21933.01, -108357.86, -187500.02, -187500.02, -187500.02, 11826.89, -101829.27, -187500.02, 0.000, 0.000, 0.000, 13:01:54.580
40, -22290.19, -108441.45, -187500.02, -187500.02, -187500.02, 11762.07, -101893.24, -187500.02, 0.000, 0.000, 0.000, 13:01:54.580
41, -22450.25, -108437.41, -187500.02, -187500.02, -187500.02, 11791.08, -101860.56, -187500.02, -0.354, -0.056, -0.960, 13:01:54.581
42, -22175.72, -108426.66, -187500.02, -187500.02, -187500.02, 11822.37, -101826.48, -187500.02, 0.000, 0.000, 0.000, 13:01:54.581
43, -21909.83, -108475.38, -187500.02, -187500.02, -187500.02, 11787.77, -101861.88, -187500.02, 0.000, 0.000, 0.000, 13:01:54.581
44, -22224.47, -108514.43, -187500.02, -187500.02, -187500.02, 11767.12, -101881.46, -187500.02, 0.000, 0.000, 0.000, 13:01:54.581
45, -22475.08, -108530.79, -187500.02, -187500.02, -187500.02, 11776.04, -101868.83, -187500.02, 0.000, 0.000, 0.000, 13:01:54.582
46, -22252.19, -108524.27, -187500.02, -187500.02, -187500.02, 11804.02, -101837.77, -187500.02, 0.000, 0.000, 0.000, 13:01:54.582
47, -21933.23, -108560.81, -187500.02, -187500.02, -187500.02, 11781.63, -101858.95, -187500.02, 0.000, 0.000, 0.000, 13:01:54.582
48, -22161.44, -108591.03, -187500.02, -187500.02, -187500.02, 11753.82, -101870.55, -187500.02, 0.000, 0.000, 0.000, 13:01:54.582
49, -22472.80, -108609.78, -187500.02, -187500.02, -187500.02, 11746.06, -101862.55, -187500.02, 0.000, 0.000, 0.000, 13:01:54.582
50, -22331.45, -108642.46, -187500.02, -187500.02, -187500.02, 11734.40, -101871.18, -187500.02, 0.000, 0.000, 0.000, 13:01:54.583
51, -21967.99, -108625.34, -187500.02, -187500.02, -187500.02, 11758.60, -101834.57, -187500.02, -0.350, -0.052, -0.954, 13:01:54.583
52, -22071.77, -108623.75, -187500.02, -187500.02, -187500.02, 11769.04, -101811.90, -187500.02, 0.000, 0.000, 0.000, 13:01:54.583
53, -22447.48, -108671.74, -187500.02, -187500.02, -187500.02, 11744.92, -101830.25, -187500.02, 0.000, 0.000, 0.000, 13:01:54.583
54, -22346.47, -108705.52, -187500.02, -187500.02, -187500.02, 11734.13, -101834.90, -187500.02, 0.000, 0.000, 0.000, 13:01:54.583
55, -22002.10, -108694.27, -187500.02, -187500.02, -187500.02, 11750.07, -101801.89, -187500.02, 0.000, 0.000, 0.000, 13:01:54.583
56, -21995.70, -108690.59, -187500.02, -187500.02, -187500.02, 11760.95, -101779.54, -187500.02, 0.000, 0.000, 0.000, 13:01:54.583
57, -22402.28, -108772.66, -187500.02, -187500.02, -187500.02, 11699.95, -101838.68, -187500.02, 0.000, 0.000, 0.000, 13:01:54.584
58, -22399.35, -108775.43, -187500.02, -187500.02, -187500.02, 11712.67, -101812.80, -187500.02, 0.000, 0.000, 0.000, 13:01:54.584
59, -22083.66, -108777.60, -187500.02, -187500.02, -187500.02, 11721.54, -101793.91, -187500.02, 0.000, 0.000, 0.000, 13:01:54.584
60, -21989.44, -108788.57, -187500.02, -187500.02, -187500.02, 11726.04, -101789.10, -187500.02, 0.000, 0.000, 0.000, 13:01:54.584
61, -22346.54, -108844.52, -187500.02, -187500.02, -187500.02, 11681.67, -101820.91, -187500.02, -0.350, -0.058, -0.950, 13:01:54.584
62, -22449.85, -108801.90, -187500.02, -187500.02, -187500.02, 11738.11, -101749.36, -187500.02, 0.000, 0.000, 0.000, 13:01:54.584
63, -22147.74, -108774.23, -187500.02, -187500.02, -187500.02, 11785.38, -101697.69, -187500.02, 0.000, 0.000, 0.000, 13:01:54.585
64, -21923.42, -108793.23, -187500.02, -187500.02, -187500.02, 11782.03, -101699.34, -187500.02, 0.000, 0.000, 0.000, 13:01:54.585
65, -22278.09, -108881.98, -187500.02, -187500.02, -187500.02, 11703.46, -101766.82, -187500.02, 0.000, 0.000, 0.000, 13:01:54.585
66, -22467.88, -108917.16, -187500.02, -187500.02, -187500.02, 11680.75, -101773.13, -187500.02, 0.000, 0.000, 0.000, 13:01:54.585
67, -22204.42, -108903.93, -187500.02, -187500.02, -187500.02, 11715.73, -101737.56, -187500.02, 0.000, 0.000, 0.000, 13:01:54.585
68, -21926.88, -108868.19, -187500.02, -187500.02, -187500.02, 11769.31, -101683.49, -187500.02, 0.000, 0.000, 0.000, 13:01:54.586
69, -22221.79, -108950.38, -187500.02, -187500.02, -187500.02, 11700.87, -101745.45, -187500.02, 0.000, 0.000, 0.000, 13:01:54.586
70, -22463.99, -108987.93, -187500.02, -187500.02, -187500.02, 11675.81, -101753.88, -187500.02, 0.000, 0.000, 0.000, 13:01:54.586
71, -22269.31, -108951.85, -187500.02, -187500.02, -187500.02, 11725.48, -101688.99, -187500.02, -0.352, -0.054, -0.954, 13:01:54.586
72, -21943.06, -108963.52, -187500.02, -187500.02, -187500.02, 11730.28, -101681.48, -187500.02, 0.000, 0.000, 0.000, 13:01:54.586
73, -22128.27, -108989.05, -187500.02, -187500.02, -187500.02, 11724.90, -101685.59, -187500.02, 0.000, 0.000, 0.000, 13:01:55.039
74, -22446.98, -109024.25, -187500.02, -187500.02, -187500.02, 11711.71, -101690.63, -187500.02, 0.000, 0.000, 0.000, 13:01:55.039
75, -22312.90, -109050.07, -187500.02, -187500.02, -187500.02, 11694.03, -101689.23, -187500.02, 0.000, 0.000, 0.000, 13:01:55.039
76, -21980.68, -109010.08, -187500.02, -187500.02, -187500.02, 11740.61, -101629.73, -187500.02, 0.000, 0.000, 0.000, 13:01:55.039
77, -22081.36, -109053.95, -187500.02, -187500.02, -187500.02, 11711.80, -101658.34, -187500.02, 0.000, 0.000, 0.000, 13:01:55.040
78, -22437.55, -109116.54, -187500.02, -187500.02, -187500.02, 11672.66, -101696.05, -187500.02, 0.000, 0.000, 0.000, 13:01:55.040
79, -22372.64, -109120.81, -187500.02, -187500.02, -187500.02, 11682.74, -101672.31, -187500.02, 0.000, 0.000, 0.000, 13:01:55.040
80, -22014.01, -109063.97, -187500.02, -187500.02, -187500.02, 11746.60, -101591.52, -187500.02, 0.000, 0.000, 0.000, 13:01:55.040
81, -21986.94, -109059.01, -187500.02, -187500.02, -187500.02, 11766.07, -101568.47, -187500.02, -0.354, -0.062, -0.948, 13:01:55.040
82, -22396.87, -109087.73, -187500.02, -187500.02, -187500.02, 11759.16, -101571.98, -187500.02, 0.000, 0.000, 0.000, 13:01:55.040
83, -22400.16, -109129.59, -187500.02, -187500.02, -187500.02, 11739.67, -101588.61, -187500.02, 0.000, 0.000, 0.000, 13:01:55.040
84, -22085.58, -109164.89, -187500.02, -187500.02, -187500.02, 11711.00, -101604.81, -187500.02, 0.000, 0.000, 0.000, 13:01:55.040
85, -21969.17, -109172.60, -187500.02, -187500.02, -187500.02, 11703.02, -101596.97, -187500.02, 0.000, 0.000, 0.000, 13:01:55.040
86, -22347.63, -109229.71, -187500.02, -187500.02, -187500.02, 11663.70, -101631.23, -187500.02, 0.000, 0.000, 0.000, 13:01:55.041
87, -22438.63, -109232.66, -187500.02, -187500.02, -187500.02, 11688.13, -101603.23, -187500.02, 0.000, 0.000, 0.000, 13:01:55.041
88, -22152.81, -109240.91, -187500.02, -187500.02, -187500.02, 11694.81, -101588.95, -187500.02, 0.000, 0.000, 0.000, 13:01:55.041
89, -21931.40, -109241.22, -187500.02, -187500.02, -187500.02, 11695.35, -101573.95, -187500.02, 0.000, 0.000, 0.000, 13:01:55.041
90, -22263.50, -109229.35, -187500.02, -187500.02, -187500.02, 11722.57, -101537.76, -187500.02, 0.000, 0.000, 0.000, 13:01:55.041
91, -22450.54, -109290.57, -187500.02, -187500.02, -187500.02, 11684.31, -101571.80, -187500.02, -0.356, -0.058, -0.956, 13:01:55.041
92, -22227.29, -109288.80, -187500.02, -187500.02, -187500.02, 11700.24, -101547.30, -187500.02, 0.000, 0.000, 0.000, 13:01:55.041
93, -21911.84, -109302.80, -187500.02, -187500.02, -187500.02, 11700.87, -101541.98, -187500.02, 0.000, 0.000, 0.000, 13:01:55.041
94, -22179.99, -109371.41, -187500.02, -187500.02, -187500.02, 11646.15, -101592.66, -187500.02, 0.000, 0.000, 0.000, 13:01:55.041
95, -22459.63, -109423.34, -187500.02, -187500.02, -187500.02, 11601.96, -101619.52, -187500.02, 0.000, 0.000, 0.000, 13:01:55.042
96, -22266.00, -109372.67, -187500.02, -187500.02, -187500.02, 11662.78, -101542.45, -187500.02, 0.000, 0.000, 0.000, 13:01:55.042
97, -21936.87, -109336.62, -187500.02, -187500.02, -187500.02, 11713.05, -101489.30, -187500.02, 0.000, 0.000, 0.000, 13:01:55.042
98, -22098.95, -109364.66, -187500.02, -187500.02, -187500.02, 11701.00, -101502.45, -187500.02, 0.000, 0.000, 0.000, 13:01:55.042
99, -22451.50, -109408.57, -187500.02, -187500.02, -187500.02, 11675.05, -101521.48, -187500.02, 0.000, 0.000, 0.000, 13:01:55.042
100, -22339.58, -109438.32, -187500.02, -187500.02, -187500.02, 11653.19, -101523.45, -187500.02, 0.000, 0.000, 0.000, 13:01:55.042
101, -21990.79, -109416.14, -187500.02, -187500.02, -187500.02, 11686.32, -101482.70, -187500.02, -0.352, -0.060, -0.956, 13:01:55.042
102, -22061.15, -109411.31, -187500.02, -187500.02, -187500.02, 11708.47, -101460.20, -187500.02, 0.000, 0.000, 0.000, 13:01:55.043
103, -22436.84, -109451.39, -187500.02, -187500.02, -187500.02, 11692.13, -101473.41, -187500.02, 0.000, 0.000, 0.000, 13:01:55.043
104, -22365.33, -109505.77, -187500.02, -187500.02, -187500.02, 11653.73, -101501.81, -187500.02, 0.000, 0.000, 0.000, 13:01:55.043
105, -22018.39, -109463.69, -187500.02, -187500.02, -187500.02, 11703.02, -101439.09, -187500.02, 0.000, 0.000, 0.000, 13:01:55.043
106, -21971.50, -109493.15, -187500.02, -187500.02, -187500.02, 11685.89, -101453.20, -187500.02, 0.000, 0.000, 0.000, 13:01:55.043
107, -22381.52, -109572.52, -187500.02, -187500.02, -187500.02, 11619.44, -101509.86, -187500.02, 0.000, 0.000, 0.000, 13:01:55.043
108, -22424.39, -109561.23, -187500.02, -187500.02, -187500.02, 11643.65, -101471.62, -187500.02, 0.000, 0.000, 0.000, 13:01:55.043
109, -22085.82, -109537.49, -187500.02, -187500.02, -187500.02, 11684.98, -101425.62, -187500.02, 0.000, 0.000, 0.000, 13:01:55.043
110, -21916.26, -109551.17, -187500.02, -187500.02, -187500.02, 11682.79, -101423.32, -187500.02, 0.000, 0.000, 0.000, 13:01:55.043
111, -22317.70, -109551.53, -187500.02, -187500.02, -187500.02, 11693.78, -101400.48, -187500.02, -0.350, -0.054, -0.958, 13:01:55.044
112, -22433.98, -109567.11, -187500.02, -187500.02, -187500.02, 11699.39, -101388.09, -187500.02, 0.000, 0.000, 0.000, 13:01:55.044
113, -22151.56, -109584.85, -187500.02, -187500.02, -187500.02, 11694.01, -101384.02, -187500.02, 0.000, 0.000, 0.000, 13:01:55.044
114, -21911.59, -109612.44, -187500.02, -187500.02, -187500.02, 11671.32, -101397.26, -187500.02, 0.000, 0.000, 0.000, 13:01:55.044
115, -22222.37, -109673.55, -187500.02, -187500.02, -187500.02, 11624.70, -101441.27, -187500.02, 0.000, 0.000, 0.000, 13:01:55.044
116, -22466.54, -109712.91, -187500.02, -187500.02, -187500.02, 11596.69, -101456.33, -187500.02, 0.000, 0.000, 0.000, 13:01:55.044
117, -22254.42, -109644.60, -187500.02, -187500.02, -187500.02, 11676.55, -101362.70, -187500.02, 0.000, 0.000, 0.000, 13:01:55.044
118, -21921.63, -109649.81, -187500.02, -187500.02, -187500.02, 11687.46, -101348.70, -187500.02, 0.000, 0.000, 0.000, 13:01:55.044
119, -22134.84, -109742.50, -187500.02, -187500.02, -187500.02, 11612.07, -101423.23, -187500.02, 0.000, 0.000, 0.000, 13:01:55.045
120, -22455.03, -109746.88, -187500.02, -187500.02, -187500.02, 11623.24, -101400.25, -187500.02, 0.000, 0.000, 0.000, 13:01:55.045
121, -22285.49, -109755.64, -187500.02, -187500.02, -187500.02, 11634.73, -101386.81, -187500.02, -0.352, -0.056, -0.958, 13:01:55.045
122, -21957.62, -109736.91, -187500.02, -187500.02, -187500.02, 11673.40, -101352.69, -187500.02, 0.000, 0.000, 0.000, 13:01:55.045
123, -22089.22, -109765.03, -187500.02, -187500.02, -187500.02, 11660.14, -101364.45, -187500.02, 0.000, 0.000, 0.000, 13:01:55.045
124, -22438.85, -109810.79, -187500.02, -187500.02, -187500.02, 11622.73, -101384.40, -187500.02, 0.000, 0.000, 0.000, 13:01:55.045
125, -22360.51, -109752.74, -187500.02, -187500.02, -187500.02, 11690.97, -101299.51, -187500.02, 0.000, 0.000, 0.000, 13:01:55.045
126, -21998.16, -109771.23, -187500.02, -187500.02, -187500.02, 11690.21, -101302.39, -187500.02, 0.000, 0.000, 0.000, 13:01:55.045
127, -22013.90, -109797.73, -187500.02, -187500.02, -187500.02, 11682.29, -101313.91, -187500.02, 0.000, 0.000, 0.000, 13:01:55.046
128, -22408.27, -109865.95, -187500.02, -187500.02, -187500.02, 11627.51, -101360.33, -187500.02, 0.000, 0.000, 0.000, 13:01:55.046
129, -22391.06, -109879.07, -187500.02, -187500.02, -187500.02, 11621.79, -101350.00, -187500.02, 0.000, 0.000, 0.000, 13:01:55.046
130, -22054.18, -109820.98, -187500.02, -187500.02, -187500.02, 11694.16, -101273.11, -187500.02, 0.000, 0.000, 0.000, 13:01:55.046
131, -21971.18, -109840.29, -187500.02, -187500.02, -187500.02, 11690.59, -101278.92, -187500.02, -0.352, -0.056, -0.958, 13:01:55.046
132, -22374.52, -109895.61, -187500.02, -187500.02, -187500.02, 11651.58, -101313.50, -187500.02, 0.000, 0.000, 0.000, 13:01:55.046
133, -22439.09, -109922.41, -187500.02, -187500.02, -187500.02, 11634.60, -101314.89, -187500.02, 0.000, 0.000, 0.000, 13:01:55.046
134, -22115.22, -109933.97, -187500.02, -187500.02, -187500.02, 11636.85, -101305.77, -187500.02, 0.000, 0.000, 0.000, 13:01:55.046
135, -21930.12, -109952.27, -187500.02, -187500.02, -187500.02, 11633.95, -101311.34, -187500.02, 0.000, 0.000, 0.000, 13:01:55.046
136, -22299.84, -109998.85, -187500.02, -187500.02, -187500.02, 11592.58, -101342.18, -187500.02, 0.000, 0.000, 0.000, 13:01:55.047
137, -22442.94, -109992.04, -187500.02, -187500.02, -187500.02, 11609.00, -101310.87, -187500.02, 0.000, 0.000, 0.000, 13:01:55.047
138, -22153.60, -109968.84, -187500.02, -187500.02, -187500.02, 11651.18, -101266.09, -187500.02, 0.000, 0.000, 0.000, 13:01:55.047
139, -21909.16, -109973.62, -187500.02, -187500.02, -187500.02, 11663.21, -101254.90, -187500.02, 0.000, 0.000, 0.000, 13:01:55.047
140, -22219.80, -110042.28, -187500.02, -187500.02, -187500.02, 11607.73, -101304.92, -187500.02, -0.354, -0.058, -0.950, 13:01:55.047
141, -22485.72, -110054.95, -187500.02, -187500.02, -187500.02, 11609.72, -101290.75, -187500.02, 0.000, 0.000, 0.000, 13:01:55.047
142, -22248.01, -110014.73, -187500.02, -187500.02, -187500.02, 11670.67, -101224.09, -187500.02, 0.000, 0.000, 0.000, 13:01:55.047
143, -21922.68, -110045.77, -187500.02, -187500.02, -187500.02, 11656.55, -101239.34, -187500.02, 0.000, 0.000, 0.000, 13:01:55.047
144, -22132.45, -110102.45, -187500.02, -187500.02, -187500.02, 11615.49, -101280.94, -187500.02, 0.000, 0.000, 0.000, 13:01:55.048
