%OpenBCI Raw EEG Data
%
%Sample Rate = 250.0 Hz
%First Column = SampleIndex
%Last Column = Timestamp 
%Other Columns = EEG data in microvolts followed by Accel Data (in G) interleaved with Aux Data
0, 0.00, 0.00, 0.00, 0.00, 0.00, 0.00, 0.00, 0.00, 0.214, 0.062, 0.994, 12:23:03.448
1, 56482.99, 0.00, 0.00, 0.00, 0.00, 0.00, 0.00, 0.00, 0.000, 0.000, 0.000, 12:23:03.936
2, 56504.85, 0.00, 0.00, 0.00, 0.00, 0.00, 0.00, 0.00, 0.000, 0.000, 0.000, 12:23:03.936
3, 56491.93, 0.00, 0.00, 0.00, 0.00, 0.00, 0.00, 0.00, 0.000, 0.000, 0.000, 12:23:03.936
4, 56480.87, 0.00, 0.00, 0.00, 0.00, 0.00, 0.00, 0.00, 0.000, 0.000, 0.000, 12:23:03.936
5, 56486.97, 0.00, 0.00, 0.00, 0.00, 0.00, 0.00, 0.00, 0.000, 0.000, 0.000, 12:23:03.936
6, 56505.66, 0.00, 0.00, 0.00, 0.00, 0.00, 0.00, 0.00, 0.000, 0.000, 0.000, 12:23:03.936
7, 56495.44, 0.00, 0.00, 0.00, 0.00, 0.00, 0.00, 0.00, 0.194, 0.058, 0.996, 12:23:03.936
8, 56467.25, 0.00, 0.00, 0.00, 0.00, 0.00, 0.00, 0.00, 0.000, 0.000, 0.000, 12:23:03.936
9, 56460.39, 0.00, 0.00, 0.00, 0.00, 0.00, 0.00, 0.00, 0.000, 0.000, 0.000, 12:23:03.936
10, 56478.14, 0.00, 0.00, 0.00, 0.00, 0.00, 0.00, 0.00, 0.000, 0.000, 0.000, 12:23:03.936
11, 56485.23, 0.00, 0.00, 0.00, 0.00, 0.00, 0.00, 0.00, 0.000, 0.000, 0.000, 12:23:03.937
12, 56485.32, 0.00, 0.00, 0.00, 0.00, 0.00, 0.00, 0.00, 0.000, 0.000, 0.000, 12:23:03.937
13, 56499.31, 0.00, 0.00, 0.00, 0.00, 0.00, 0.00, 0.00, 0.000, 0.000, 0.000, 12:23:03.937
14, 56498.28, 0.00, 0.00, 0.00, 0.00, 0.00, 0.00, 0.00, 0.000, 0.000, 0.000, 12:23:03.937
15, 56477.27, 0.00, 0.00, 0.00, 0.00, 0.00, 0.00, 0.00, 0.000, 0.000, 0.000, 12:23:03.937
16, 56488.46, 0.00, 0.00, 0.00, 0.00, 0.00, 0.00, 0.00, 0.000, 0.000, 0.000, 12:23:03.937
17, 56508.27, 0.00, 0.00, 0.00, 0.00, 0.00, 0.00, 0.00, 0.188, 0.048, 1.002, 12:23:03.937
18, 56509.93, 0.00, 0.00, 0.00, 0.00, 0.00, 0.00, 0.00, 0.000, 0.000, 0.000, 12:23:03.937
19, 56494.12, 0.00, 0.00, 0.00, 0.00, 0.00, 0.00, 0.00, 0.000, 0.000, 0.000, 12:23:03.937
20, 56487.82, 0.00, 0.00, 0.00, 0.00, 0.00, 0.00, 0.00, 0.000, 0.000, 0.000, 12:23:03.937
21, 56473.67, 0.00, 0.00, 0.00, 0.00, 0.00, 0.00, 0.00, 0.000, 0.000, 0.000, 12:23:03.937
22, 56501.92, 0.00, 0.00, 0.00, 0.00, 0.00, 0.00, 0.00, 0.000, 0.000, 0.000, 12:23:03.937
23, 56531.58, 0.00, 0.00, 0.00, 0.00, 0.00, 0.00, 0.00, 0.000, 0.000, 0.000, 12:23:03.937
24, 56508.89, 0.00, 0.00, 0.00, 0.00, 0.00, 0.00, 0.00, 0.000, 0.000, 0.000, 12:23:03.937
25, 56482.92, 0.00, 0.00, 0.00, 0.00, 0.00, 0.00, 0.00, 0.000, 0.000, 0.000, 12:23:03.937
26, 56463.43, 0.00, 0.00, 0.00, 0.00, 0.00, 0.00, 0.00, 0.000, 0.000, 0.000, 12:23:03.937
27, 56503.40, 0.00, 0.00, 0.00, 0.00, 0.00, 0.00, 0.00, 0.186, 0.040, 0.998, 12:23:03.937
28, 56508.70, 0.00, 0.00, 0.00, 0.00, 0.00, 0.00, 0.00, 0.000, 0.000, 0.000, 12:23:03.937
29, 56488.80, 0.00, 0.00, 0.00, 0.00, 0.00, 0.00, 0.00, 0.000, 0.000, 0.000, 12:23:03.937
30, 56496.34, 0.00, 0.00, 0.00, 0.00, 0.00, 0.00, 0.00, 0.000, 0.000, 0.000, 12:23:03.937
31, 56524.97, 0.00, 0.00, 0.00, 0.00, 0.00, 0.00, 0.00, 0.000, 0.000, 0.000, 12:23:03.938
32, 56515.78, 0.00, 0.00, 0.00, 0.00, 0.00, 0.00, 0.00, 0.000, 0.000, 0.000, 12:23:03.938
33, 56496.00, 0.00, 0.00, 0.00, 0.00, 0.00, 0.00, 0.00, 0.000, 0.000, 0.000, 12:23:03.938
34, 56474.27, 0.00, 0.00, 0.00, 0.00, 0.00, 0.00, 0.00, 0.000, 0.000, 0.000, 12:23:03.938
35, 56498.01, 0.00, 0.00, 0.00, 0.00, 0.00, 0.00, 0.00, 0.000, 0.000, 0.000, 12:23:03.938
36, 56508.20, 0.00, 0.00, 0.00, 0.00, 0.00, 0.00, 0.00, 0.000, 0.000, 0.000, 12:23:03.938
37, 56484.96, 0.00, 0.00, 0.00, 0.00, 0.00, 0.00, 0.00, 0.184, 0.044, 0.998, 12:23:03.938
38, 56482.97, 0.00, 0.00, 0.00, 0.00, 0.00, 0.00, 0.00, 0.000, 0.000, 0.000, 12:23:03.938
39, 56531.36, 0.00, 0.00, 0.00, 0.00, 0.00, 0.00, 0.00, 0.000, 0.000, 0.000, 12:23:03.938
40, 56539.61, 0.00, 0.00, 0.00, 0.00, 0.00, 0.00, 0.00, 0.000, 0.000, 0.000, 12:23:03.938
41, 56499.04, 0.00, 0.00, 0.00, 0.00, 0.00, 0.00, 0.00, 0.000, 0.000, 0.000, 12:23:03.938
42, 56464.93, 0.00, 0.00, 0.00, 0.00, 0.00, 0.00, 0.00, 0.000, 0.000, 0.000, 12:23:03.938
43, 56497.23, 0.00, 0.00, 0.00, 0.00, 0.00, 0.00, 0.00, 0.000, 0.000, 0.000, 12:23:03.938
44, 56553.22, 0.00, 0.00, 0.00, 0.00, 0.00, 0.00, 0.00, 0.000, 0.000, 0.000, 12:23:03.938
45, 56533.39, 0.00, 0.00, 0.00, 0.00, 0.00, 0.00, 0.00, 0.000, 0.000, 0.000, 12:23:03.938
46, 56535.07, 0.00, 0.00, 0.00, 0.00, 0.00, 0.00, 0.00, 0.000, 0.000, 0.000, 12:23:03.938
47, 56558.63, 0.00, 0.00, 0.00, 0.00, 0.00, 0.00, 0.00, 0.186, 0.042, 0.998, 12:23:03.938
48, 56562.27, 0.00, 0.00, 0.00, 0.00, 0.00, 0.00, 0.00, 0.000, 0.000, 0.000, 12:23:03.938
49, 56537.48, 0.00, 0.00, 0.00, 0.00, 0.00, 0.00, 0.00, 0.000, 0.000, 0.000, 12:23:03.938
50, 56525.93, 0.00, 0.00, 0.00, 0.00, 0.00, 0.00, 0.00, 0.000, 0.000, 0.000, 12:23:03.939
51, 56528.63, 0.00, 0.00, 0.00, 0.00, 0.00, 0.00, 0.00, 0.000, 0.000, 0.000, 12:23:03.939
52, 56538.24, 0.00, 0.00, 0.00, 0.00, 0.00, 0.00, 0.00, 0.000, 0.000, 0.000, 12:23:03.939
53, 56532.10, 0.00, 0.00, 0.00, 0.00, 0.00, 0.00, 0.00, 0.000, 0.000, 0.000, 12:23:03.939
54, 56521.70, 0.00, 0.00, 0.00, 0.00, 0.00, 0.00, 0.00, 0.000, 0.000, 0.000, 12:23:03.939
55, 56515.29, 0.00, 0.00, 0.00, 0.00, 0.00, 0.00, 0.00, 0.000, 0.000, 0.000, 12:23:03.939
56, 56524.05, 0.00, 0.00, 0.00, 0.00, 0.00, 0.00, 0.00, 0.000, 0.000, 0.000, 12:23:03.939
57, 56509.68, 0.00, 0.00, 0.00, 0.00, 0.00, 0.00, 0.00, 0.186, 0.050, 1.000, 12:23:03.939
58, 56545.24, 0.00, 0.00, 0.00, 0.00, 0.00, 0.00, 0.00, 0.000, 0.000, 0.000, 12:23:03.940
59, 56555.45, 0.00, 0.00, 0.00, 0.00, 0.00, 0.00, 0.00, 0.000, 0.000, 0.000, 12:23:03.940
60, 56555.70, 0.00, 0.00, 0.00, 0.00, 0.00, 0.00, 0.00, 0.000, 0.000, 0.000, 12:23:03.940
61, 56548.66, 0.00, 0.00, 0.00, 0.00, 0.00, 0.00, 0.00, 0.000, 0.000, 0.000, 12:23:03.940
62, 56525.61, 0.00, 0.00, 0.00, 0.00, 0.00, 0.00, 0.00, 0.000, 0.000, 0.000, 12:23:03.940
63, 56516.74, 0.00, 0.00, 0.00, 0.00, 0.00, 0.00, 0.00, 0.000, 0.000, 0.000, 12:23:03.940
64, 56545.87, 0.00, 0.00, 0.00, 0.00, 0.00, 0.00, 0.00, 0.000, 0.000, 0.000, 12:23:03.940
65, 56546.96, 0.00, 0.00, 0.00, 0.00, 0.00, 0.00, 0.00, 0.000, 0.000, 0.000, 12:23:03.940
66, 56525.57, 0.00, 0.00, 0.00, 0.00, 0.00, 0.00, 0.00, 0.000, 0.000, 0.000, 12:23:03.940
67, 56530.42, 0.00, 0.00, 0.00, 0.00, 0.00, 0.00, 0.00, 0.184, 0.046, 1.002, 12:23:03.940
68, 56548.28, 0.00, 0.00, 0.00, 0.00, 0.00, 0.00, 0.00, 0.000, 0.000, 0.000, 12:23:03.941
69, 56560.57, 0.00, 0.00, 0.00, 0.00, 0.00, 0.00, 0.00, 0.000, 0.000, 0.000, 12:23:03.941
70, 56541.55, 0.00, 0.00, 0.00, 0.00, 0.00, 0.00, 0.00, 0.000, 0.000, 0.000, 12:23:03.941
71, 56531.56, 0.00, 0.00, 0.00, 0.00, 0.00, 0.00, 0.00, 0.000, 0.000, 0.000, 12:23:03.941
72, 56521.82, 0.00, 0.00, 0.00, 0.00, 0.00, 0.00, 0.00, 0.000, 0.000, 0.000, 12:23:03.941
73, 56543.81, 0.00, 0.00, 0.00, 0.00, 0.00, 0.00, 0.00, 0.000, 0.000, 0.000, 12:23:03.941
74, 56556.93, 0.00, 0.00, 0.00, 0.00, 0.00, 0.00, 0.00, 0.000, 0.000, 0.000, 12:23:03.941
75, 56538.51, 0.00, 0.00, 0.00, 0.00, 0.00, 0.00, 0.00, 0.000, 0.000, 0.000, 12:23:03.941
76, 56530.78, 0.00, 0.00, 0.00, 0.00, 0.00, 0.00, 0.00, 0.182, 0.046, 1.002, 12:23:03.941
77, 56562.90, 0.00, 0.00, 0.00, 0.00, 0.00, 0.00, 0.00, 0.000, 0.000, 0.000, 12:23:03.941
78, 56572.04, 0.00, 0.00, 0.00, 0.00, 0.00, 0.00, 0.00, 0.000, 0.000, 0.000, 12:23:03.941
79, 56561.85, 0.00, 0.00, 0.00, 0.00, 0.00, 0.00, 0.00, 0.000, 0.000, 0.000, 12:23:03.941
80, 56547.61, 0.00, 0.00, 0.00, 0.00, 0.00, 0.00, 0.00, 0.000, 0.000, 0.000, 12:23:03.941
81, 56561.76, 0.00, 0.00, 0.00, 0.00, 0.00, 0.00, 0.00, 0.000, 0.000, 0.000, 12:23:03.941
82, 56566.32, 0.00, 0.00, 0.00, 0.00, 0.00, 0.00, 0.00, 0.000, 0.000, 0.000, 12:23:03.941
83, 56552.23, 0.00, 0.00, 0.00, 0.00, 0.00, 0.00, 0.00, 0.000, 0.000, 0.000, 12:23:03.941
84, 56551.18, 0.00, 0.00, 0.00, 0.00, 0.00, 0.00, 0.00, 0.000, 0.000, 0.000, 12:23:03.941
85, 56560.57, 0.00, 0.00, 0.00, 0.00, 0.00, 0.00, 0.00, 0.000, 0.000, 0.000, 12:23:03.941
86, 56561.45, 0.00, 0.00, 0.00, 0.00, 0.00, 0.00, 0.00, 0.186, 0.046, 1.002, 12:23:03.941
87, 56537.73, 0.00, 0.00, 0.00, 0.00, 0.00, 0.00, 0.00, 0.000, 0.000, 0.000, 12:23:03.941
88, 56544.64, 0.00, 0.00, 0.00, 0.00, 0.00, 0.00, 0.00, 0.000, 0.000, 0.000, 12:23:03.941
89, 56578.05, 0.00, 0.00, 0.00, 0.00, 0.00, 0.00, 0.00, 0.000, 0.000, 0.000, 12:23:03.942
90, 56576.11, 0.00, 0.00, 0.00, 0.00, 0.00, 0.00, 0.00, 0.000, 0.000, 0.000, 12:23:03.942
91, 56557.69, 0.00, 0.00, 0.00, 0.00, 0.00, 0.00, 0.00, 0.000, 0.000, 0.000, 12:23:03.942
92, 56549.82, 0.00, 0.00, 0.00, 0.00, 0.00, 0.00, 0.00, 0.000, 0.000, 0.000, 12:23:03.942
93, 56554.98, 0.00, 0.00, 0.00, 0.00, 0.00, 0.00, 0.00, 0.000, 0.000, 0.000, 12:23:03.942
94, 56553.20, 0.00, 0.00, 0.00, 0.00, 0.00, 0.00, 0.00, 0.000, 0.000, 0.000, 12:23:03.943
95, 56525.48, 0.00, 0.00, 0.00, 0.00, 0.00, 0.00, 0.00, 0.000, 0.000, 0.000, 12:23:03.943
96, 56549.31, 0.00, 0.00, 0.00, 0.00, 0.00, 0.00, 0.00, 0.184, 0.052, 1.004, 12:23:03.943
97, 56567.21, 0.00, 0.00, 0.00, 0.00, 0.00, 0.00, 0.00, 0.000, 0.000, 0.000, 12:23:03.943
98, 56586.21, 0.00, 0.00, 0.00, 0.00, 0.00, 0.00, 0.00, 0.000, 0.000, 0.000, 12:23:03.943
99, 56580.67, 0.00, 0.00, 0.00, 0.00, 0.00, 0.00, 0.00, 0.000, 0.000, 0.000, 12:23:03.943
100, 56552.71, 0.00, 0.00, 0.00, 0.00, 0.00, 0.00, 0.00, 0.000, 0.000, 0.000, 12:23:03.943
101, 56549.60, 0.00, 0.00, 0.00, 0.00, 0.00, 0.00, 0.00, 0.000, 0.000, 0.000, 12:23:03.943
102, 56622.09, 0.00, 0.00, 0.00, 0.00, 0.00, 0.00, 0.00, 0.000, 0.000, 0.000, 12:23:03.943
103, 56622.73, 0.00, 0.00, 0.00, 0.00, 0.00, 0.00, 0.00, 0.000, 0.000, 0.000, 12:23:03.943
104, 56586.93, 0.00, 0.00, 0.00, 0.00, 0.00, 0.00, 0.00, 0.000, 0.000, 0.000, 12:23:03.943
105, 56576.36, 0.00, 0.00, 0.00, 0.00, 0.00, 0.00, 0.00, 0.000, 0.000, 0.000, 12:23:03.943
106, 56587.08, 0.00, 0.00, 0.00, 0.00, 0.00, 0.00, 0.00, 0.186, 0.052, 1.000, 12:23:03.943
107, 56580.87, 0.00, 0.00, 0.00, 0.00, 0.00, 0.00, 0.00, 0.000, 0.000, 0.000, 12:23:03.943
108, 56571.13, 0.00, 0.00, 0.00, 0.00, 0.00, 0.00, 0.00, 0.000, 0.000, 0.000, 12:23:03.943
109, 56569.74, 0.00, 0.00, 0.00, 0.00, 0.00, 0.00, 0.00, 0.000, 0.000, 0.000, 12:23:03.944
110, 56577.02, 0.00, 0.00, 0.00, 0.00, 0.00, 0.00, 0.00, 0.000, 0.000, 0.000, 12:23:03.944
111, 56576.24, 0.00, 0.00, 0.00, 0.00, 0.00, 0.00, 0.00, 0.000, 0.000, 0.000, 12:23:03.944
112, 56557.20, 0.00, 0.00, 0.00, 0.00, 0.00, 0.00, 0.00, 0.000, 0.000, 0.000, 12:23:03.944
113, 56546.29, 0.00, 0.00, 0.00, 0.00, 0.00, 0.00, 0.00, 0.000, 0.000, 0.000, 12:23:03.944
114, 56554.29, 0.00, 0.00, 0.00, 0.00, 0.00, 0.00, 0.00, 0.000, 0.000, 0.000, 12:23:03.944
115, 56570.86, 0.00, 0.00, 0.00, 0.00, 0.00, 0.00, 0.00, 0.000, 0.000, 0.000, 12:23:03.944
116, 56557.33, 0.00, 0.00, 0.00, 0.00, 0.00, 0.00, 0.00, 0.188, 0.044, 0.996, 12:23:03.944
117, 56523.56, 0.00, 0.00, 0.00, 0.00, 0.00, 0.00, 0.00, 0.000, 0.000, 0.000, 12:23:03.944
118, 56538.73, 0.00, 0.00, 0.00, 0.00, 0.00, 0.00, 0.00, 0.000, 0.000, 0.000, 12:23:03.944
119, 56569.22, 0.00, 0.00, 0.00, 0.00, 0.00, 0.00, 0.00, 0.000, 0.000, 0.000, 12:23:03.944
120, 56545.31, 0.00, 0.00, 0.00, 0.00, 0.00, 0.00, 0.00, 0.000, 0.000, 0.000, 12:23:03.944
121, 56506.35, 0.00, 0.00, 0.00, 0.00, 0.00, 0.00, 0.00, 0.000, 0.000, 0.000, 12:23:04.406
122, 56555.84, 0.00, 0.00, 0.00, 0.00, 0.00, 0.00, 0.00, 0.000, 0.000, 0.000, 12:23:04.406
123, 56600.52, 0.00, 0.00, 0.00, 0.00, 0.00, 0.00, 0.00, 0.000, 0.000, 0.000, 12:23:04.406
124, 56578.14, 0.00, 0.00, 0.00, 0.00, 0.00, 0.00, 0.00, 0.000, 0.000, 0.000, 12:23:04.406
125, 56543.07, 0.00, 0.00, 0.00, 0.00, 0.00, 0.00, 0.00, 0.000, 0.000, 0.000, 12:23:04.407
126, 56564.06, 0.00, 0.00, 0.00, 0.00, 0.00, 0.00, 0.00, 0.184, 0.040, 1.000, 12:23:04.407
127, 56573.56, 0.00, 0.00, 0.00, 0.00, 0.00, 0.00, 0.00, 0.000, 0.000, 0.000, 12:23:04.407
128, 56569.27, 0.00, 0.00, 0.00, 0.00, 0.00, 0.00, 0.00, 0.000, 0.000, 0.000, 12:23:04.407
129, 56570.43, 0.00, 0.00, 0.00, 0.00, 0.00, 0.00, 0.00, 0.000, 0.000, 0.000, 12:23:04.407
130, 56567.93, 0.00, 0.00, 0.00, 0.00, 0.00, 0.00, 0.00, 0.000, 0.000, 0.000, 12:23:04.407
131, 56582.72, 0.00, 0.00, 0.00, 0.00, 0.00, 0.00, 0.00, 0.000, 0.000, 0.000, 12:23:04.407
132, 56560.89, 0.00, 0.00, 0.00, 0.00, 0.00, 0.00, 0.00, 0.000, 0.000, 0.000, 12:23:04.407
133, 56536.14, 0.00, 0.00, 0.00, 0.00, 0.00, 0.00, 0.00, 0.000, 0.000, 0.000, 12:23:04.407
134, 56544.46, 0.00, 0.00, 0.00, 0.00, 0.00, 0.00, 0.00, 0.000, 0.000, 0.000, 12:23:04.408
135, 56550.14, 0.00, 0.00, 0.00, 0.00, 0.00, 0.00, 0.00, 0.000, 0.000, 0.000, 12:23:04.408
136, 56566.81, 0.00, 0.00, 0.00, 0.00, 0.00, 0.00, 0.00, 0.180, 0.046, 1.000, 12:23:04.408
137, 56555.93, 0.00, 0.00, 0.00, 0.00, 0.00, 0.00, 0.00, 0.000, 0.000, 0.000, 12:23:04.408
138, 56517.37, 0.00, 0.00, 0.00, 0.00, 0.00, 0.00, 0.00, 0.000, 0.000, 0.000, 12:23:04.408
139, 56527.18, 0.00, 0.00, 0.00, 0.00, 0.00, 0.00, 0.00, 0.000, 0.000, 0.000, 12:23:04.408
140, 56555.39, 0.00, 0.00, 0.00, 0.00, 0.00, 0.00, 0.00, 0.000, 0.000, 0.000, 12:23:04.408
141, 56539.94, 0.00, 0.00, 0.00, 0.00, 0.00, 0.00, 0.00, 0.000, 0.000, 0.000, 12:23:04.408
142, 56547.50, 0.00, 0.00, 0.00, 0.00, 0.00, 0.00, 0.00, 0.000, 0.000, 0.000, 12:23:04.408
143, 56550.65, 0.00, 0.00, 0.00, 0.00, 0.00, 0.00, 0.00, 0.000, 0.000, 0.000, 12:23:04.408
144, 56555.75, 0.00, 0.00, 0.00, 0.00, 0.00, 0.00, 0.00, 0.000, 0.000, 0.000, 12:23:04.408
145, 56525.41, 0.00, 0.00, 0.00, 0.00, 0.00, 0.00, 0.00, 0.178, 0.038, 1.002, 12:23:04.408
146, 56521.68, 0.00, 0.00, 0.00, 0.00, 0.00, 0.00, 0.00, 0.000, 0.000, 0.000, 12:23:04.408
147, 56532.14, 0.00, 0.00, 0.00, 0.00, 0.00, 0.00, 0.00, 0.000, 0.000, 0.000, 12:23:04.408
148, 56558.94, 0.00, 0.00, 0.00, 0.00, 0.00, 0.00, 0.00, 0.000, 0.000, 0.000, 12:23:04.408
149, 56549.22, 0.00, 0.00, 0.00, 0.00, 0.00, 0.00, 0.00, 0.000, 0.000, 0.000, 12:23:04.408
150, 56516.43, 0.00, 0.00, 0.00, 0.00, 0.00, 0.00, 0.00, 0.000, 0.000, 0.000, 12:23:04.408
151, 56507.36, 0.00, 0.00, 0.00, 0.00, 0.00, 0.00, 0.00, 0.000, 0.000, 0.000, 12:23:04.408
152, 56542.51, 0.00, 0.00, 0.00, 0.00, 0.00, 0.00, 0.00, 0.000, 0.000, 0.000, 12:23:04.408
153, 56549.29, 0.00, 0.00, 0.00, 0.00, 0.00, 0.00, 0.00, 0.000, 0.000, 0.000, 12:23:04.408
154, 56543.30, 0.00, 0.00, 0.00, 0.00, 0.00, 0.00, 0.00, 0.000, 0.000, 0.000, 12:23:04.408
155, 56538.13, 0.00, 0.00, 0.00, 0.00, 0.00, 0.00, 0.00, 0.180, 0.038, 1.006, 12:23:04.408
156, 56530.49, 0.00, 0.00, 0.00, 0.00, 0.00, 0.00, 0.00, 0.000, 0.000, 0.000, 12:23:04.409
157, 56526.20, 0.00, 0.00, 0.00, 0.00, 0.00, 0.00, 0.00, 0.000, 0.000, 0.000, 12:23:04.409
158, 56527.47, 0.00, 0.00, 0.00, 0.00, 0.00, 0.00, 0.00, 0.000, 0.000, 0.000, 12:23:04.409
159, 56526.44, 0.00, 0.00, 0.00, 0.00, 0.00, 0.00, 0.00, 0.000, 0.000, 0.000, 12:23:04.409
160, 56545.02, 0.00, 0.00, 0.00, 0.00, 0.00, 0.00, 0.00, 0.000, 0.000, 0.000, 12:23:04.409
161, 56541.15, 0.00, 0.00, 0.00, 0.00, 0.00, 0.00, 0.00, 0.000, 0.000, 0.000, 12:23:04.409
162, 56510.33, 0.00, 0.00, 0.00, 0.00, 0.00, 0.00, 0.00, 0.000, 0.000, 0.000, 12:23:04.409
163, 56494.79, 0.00, 0.00, 0.00, 0.00, 0.00, 0.00, 0.00, 0.000, 0.000, 0.000, 12:23:04.409
164, 56528.43, 0.00, 0.00, 0.00, 0.00, 0.00, 0.00, 0.00, 0.000, 0.000, 0.000, 12:23:04.409
165, 56563.39, 0.00, 0.00, 0.00, 0.00, 0.00, 0.00, 0.00, 0.184, 0.040, 1.006, 12:23:04.409
166, 56546.11, 0.00, 0.00, 0.00, 0.00, 0.00, 0.00, 0.00, 0.000, 0.000, 0.000, 12:23:04.409
167, 56520.52, 0.00, 0.00, 0.00, 0.00, 0.00, 0.00, 0.00, 0.000, 0.000, 0.000, 12:23:04.409
168, 56513.86, 0.00, 0.00, 0.00, 0.00, 0.00, 0.00, 0.00, 0.000, 0.000, 0.000, 12:23:04.409
169, 56549.73, 0.00, 0.00, 0.00, 0.00, 0.00, 0.00, 0.00, 0.000, 0.000, 0.000, 12:23:04.409
170, 56545.91, 0.00, 0.00, 0.00, 0.00, 0.00, 0.00, 0.00, 0.000, 0.000, 0.000, 12:23:04.409
171, 56526.24, 0.00, 0.00, 0.00, 0.00, 0.00, 0.00, 0.00, 0.000, 0.000, 0.000, 12:23:04.409
172, 56526.93, 0.00, 0.00, 0.00, 0.00, 0.00, 0.00, 0.00, 0.000, 0.000, 0.000, 12:23:04.409
173, 56548.21, 0.00, 0.00, 0.00, 0.00, 0.00, 0.00, 0.00, 0.000, 0.000, 0.000, 12:23:04.409
174, 56539.14, 0.00, 0.00, 0.00, 0.00, 0.00, 0.00, 0.00, 0.000, 0.000, 0.000, 12:23:04.409
175, 56524.43, 0.00, 0.00, 0.00, 0.00, 0.00, 0.00, 0.00, 0.186, 0.038, 1.004, 12:23:04.409
176, 56518.60, 0.00, 0.00, 0.00, 0.00, 0.00, 0.00, 0.00, 0.000, 0.000, 0.000, 12:23:04.409
177, 56537.24, 0.00, 0.00, 0.00, 0.00, 0.00, 0.00, 0.00, 0.000, 0.000, 0.000, 12:23:04.409
178, 56534.22, 0.00, 0.00, 0.00, 0.00, 0.00, 0.00, 0.00, 0.000, 0.000, 0.000, 12:23:04.409
179, 56522.57, 0.00, 0.00, 0.00, 0.00, 0.00, 0.00, 0.00, 0.000, 0.000, 0.000, 12:23:04.409
180, 56533.91, 0.00, 0.00, 0.00, 0.00, 0.00, 0.00, 0.00, 0.000, 0.000, 0.000, 12:23:04.410
181, 56551.88, 0.00, 0.00, 0.00, 0.00, 0.00, 0.00, 0.00, 0.000, 0.000, 0.000, 12:23:04.410
182, 56555.97, 0.00, 0.00, 0.00, 0.00, 0.00, 0.00, 0.00, 0.000, 0.000, 0.000, 12:23:04.410
183, 56520.88, 0.00, 0.00, 0.00, 0.00, 0.00, 0.00, 0.00, 0.000, 0.000, 0.000, 12:23:04.410
184, 56507.29, 0.00, 0.00, 0.00, 0.00, 0.00, 0.00, 0.00, 0.000, 0.000, 0.000, 12:23:04.410
185, 56538.98, 0.00, 0.00, 0.00, 0.00, 0.00, 0.00, 0.00, 0.184, 0.040, 1.004, 12:23:04.410
186, 56531.67, 0.00, 0.00, 0.00, 0.00, 0.00, 0.00, 0.00, 0.000, 0.000, 0.000, 12:23:04.410
187, 56526.09, 0.00, 0.00, 0.00, 0.00, 0.00, 0.00, 0.00, 0.000, 0.000, 0.000, 12:23:04.410
188, 56520.16, 0.00, 0.00, 0.00, 0.00, 0.00, 0.00, 0.00, 0.000, 0.000, 0.000, 12:23:04.410
189, 56517.81, 0.00, 0.00, 0.00, 0.00, 0.00, 0.00, 0.00, 0.000, 0.000, 0.000, 12:23:04.410
190, 56540.88, 0.00, 0.00, 0.00, 0.00, 0.00, 0.00, 0.00, 0.000, 0.000, 0.000, 12:23:04.410
191, 56558.27, 0.00, 0.00, 0.00, 0.00, 0.00, 0.00, 0.00, 0.000, 0.000, 0.000, 12:23:04.410
192, 56540.08, 0.00, 0.00, 0.00, 0.00, 0.00, 0.00, 0.00, 0.000, 0.000, 0.000, 12:23:04.410
193, 56535.81, 0.00, 0.00, 0.00, 0.00, 0.00, 0.00, 0.00, 0.000, 0.000, 0.000, 12:23:04.410
194, 56556.62, 0.00, 0.00, 0.00, 0.00, 0.00, 0.00, 0.00, 0.000, 0.000, 0.000, 12:23:04.410
195, 56551.05, 0.00, 0.00, 0.00, 0.00, 0.00, 0.00, 0.00, 0.184, 0.040, 1.002, 12:23:04.411
196, 56542.89, 0.00, 0.00, 0.00, 0.00, 0.00, 0.00, 0.00, 0.000, 0.000, 0.000, 12:23:04.411
197, 56537.08, 0.00, 0.00, 0.00, 0.00, 0.00, 0.00, 0.00, 0.000, 0.000, 0.000, 12:23:04.411
198, 56560.73, 0.00, 0.00, 0.00, 0.00, 0.00, 0.00, 0.00, 0.000, 0.000, 0.000, 12:23:04.411
199, 56552.57, 0.00, 0.00, 0.00, 0.00, 0.00, 0.00, 0.00, 0.000, 0.000, 0.000, 12:23:04.411
200, 56527.98, 0.00, 0.00, 0.00, 0.00, 0.00, 0.00, 0.00, 0.000, 0.000, 0.000, 12:23:04.411
201, 56497.25, 0.00, 0.00, 0.00, 0.00, 0.00, 0.00, 0.00, 0.000, 0.000, 0.000, 12:23:04.411
202, 56504.11, 0.00, 0.00, 0.00, 0.00, 0.00, 0.00, 0.00, 0.000, 0.000, 0.000, 12:23:04.411
203, 56555.79, 0.00, 0.00, 0.00, 0.00, 0.00, 0.00, 0.00, 0.000, 0.000, 0.000, 12:23:04.411
204, 56560.33, 0.00, 0.00, 0.00, 0.00, 0.00, 0.00, 0.00, 0.182, 0.044, 1.004, 12:23:04.411
205, 56543.38, 0.00, 0.00, 0.00, 0.00, 0.00, 0.00, 0.00, 0.000, 0.000, 0.000, 12:23:04.411
206, 56545.91, 0.00, 0.00, 0.00, 0.00, 0.00, 0.00, 0.00, 0.000, 0.000, 0.000, 12:23:04.411
207, 56542.98, 0.00, 0.00, 0.00, 0.00, 0.00, 0.00, 0.00, 0.000, 0.000, 0.000, 12:23:04.411
208, 56513.25, 0.00, 0.00, 0.00, 0.00, 0.00, 0.00, 0.00, 0.000, 0.000, 0.000, 12:23:04.411
209, 56517.73, 0.00, 0.00, 0.00, 0.00, 0.00, 0.00, 0.00, 0.000, 0.000, 0.000, 12:23:04.411
210, 56564.35, 0.00, 0.00, 0.00, 0.00, 0.00, 0.00, 0.00, 0.000, 0.000, 0.000, 12:23:04.411
211, 56580.45, 0.00, 0.00, 0.00, 0.00, 0.00, 0.00, 0.00, 0.000, 0.000, 0.000, 12:23:04.411
212, 56550.65, 0.00, 0.00, 0.00, 0.00, 0.00, 0.00, 0.00, 0.000, 0.000, 0.000, 12:23:04.413
213, 56527.76, 0.00, 0.00, 0.00, 0.00, 0.00, 0.00, 0.00, 0.000, 0.000, 0.000, 12:23:04.413
214, 56536.46, 0.00, 0.00, 0.00, 0.00, 0.00, 0.00, 0.00, 0.182, 0.046, 1.002, 12:23:04.413
215, 56554.02, 0.00, 0.00, 0.00, 0.00, 0.00, 0.00, 0.00, 0.000, 0.000, 0.000, 12:23:04.413
216, 56546.02, 0.00, 0.00, 0.00, 0.00, 0.00, 0.00, 0.00, 0.000, 0.000, 0.000, 12:23:04.413
217, 56539.05, 0.00, 0.00, 0.00, 0.00, 0.00, 0.00, 0.00, 0.000, 0.000, 0.000, 12:23:04.414
218, 56554.11, 0.00, 0.00, 0.00, 0.00, 0.00, 0.00, 0.00, 0.000, 0.000, 0.000, 12:23:04.414
219, 56558.72, 0.00, 0.00, 0.00, 0.00, 0.00, 0.00, 0.00, 0.000, 0.000, 0.000, 12:23:04.414
220, 56535.25, 0.00, 0.00, 0.00, 0.00, 0.00, 0.00, 0.00, 0.000, 0.000, 0.000, 12:23:04.414
221, 56535.29, 0.00, 0.00, 0.00, 0.00, 0.00, 0.00, 0.00, 0.000, 0.000, 0.000, 12:23:04.414
222, 56547.86, 0.00, 0.00, 0.00, 0.00, 0.00, 0.00, 0.00, 0.000, 0.000, 0.000, 12:23:04.414
223, 56564.86, 0.00, 0.00, 0.00, 0.00, 0.00, 0.00, 0.00, 0.000, 0.000, 0.000, 12:23:04.414
224, 56548.84, 0.00, 0.00, 0.00, 0.00, 0.00, 0.00, 0.00, 0.190, 0.048, 1.000, 12:23:04.414
225, 56525.77, 0.00, 0.00, 0.00, 0.00, 0.00, 0.00, 0.00, 0.000, 0.000, 0.000, 12:23:04.414
226, 56526.96, 0.00, 0.00, 0.00, 0.00, 0.00, 0.00, 0.00, 0.000, 0.000, 0.000, 12:23:04.414
227, 56560.53, 0.00, 0.00, 0.00, 0.00, 0.00, 0.00, 0.00, 0.000, 0.000, 0.000, 12:23:04.414
228, 56538.54, 0.00, 0.00, 0.00, 0.00, 0.00, 0.00, 0.00, 0.000, 0.000, 0.000, 12:23:04.414
229, 56518.86, 0.00, 0.00, 0.00, 0.00, 0.00, 0.00, 0.00, 0.000, 0.000, 0.000, 12:23:04.414
230, 56536.70, 0.00, 0.00, 0.00, 0.00, 0.00, 0.00, 0.00, 0.000, 0.000, 0.000, 12:23:04.415
231, 56542.85, 0.00, 0.00, 0.00, 0.00, 0.00, 0.00, 0.00, 0.000, 0.000, 0.000, 12:23:04.415
232, 56557.54, 0.00, 0.00, 0.00, 0.00, 0.00, 0.00, 0.00, 0.000, 0.000, 0.000, 12:23:04.415
233, 56564.71, 0.00, 0.00, 0.00, 0.00, 0.00, 0.00, 0.00, 0.000, 0.000, 0.000, 12:23:04.415
234, 56510.30, 0.00, 0.00, 0.00, 0.00, 0.00, 0.00, 0.00, 0.190, 0.042, 0.998, 12:23:04.418
235, 56524.30, 0.00, 0.00, 0.00, 0.00, 0.00, 0.00, 0.00, 0.000, 0.000, 0.000, 12:23:04.418
236, 56564.86, 0.00, 0.00, 0.00, 0.00, 0.00, 0.00, 0.00, 0.000, 0.000, 0.000, 12:23:04.418
237, 56554.63, 0.00, 0.00, 0.00, 0.00, 0.00, 0.00, 0.00, 0.000, 0.000, 0.000, 12:23:04.418
238, 56548.35, 0.00, 0.00, 0.00, 0.00, 0.00, 0.00, 0.00, 0.000, 0.000, 0.000, 12:23:04.418
239, 56561.20, 0.00, 0.00, 0.00, 0.00, 0.00, 0.00, 0.00, 0.000, 0.000, 0.000, 12:23:04.418
240, 56569.04, 0.00, 0.00, 0.00, 0.00, 0.00, 0.00, 0.00, 0.000, 0.000, 0.000, 12:23:04.419
241, 56546.58, 0.00, 0.00, 0.00, 0.00, 0.00, 0.00, 0.00, 0.000, 0.000, 0.000, 12:23:04.887
242, 56532.72, 0.00, 0.00, 0.00, 0.00, 0.00, 0.00, 0.00, 0.000, 0.000, 0.000, 12:23:04.887
243, 56551.52, 0.00, 0.00, 0.00, 0.00, 0.00, 0.00, 0.00, 0.000, 0.000, 0.000, 12:23:04.887
244, 56572.55, 0.00, 0.00, 0.00, 0.00, 0.00, 0.00, 0.00, 0.186, 0.044, 0.998, 12:23:04.887
245, 56551.68, 0.00, 0.00, 0.00, 0.00, 0.00, 0.00, 0.00, 0.000, 0.000, 0.000, 12:23:04.887
246, 56536.25, 0.00, 0.00, 0.00, 0.00, 0.00, 0.00, 0.00, 0.000, 0.000, 0.000, 12:23:04.887
247, 56536.99, 0.00, 0.00, 0.00, 0.00, 0.00, 0.00, 0.00, 0.000, 0.000, 0.000, 12:23:04.887
248, 56541.84, 0.00, 0.00, 0.00, 0.00, 0.00, 0.00, 0.00, 0.000, 0.000, 0.000, 12:23:04.887
249, 56522.51, 0.00, 0.00, 0.00, 0.00, 0.00, 0.00, 0.00, 0.000, 0.000, 0.000, 12:23:04.887
250, 56533.24, 0.00, 0.00, 0.00, 0.00, 0.00, 0.00, 0.00, 0.000, 0.000, 0.000, 12:23:04.887
251, 56533.86, 0.00, 0.00, 0.00, 0.00, 0.00, 0.00, 0.00, 0.000, 0.000, 0.000, 12:23:04.888
252, 56538.69, 0.00, 0.00, 0.00, 0.00, 0.00, 0.00, 0.00, 0.000, 0.000, 0.000, 12:23:04.888
253, 56546.83, 0.00, 0.00, 0.00, 0.00, 0.00, 0.00, 0.00, 0.000, 0.000, 0.000, 12:23:04.888
254, 56536.23, 0.00, 0.00, 0.00, 0.00, 0.00, 0.00, 0.00, 0.190, 0.040, 1.000, 12:23:04.888
255, 56541.64, 0.00, 0.00, 0.00, 0.00, 0.00, 0.00, 0.00, 0.000, 0.000, 0.000, 12:23:04.888
0, 56551.21, 0.00, 0.00, 0.00, 0.00, 0.00, 0.00, 0.00, 0.000, 0.000, 0.000, 12:23:04.888
1, 56535.74, 0.00, 0.00, 0.00, 0.00, 0.00, 0.00, 0.00, 0.000, 0.000, 0.000, 12:23:04.888
2, 56530.58, 0.00, 0.00, 0.00, 0.00, 0.00, 0.00, 0.00, 0.000, 0.000, 0.000, 12:23:04.888
3, 56533.80, 0.00, 0.00, 0.00, 0.00, 0.00, 0.00, 0.00, 0.000, 0.000, 0.000, 12:23:04.888
4, 56539.83, 0.00, 0.00, 0.00, 0.00, 0.00, 0.00, 0.00, 0.000, 0.000, 0.000, 12:23:04.888
5, 56546.27, 0.00, 0.00, 0.00, 0.00, 0.00, 0.00, 0.00, 0.000, 0.000, 0.000, 12:23:04.888
6, 56519.94, 0.00, 0.00, 0.00, 0.00, 0.00, 0.00, 0.00, 0.000, 0.000, 0.000, 12:23:04.888
7, 56507.51, 0.00, 0.00, 0.00, 0.00, 0.00, 0.00, 0.00, 0.000, 0.000, 0.000, 12:23:04.888
8, 56537.46, 0.00, 0.00, 0.00, 0.00, 0.00, 0.00, 0.00, 0.186, 0.038, 0.994, 12:23:04.889
9, 56583.39, 0.00, 0.00, 0.00, 0.00, 0.00, 0.00, 0.00, 0.000, 0.000, 0.000, 12:23:04.889
10, 56561.78, 0.00, 0.00, 0.00, 0.00, 0.00, 0.00, 0.00, 0.000, 0.000, 0.000, 12:23:04.889
11, 56537.26, 0.00, 0.00, 0.00, 0.00, 0.00, 0.00, 0.00, 0.000, 0.000, 0.000, 12:23:04.889
12, 56528.99, 0.00, 0.00, 0.00, 0.00, 0.00, 0.00, 0.00, 0.000, 0.000, 0.000, 12:23:04.889
13, 56551.54, 0.00, 0.00, 0.00, 0.00, 0.00, 0.00, 0.00, 0.000, 0.000, 0.000, 12:23:04.890
14, 56567.86, 0.00, 0.00, 0.00, 0.00, 0.00, 0.00, 0.00, 0.000, 0.000, 0.000, 12:23:04.890
15, 56556.64, 0.00, 0.00, 0.00, 0.00, 0.00, 0.00, 0.00, 0.000, 0.000, 0.000, 12:23:04.890
16, 56553.73, 0.00, 0.00, 0.00, 0.00, 0.00, 0.00, 0.00, 0.000, 0.000, 0.000, 12:23:04.890
17, 56563.90, 0.00, 0.00, 0.00, 0.00, 0.00, 0.00, 0.00, 0.186, 0.040, 0.994, 12:23:04.891
18, 56556.64, 0.00, 0.00, 0.00, 0.00, 0.00, 0.00, 0.00, 0.000, 0.000, 0.000, 12:23:04.891
19, 56517.70, 0.00, 0.00, 0.00, 0.00, 0.00, 0.00, 0.00, 0.000, 0.000, 0.000, 12:23:04.891
20, 56521.64, 0.00, 0.00, 0.00, 0.00, 0.00, 0.00, 0.00, 0.000, 0.000, 0.000, 12:23:04.891
21, 56573.14, 0.00, 0.00, 0.00, 0.00, 0.00, 0.00, 0.00, 0.000, 0.000, 0.000, 12:23:04.891
22, 56578.61, 0.00, 0.00, 0.00, 0.00, 0.00, 0.00, 0.00, 0.000, 0.000, 0.000, 12:23:04.891
23, 56554.14, 0.00, 0.00, 0.00, 0.00, 0.00, 0.00, 0.00, 0.000, 0.000, 0.000, 12:23:04.891
24, 56538.64, 0.00, 0.00, 0.00, 0.00, 0.00, 0.00, 0.00, 0.000, 0.000, 0.000, 12:23:04.891
25, 56558.43, 0.00, 0.00, 0.00, 0.00, 0.00, 0.00, 0.00, 0.000, 0.000, 0.000, 12:23:04.891
26, 56568.89, 0.00, 0.00, 0.00, 0.00, 0.00, 0.00, 0.00, 0.000, 0.000, 0.000, 12:23:04.891
27, 56547.90, 0.00, 0.00, 0.00, 0.00, 0.00, 0.00, 0.00, 0.188, 0.044, 0.994, 12:23:04.891
28, 56519.94, 0.00, 0.00, 0.00, 0.00, 0.00, 0.00, 0.00, 0.000, 0.000, 0.000, 12:23:04.891
29, 56536.41, 0.00, 0.00, 0.00, 0.00, 0.00, 0.00, 0.00, 0.000, 0.000, 0.000, 12:23:04.891
30, 56557.85, 0.00, 0.00, 0.00, 0.00, 0.00, 0.00, 0.00, 0.000, 0.000, 0.000, 12:23:04.891
31, 56549.55, 0.00, 0.00, 0.00, 0.00, 0.00, 0.00, 0.00, 0.000, 0.000, 0.000, 12:23:04.891
32, 56547.36, 0.00, 0.00, 0.00, 0.00, 0.00, 0.00, 0.00, 0.000, 0.000, 0.000, 12:23:04.891
33, 56542.58, 0.00, 0.00, 0.00, 0.00, 0.00, 0.00, 0.00, 0.000, 0.000, 0.000, 12:23:04.891
34, 56564.46, 0.00, 0.00, 0.00, 0.00, 0.00, 0.00, 0.00, 0.000, 0.000, 0.000, 12:23:04.891
35, 56566.70, 0.00, 0.00, 0.00, 0.00, 0.00, 0.00, 0.00, 0.000, 0.000, 0.000, 12:23:04.891
36, 56546.36, 0.00, 0.00, 0.00, 0.00, 0.00, 0.00, 0.00, 0.000, 0.000, 0.000, 12:23:04.892
37, 56535.63, 0.00, 0.00, 0.00, 0.00, 0.00, 0.00, 0.00, 0.184, 0.044, 0.996, 12:23:04.892
38, 56551.23, 0.00, 0.00, 0.00, 0.00, 0.00, 0.00, 0.00, 0.000, 0.000, 0.000, 12:23:04.892
39, 56551.72, 0.00, 0.00, 0.00, 0.00, 0.00, 0.00, 0.00, 0.000, 0.000, 0.000, 12:23:04.892
40, 56534.22, 0.00, 0.00, 0.00, 0.00, 0.00, 0.00, 0.00, 0.000, 0.000, 0.000, 12:23:04.892
41, 56540.43, 0.00, 0.00, 0.00, 0.00, 0.00, 0.00, 0.00, 0.000, 0.000, 0.000, 12:23:04.892
42, 56566.23, 0.00, 0.00, 0.00, 0.00, 0.00, 0.00, 0.00, 0.000, 0.000, 0.000, 12:23:04.892
43, 56562.09, 0.00, 0.00, 0.00, 0.00, 0.00, 0.00, 0.00, 0.000, 0.000, 0.000, 12:23:04.892
44, 56537.35, 0.00, 0.00, 0.00, 0.00, 0.00, 0.00, 0.00, 0.000, 0.000, 0.000, 12:23:04.892
45, 56554.34, 0.00, 0.00, 0.00, 0.00, 0.00, 0.00, 0.00, 0.000, 0.000, 0.000, 12:23:04.892
46, 56570.05, 0.00, 0.00, 0.00, 0.00, 0.00, 0.00, 0.00, 0.000, 0.000, 0.000, 12:23:04.893
47, 56555.21, 0.00, 0.00, 0.00, 0.00, 0.00, 0.00, 0.00, 0.186, 0.042, 0.996, 12:23:04.893
48, 56515.78, 0.00, 0.00, 0.00, 0.00, 0.00, 0.00, 0.00, 0.000, 0.000, 0.000, 12:23:04.893
49, 56509.84, 0.00, 0.00, 0.00, 0.00, 0.00, 0.00, 0.00, 0.000, 0.000, 0.000, 12:23:04.893
50, 56568.20, 0.00, 0.00, 0.00, 0.00, 0.00, 0.00, 0.00, 0.000, 0.000, 0.000, 12:23:04.893
51, 56598.04, 0.00, 0.00, 0.00, 0.00, 0.00, 0.00, 0.00, 0.000, 0.000, 0.000, 12:23:04.893
52, 56557.04, 0.00, 0.00, 0.00, 0.00, 0.00, 0.00, 0.00, 0.000, 0.000, 0.000, 12:23:04.893
53, 56527.00, 0.00, 0.00, 0.00, 0.00, 0.00, 0.00, 0.00, 0.000, 0.000, 0.000, 12:23:04.893
54, 56527.25, 0.00, 0.00, 0.00, 0.00, 0.00, 0.00, 0.00, 0.000, 0.000, 0.000, 12:23:04.893
55, 56557.76, 0.00, 0.00, 0.00, 0.00, 0.00, 0.00, 0.00, 0.000, 0.000, 0.000, 12:23:04.893
56, 56567.91, 0.00, 0.00, 0.00, 0.00, 0.00, 0.00, 0.00, 0.000, 0.000, 0.000, 12:23:04.894
57, 56546.67, 0.00, 0.00, 0.00, 0.00, 0.00, 0.00, 0.00, 0.186, 0.040, 1.000, 12:23:04.894
58, 56544.41, 0.00, 0.00, 0.00, 0.00, 0.00, 0.00, 0.00, 0.000, 0.000, 0.000, 12:23:04.894
59, 56572.02, 0.00, 0.00, 0.00, 0.00, 0.00, 0.00, 0.00, 0.000, 0.000, 0.000, 12:23:04.894
60, 56560.68, 0.00, 0.00, 0.00, 0.00, 0.00, 0.00, 0.00, 0.000, 0.000, 0.000, 12:23:04.894
61, 56543.32, 0.00, 0.00, 0.00, 0.00, 0.00, 0.00, 0.00, 0.000, 0.000, 0.000, 12:23:04.894
62, 56549.40, 0.00, 0.00, 0.00, 0.00, 0.00, 0.00, 0.00, 0.000, 0.000, 0.000, 12:23:04.894
63, 56568.71, 0.00, 0.00, 0.00, 0.00, 0.00, 0.00, 0.00, 0.000, 0.000, 0.000, 12:23:04.894
64, 56558.56, 0.00, 0.00, 0.00, 0.00, 0.00, 0.00, 0.00, 0.000, 0.000, 0.000, 12:23:04.894
65, 56540.28, 0.00, 0.00, 0.00, 0.00, 0.00, 0.00, 0.00, 0.000, 0.000, 0.000, 12:23:04.894
66, 56537.71, 0.00, 0.00, 0.00, 0.00, 0.00, 0.00, 0.00, 0.000, 0.000, 0.000, 12:23:04.894
67, 56557.69, 0.00, 0.00, 0.00, 0.00, 0.00, 0.00, 0.00, 0.186, 0.038, 1.000, 12:23:04.895
68, 56554.67, 0.00, 0.00, 0.00, 0.00, 0.00, 0.00, 0.00, 0.000, 0.000, 0.000, 12:23:04.895
69, 56542.47, 0.00, 0.00, 0.00, 0.00, 0.00, 0.00, 0.00, 0.000, 0.000, 0.000, 12:23:04.895
70, 56529.59, 0.00, 0.00, 0.00, 0.00, 0.00, 0.00, 0.00, 0.000, 0.000, 0.000, 12:23:04.895
71, 56523.27, 0.00, 0.00, 0.00, 0.00, 0.00, 0.00, 0.00, 0.000, 0.000, 0.000, 12:23:04.895
72, 56504.58, 0.00, 0.00, 0.00, 0.00, 0.00, 0.00, 0.00, 0.000, 0.000, 0.000, 12:23:04.895
73, 56520.56, 0.00, 0.00, 0.00, 0.00, 0.00, 0.00, 0.00, 0.000, 0.000, 0.000, 12:23:04.895
74, 56568.06, 0.00, 0.00, 0.00, 0.00, 0.00, 0.00, 0.00, 0.000, 0.000, 0.000, 12:23:04.895
75, 56586.86, 0.00, 0.00, 0.00, 0.00, 0.00, 0.00, 0.00, 0.000, 0.000, 0.000, 12:23:04.895
76, 56577.43, 0.00, 0.00, 0.00, 0.00, 0.00, 0.00, 0.00, 0.182, 0.042, 1.004, 12:23:04.898
77, 56541.48, 0.00, 0.00, 0.00, 0.00, 0.00, 0.00, 0.00, 0.000, 0.000, 0.000, 12:23:04.898
78, 56545.33, 0.00, 0.00, 0.00, 0.00, 0.00, 0.00, 0.00, 0.000, 0.000, 0.000, 12:23:04.898
79, 56559.57, 0.00, 0.00, 0.00, 0.00, 0.00, 0.00, 0.00, 0.000, 0.000, 0.000, 12:23:04.898
80, 56575.64, 0.00, 0.00, 0.00, 0.00, 0.00, 0.00, 0.00, 0.000, 0.000, 0.000, 12:23:04.898
81, 56541.93, 0.00, 0.00, 0.00, 0.00, 0.00, 0.00, 0.00, 0.000, 0.000, 0.000, 12:23:04.898
82, 56527.34, 0.00, 0.00, 0.00, 0.00, 0.00, 0.00, 0.00, 0.000, 0.000, 0.000, 12:23:04.898
83, 56535.36, 0.00, 0.00, 0.00, 0.00, 0.00, 0.00, 0.00, 0.000, 0.000, 0.000, 12:23:04.898
84, 56558.14, 0.00, 0.00, 0.00, 0.00, 0.00, 0.00, 0.00, 0.000, 0.000, 0.000, 12:23:04.898
85, 56547.12, 0.00, 0.00, 0.00, 0.00, 0.00, 0.00, 0.00, 0.000, 0.000, 0.000, 12:23:04.898
86, 56517.77, 0.00, 0.00, 0.00, 0.00, 0.00, 0.00, 0.00, 0.184, 0.048, 1.004, 12:23:04.898
87, 56501.99, 0.00, 0.00, 0.00, 0.00, 0.00, 0.00, 0.00, 0.000, 0.000, 0.000, 12:23:04.898
88, 56517.64, 0.00, 0.00, 0.00, 0.00, 0.00, 0.00, 0.00, 0.000, 0.000, 0.000, 12:23:04.898
89, 56524.12, 0.00, 0.00, 0.00, 0.00, 0.00, 0.00, 0.00, 0.000, 0.000, 0.000, 12:23:04.898
90, 56513.39, 0.00, 0.00, 0.00, 0.00, 0.00, 0.00, 0.00, 0.000, 0.000, 0.000, 12:23:04.898
91, 56535.72, 0.00, 0.00, 0.00, 0.00, 0.00, 0.00, 0.00, 0.000, 0.000, 0.000, 12:23:04.898
92, 56560.86, 0.00, 0.00, 0.00, 0.00, 0.00, 0.00, 0.00, 0.000, 0.000, 0.000, 12:23:04.898
93, 56552.32, 0.00, 0.00, 0.00, 0.00, 0.00, 0.00, 0.00, 0.000, 0.000, 0.000, 12:23:04.898
94, 56536.48, 0.00, 0.00, 0.00, 0.00, 0.00, 0.00, 0.00, 0.000, 0.000, 0.000, 12:23:04.899
95, 56540.05, 0.00, 0.00, 0.00, 0.00, 0.00, 0.00, 0.00, 0.000, 0.000, 0.000, 12:23:04.899
96, 56547.54, 0.00, 0.00, 0.00, 0.00, 0.00, 0.00, 0.00, 0.184, 0.044, 1.000, 12:23:04.899
97, 56532.37, 0.00, 0.00, 0.00, 0.00, 0.00, 0.00, 0.00, 0.000, 0.000, 0.000, 12:23:04.899
98, 56507.87, 0.00, 0.00, 0.00, 0.00, 0.00, 0.00, 0.00, 0.000, 0.000, 0.000, 12:23:04.899
99, 56520.99, 0.00, 0.00, 0.00, 0.00, 0.00, 0.00, 0.00, 0.000, 0.000, 0.000, 12:23:04.899
100, 56539.38, 0.00, 0.00, 0.00, 0.00, 0.00, 0.00, 0.00, 0.000, 0.000, 0.000, 12:23:04.899
101, 56549.38, 0.00, 0.00, 0.00, 0.00, 0.00, 0.00, 0.00, 0.000, 0.000, 0.000, 12:23:04.899
102, 56548.68, 0.00, 0.00, 0.00, 0.00, 0.00, 0.00, 0.00, 0.000, 0.000, 0.000, 12:23:04.899
103, 56535.02, 0.00, 0.00, 0.00, 0.00, 0.00, 0.00, 0.00, 0.000, 0.000, 0.000, 12:23:04.899
104, 56538.60, 0.00, 0.00, 0.00, 0.00, 0.00, 0.00, 0.00, 0.000, 0.000, 0.000, 12:23:04.899
105, 56550.87, 0.00, 0.00, 0.00, 0.00, 0.00, 0.00, 0.00, 0.000, 0.000, 0.000, 12:23:05.366
106, 56543.34, 0.00, 0.00, 0.00, 0.00, 0.00, 0.00, 0.00, 0.182, 0.040, 0.998, 12:23:05.366
107, 56532.59, 0.00, 0.00, 0.00, 0.00, 0.00, 0.00, 0.00, 0.000, 0.000, 0.000, 12:23:05.366
108, 56541.93, 0.00, 0.00, 0.00, 0.00, 0.00, 0.00, 0.00, 0.000, 0.000, 0.000, 12:23:05.366
109, 56555.05, 0.00, 0.00, 0.00, 0.00, 0.00, 0.00, 0.00, 0.000, 0.000, 0.000, 12:23:05.366
110, 56530.44, 0.00, 0.00, 0.00, 0.00, 0.00, 0.00, 0.00, 0.000, 0.000, 0.000, 12:23:05.366
111, 56514.93, 0.00, 0.00, 0.00, 0.00, 0.00, 0.00, 0.00, 0.000, 0.000, 0.000, 12:23:05.367
112, 56496.76, 0.00, 0.00, 0.00, 0.00, 0.00, 0.00, 0.00, 0.000, 0.000, 0.000, 12:23:05.367
113, 56516.23, 0.00, 0.00, 0.00, 0.00, 0.00, 0.00, 0.00, 0.000, 0.000, 0.000, 12:23:05.367
114, 56555.88, 0.00, 0.00, 0.00, 0.00, 0.00, 0.00, 0.00, 0.000, 0.000, 0.000, 12:23:05.367
115, 56563.41, 0.00, 0.00, 0.00, 0.00, 0.00, 0.00, 0.00, 0.000, 0.000, 0.000, 12:23:05.367
116, 56559.14, 0.00, 0.00, 0.00, 0.00, 0.00, 0.00, 0.00, 0.182, 0.044, 1.004, 12:23:05.367
117, 56563.34, 0.00, 0.00, 0.00, 0.00, 0.00, 0.00, 0.00, 0.000, 0.000, 0.000, 12:23:05.367
118, 56546.89, 0.00, 0.00, 0.00, 0.00, 0.00, 0.00, 0.00, 0.000, 0.000, 0.000, 12:23:05.367
119, 56524.52, 0.00, 0.00, 0.00, 0.00, 0.00, 0.00, 0.00, 0.000, 0.000, 0.000, 12:23:05.367
120, 56514.57, 0.00, 0.00, 0.00, 0.00, 0.00, 0.00, 0.00, 0.000, 0.000, 0.000, 12:23:05.367
121, 56530.33, 0.00, 0.00, 0.00, 0.00, 0.00, 0.00, 0.00, 0.000, 0.000, 0.000, 12:23:05.367
122, 56548.32, 0.00, 0.00, 0.00, 0.00, 0.00, 0.00, 0.00, 0.000, 0.000, 0.000, 12:23:05.367
123, 56540.14, 0.00, 0.00, 0.00, 0.00, 0.00, 0.00, 0.00, 0.000, 0.000, 0.000, 12:23:05.367
124, 56537.80, 0.00, 0.00, 0.00, 0.00, 0.00, 0.00, 0.00, 0.000, 0.000, 0.000, 12:23:05.367
125, 56558.90, 0.00, 0.00, 0.00, 0.00, 0.00, 0.00, 0.00, 0.000, 0.000, 0.000, 12:23:05.367
126, 56567.28, 0.00, 0.00, 0.00, 0.00, 0.00, 0.00, 0.00, 0.180, 0.046, 1.004, 12:23:05.367
127, 56548.50, 0.00, 0.00, 0.00, 0.00, 0.00, 0.00, 0.00, 0.000, 0.000, 0.000, 12:23:05.367
128, 56545.06, 0.00, 0.00, 0.00, 0.00, 0.00, 0.00, 0.00, 0.000, 0.000, 0.000, 12:23:05.367
129, 56554.58, 0.00, 0.00, 0.00, 0.00, 0.00, 0.00, 0.00, 0.000, 0.000, 0.000, 12:23:05.368
130, 56555.01, 0.00, 0.00, 0.00, 0.00, 0.00, 0.00, 0.00, 0.000, 0.000, 0.000, 12:23:05.368
131, 56534.96, 0.00, 0.00, 0.00, 0.00, 0.00, 0.00, 0.00, 0.000, 0.000, 0.000, 12:23:05.368
132, 56533.46, 0.00, 0.00, 0.00, 0.00, 0.00, 0.00, 0.00, 0.000, 0.000, 0.000, 12:23:05.368
133, 56547.39, 0.00, 0.00, 0.00, 0.00, 0.00, 0.00, 0.00, 0.000, 0.000, 0.000, 12:23:05.368
134, 56554.67, 0.00, 0.00, 0.00, 0.00, 0.00, 0.00, 0.00, 0.000, 0.000, 0.000, 12:23:05.368
135, 56519.58, 0.00, 0.00, 0.00, 0.00, 0.00, 0.00, 0.00, 0.000, 0.000, 0.000, 12:23:05.368
136, 56492.45, 0.00, 0.00, 0.00, 0.00, 0.00, 0.00, 0.00, 0.178, 0.040, 1.008, 12:23:05.368
137, 56529.77, 0.00, 0.00, 0.00, 0.00, 0.00, 0.00, 0.00, 0.000, 0.000, 0.000, 12:23:05.369
138, 56582.01, 0.00, 0.00, 0.00, 0.00, 0.00, 0.00, 0.00, 0.000, 0.000, 0.000, 12:23:05.369
139, 56559.48, 0.00, 0.00, 0.00, 0.00, 0.00, 0.00, 0.00, 0.000, 0.000, 0.000, 12:23:05.370
140, 56536.84, 0.00, 0.00, 0.00, 0.00, 0.00, 0.00, 0.00, 0.000, 0.000, 0.000, 12:23:05.370
141, 56536.23, 0.00, 0.00, 0.00, 0.00, 0.00, 0.00, 0.00, 0.000, 0.000, 0.000, 12:23:05.370
142, 56561.98, 0.00, 0.00, 0.00, 0.00, 0.00, 0.00, 0.00, 0.000, 0.000, 0.000, 12:23:05.370
143, 56557.98, 0.00, 0.00, 0.00, 0.00, 0.00, 0.00, 0.00, 0.000, 0.000, 0.000, 12:23:05.370
144, 56545.82, 0.00, 0.00, 0.00, 0.00, 0.00, 0.00, 0.00, 0.000, 0.000, 0.000, 12:23:05.370
145, 56548.68, 0.00, 0.00, 0.00, 0.00, 0.00, 0.00, 0.00, 0.184, 0.048, 1.008, 12:23:05.371
146, 56554.89, 0.00, 0.00, 0.00, 0.00, 0.00, 0.00, 0.00, 0.000, 0.000, 0.000, 12:23:05.371
147, 56546.13, 0.00, 0.00, 0.00, 0.00, 0.00, 0.00, 0.00, 0.000, 0.000, 0.000, 12:23:05.371
148, 56524.48, 0.00, 0.00, 0.00, 0.00, 0.00, 0.00, 0.00, 0.000, 0.000, 0.000, 12:23:05.371
149, 56535.34, 0.00, 0.00, 0.00, 0.00, 0.00, 0.00, 0.00, 0.000, 0.000, 0.000, 12:23:05.371
150, 56555.70, 0.00, 0.00, 0.00, 0.00, 0.00, 0.00, 0.00, 0.000, 0.000, 0.000, 12:23:05.371
151, 56555.66, 0.00, 0.00, 0.00, 0.00, 0.00, 0.00, 0.00, 0.000, 0.000, 0.000, 12:23:05.371
152, 56536.03, 0.00, 0.00, 0.00, 0.00, 0.00, 0.00, 0.00, 0.000, 0.000, 0.000, 12:23:05.371
153, 56532.05, 0.00, 0.00, 0.00, 0.00, 0.00, 0.00, 0.00, 0.000, 0.000, 0.000, 12:23:05.371
154, 56545.64, 0.00, 0.00, 0.00, 0.00, 0.00, 0.00, 0.00, 0.000, 0.000, 0.000, 12:23:05.371
155, 56572.44, 0.00, 0.00, 0.00, 0.00, 0.00, 0.00, 0.00, 0.180, 0.042, 1.010, 12:23:05.371
156, 56546.07, 0.00, 0.00, 0.00, 0.00, 0.00, 0.00, 0.00, 0.000, 0.000, 0.000, 12:23:05.371
157, 56539.92, 0.00, 0.00, 0.00, 0.00, 0.00, 0.00, 0.00, 0.000, 0.000, 0.000, 12:23:05.371
158, 56564.20, 0.00, 0.00, 0.00, 0.00, 0.00, 0.00, 0.00, 0.000, 0.000, 0.000, 12:23:05.371
159, 56571.61, 0.00, 0.00, 0.00, 0.00, 0.00, 0.00, 0.00, 0.000, 0.000, 0.000, 12:23:05.371
160, 56534.91, 0.00, 0.00, 0.00, 0.00, 0.00, 0.00, 0.00, 0.000, 0.000, 0.000, 12:23:05.371
161, 56537.98, 0.00, 0.00, 0.00, 0.00, 0.00, 0.00, 0.00, 0.000, 0.000, 0.000, 12:23:05.371
162, 56549.80, 0.00, 0.00, 0.00, 0.00, 0.00, 0.00, 0.00, 0.000, 0.000, 0.000, 12:23:05.371
163, 56551.54, 0.00, 0.00, 0.00, 0.00, 0.00, 0.00, 0.00, 0.000, 0.000, 0.000, 12:23:05.371
164, 56534.85, 0.00, 0.00, 0.00, 0.00, 0.00, 0.00, 0.00, 0.000, 0.000, 0.000, 12:23:05.372
165, 56518.30, 0.00, 0.00, 0.00, 0.00, 0.00, 0.00, 0.00, 0.180, 0.036, 1.004, 12:23:05.372
166, 56539.23, 0.00, 0.00, 0.00, 0.00, 0.00, 0.00, 0.00, 0.000, 0.000, 0.000, 12:23:05.373
167, 56556.64, 0.00, 0.00, 0.00, 0.00, 0.00, 0.00, 0.00, 0.000, 0.000, 0.000, 12:23:05.373
168, 56535.85, 0.00, 0.00, 0.00, 0.00, 0.00, 0.00, 0.00, 0.000, 0.000, 0.000, 12:23:05.373
169, 56505.79, 0.00, 0.00, 0.00, 0.00, 0.00, 0.00, 0.00, 0.000, 0.000, 0.000, 12:23:05.373
170, 56519.38, 0.00, 0.00, 0.00, 0.00, 0.00, 0.00, 0.00, 0.000, 0.000, 0.000, 12:23:05.373
171, 56543.68, 0.00, 0.00, 0.00, 0.00, 0.00, 0.00, 0.00, 0.000, 0.000, 0.000, 12:23:05.373
172, 56527.43, 0.00, 0.00, 0.00, 0.00, 0.00, 0.00, 0.00, 0.000, 0.000, 0.000, 12:23:05.373
173, 56532.77, 0.00, 0.00, 0.00, 0.00, 0.00, 0.00, 0.00, 0.000, 0.000, 0.000, 12:23:05.373
174, 56551.57, 0.00, 0.00, 0.00, 0.00, 0.00, 0.00, 0.00, 0.000, 0.000, 0.000, 12:23:05.373
175, 56557.31, 0.00, 0.00, 0.00, 0.00, 0.00, 0.00, 0.00, 0.176, 0.042, 1.006, 12:23:05.373
176, 56550.43, 0.00, 0.00, 0.00, 0.00, 0.00, 0.00, 0.00, 0.000, 0.000, 0.000, 12:23:05.373
177, 56531.76, 0.00, 0.00, 0.00, 0.00, 0.00, 0.00, 0.00, 0.000, 0.000, 0.000, 12:23:05.373
178, 56528.88, 0.00, 0.00, 0.00, 0.00, 0.00, 0.00, 0.00, 0.000, 0.000, 0.000, 12:23:05.373
179, 56538.60, 0.00, 0.00, 0.00, 0.00, 0.00, 0.00, 0.00, 0.000, 0.000, 0.000, 12:23:05.373
180, 56545.98, 0.00, 0.00, 0.00, 0.00, 0.00, 0.00, 0.00, 0.000, 0.000, 0.000, 12:23:05.373
181, 56531.14, 0.00, 0.00, 0.00, 0.00, 0.00, 0.00, 0.00, 0.000, 0.000, 0.000, 12:23:05.373
182, 56539.23, 0.00, 0.00, 0.00, 0.00, 0.00, 0.00, 0.00, 0.000, 0.000, 0.000, 12:23:05.373
183, 56551.68, 0.00, 0.00, 0.00, 0.00, 0.00, 0.00, 0.00, 0.000, 0.000, 0.000, 12:23:05.373
184, 56548.55, 0.00, 0.00, 0.00, 0.00, 0.00, 0.00, 0.00, 0.000, 0.000, 0.000, 12:23:05.374
185, 56528.14, 0.00, 0.00, 0.00, 0.00, 0.00, 0.00, 0.00, 0.178, 0.040, 1.000, 12:23:05.374
186, 56532.57, 0.00, 0.00, 0.00, 0.00, 0.00, 0.00, 0.00, 0.000, 0.000, 0.000, 12:23:05.374
187, 56532.07, 0.00, 0.00, 0.00, 0.00, 0.00, 0.00, 0.00, 0.000, 0.000, 0.000, 12:23:05.374
188, 56526.15, 0.00, 0.00, 0.00, 0.00, 0.00, 0.00, 0.00, 0.000, 0.000, 0.000, 12:23:05.374
189, 56525.64, 0.00, 0.00, 0.00, 0.00, 0.00, 0.00, 0.00, 0.000, 0.000, 0.000, 12:23:05.374
190, 56541.75, 0.00, 0.00, 0.00, 0.00, 0.00, 0.00, 0.00, 0.000, 0.000, 0.000, 12:23:05.374
191, 56553.31, 0.00, 0.00, 0.00, 0.00, 0.00, 0.00, 0.00, 0.000, 0.000, 0.000, 12:23:05.374
192, 56549.75, 0.00, 0.00, 0.00, 0.00, 0.00, 0.00, 0.00, 0.000, 0.000, 0.000, 12:23:05.374
193, 56545.29, 0.00, 0.00, 0.00, 0.00, 0.00, 0.00, 0.00, 0.000, 0.000, 0.000, 12:23:05.374
194, 56528.30, 0.00, 0.00, 0.00, 0.00, 0.00, 0.00, 0.00, 0.000, 0.000, 0.000, 12:23:05.374
195, 56527.00, 0.00, 0.00, 0.00, 0.00, 0.00, 0.00, 0.00, 0.182, 0.042, 1.002, 12:23:05.374
196, 56543.27, 0.00, 0.00, 0.00, 0.00, 0.00, 0.00, 0.00, 0.000, 0.000, 0.000, 12:23:05.375
197, 56531.54, 0.00, 0.00, 0.00, 0.00, 0.00, 0.00, 0.00, 0.000, 0.000, 0.000, 12:23:05.375
198, 56531.02, 0.00, 0.00, 0.00, 0.00, 0.00, 0.00, 0.00, 0.000, 0.000, 0.000, 12:23:05.375
199, 56550.74, 0.00, 0.00, 0.00, 0.00, 0.00, 0.00, 0.00, 0.000, 0.000, 0.000, 12:23:05.375
200, 56565.71, 0.00, 0.00, 0.00, 0.00, 0.00, 0.00, 0.00, 0.000, 0.000, 0.000, 12:23:05.375
201, 56558.47, 0.00, 0.00, 0.00, 0.00, 0.00, 0.00, 0.00, 0.000, 0.000, 0.000, 12:23:05.375
202, 56542.94, 0.00, 0.00, 0.00, 0.00, 0.00, 0.00, 0.00, 0.000, 0.000, 0.000, 12:23:05.375
203, 56541.24, 0.00, 0.00, 0.00, 0.00, 0.00, 0.00, 0.00, 0.000, 0.000, 0.000, 12:23:05.376
204, 56549.11, 0.00, 0.00, 0.00, 0.00, 0.00, 0.00, 0.00, 0.184, 0.040, 1.004, 12:23:05.376
205, 56558.07, 0.00, 0.00, 0.00, 0.00, 0.00, 0.00, 0.00, 0.000, 0.000, 0.000, 12:23:05.376
206, 56553.18, 0.00, 0.00, 0.00, 0.00, 0.00, 0.00, 0.00, 0.000, 0.000, 0.000, 12:23:05.376
207, 56533.95, 0.00, 0.00, 0.00, 0.00, 0.00, 0.00, 0.00, 0.000, 0.000, 0.000, 12:23:05.376
208, 56554.14, 0.00, 0.00, 0.00, 0.00, 0.00, 0.00, 0.00, 0.000, 0.000, 0.000, 12:23:05.376
209, 56570.57, 0.00, 0.00, 0.00, 0.00, 0.00, 0.00, 0.00, 0.000, 0.000, 0.000, 12:23:05.376
210, 56546.71, 0.00, 0.00, 0.00, 0.00, 0.00, 0.00, 0.00, 0.000, 0.000, 0.000, 12:23:05.376
211, 56530.89, 0.00, 0.00, 0.00, 0.00, 0.00, 0.00, 0.00, 0.000, 0.000, 0.000, 12:23:05.376
212, 56532.39, 0.00, 0.00, 0.00, 0.00, 0.00, 0.00, 0.00, 0.000, 0.000, 0.000, 12:23:05.376
213, 56531.14, 0.00, 0.00, 0.00, 0.00, 0.00, 0.00, 0.00, 0.000, 0.000, 0.000, 12:23:05.376
214, 56511.49, 0.00, 0.00, 0.00, 0.00, 0.00, 0.00, 0.00, 0.186, 0.040, 1.006, 12:23:05.376
215, 56510.33, 0.00, 0.00, 0.00, 0.00, 0.00, 0.00, 0.00, 0.000, 0.000, 0.000, 12:23:05.376
216, 56545.80, 0.00, 0.00, 0.00, 0.00, 0.00, 0.00, 0.00, 0.000, 0.000, 0.000, 12:23:05.376
217, 56562.05, 0.00, 0.00, 0.00, 0.00, 0.00, 0.00, 0.00, 0.000, 0.000, 0.000, 12:23:05.376
218, 56539.77, 0.00, 0.00, 0.00, 0.00, 0.00, 0.00, 0.00, 0.000, 0.000, 0.000, 12:23:05.376
219, 56514.77, 0.00, 0.00, 0.00, 0.00, 0.00, 0.00, 0.00, 0.000, 0.000, 0.000, 12:23:05.376
220, 56514.55, 0.00, 0.00, 0.00, 0.00, 0.00, 0.00, 0.00, 0.000, 0.000, 0.000, 12:23:05.376
221, 56542.89, 0.00, 0.00, 0.00, 0.00, 0.00, 0.00, 0.00, 0.000, 0.000, 0.000, 12:23:05.376
222, 56554.07, 0.00, 0.00, 0.00, 0.00, 0.00, 0.00, 0.00, 0.000, 0.000, 0.000, 12:23:05.376
223, 56525.10, 0.00, 0.00, 0.00, 0.00, 0.00, 0.00, 0.00, 0.000, 0.000, 0.000, 12:23:05.376
224, 56513.72, 0.00, 0.00, 0.00, 0.00, 0.00, 0.00, 0.00, 0.186, 0.042, 1.010, 12:23:05.377
225, 56539.23, 0.00, 0.00, 0.00, 0.00, 0.00, 0.00, 0.00, 0.000, 0.000, 0.000, 12:23:05.847
226, 56546.96, 0.00, 0.00, 0.00, 0.00, 0.00, 0.00, 0.00, 0.000, 0.000, 0.000, 12:23:05.847
227, 56524.39, 0.00, 0.00, 0.00, 0.00, 0.00, 0.00, 0.00, 0.000, 0.000, 0.000, 12:23:05.847
228, 56519.58, 0.00, 0.00, 0.00, 0.00, 0.00, 0.00, 0.00, 0.000, 0.000, 0.000, 12:23:05.847
229, 56529.64, 0.00, 0.00, 0.00, 0.00, 0.00, 0.00, 0.00, 0.000, 0.000, 0.000, 12:23:05.847
230, 56539.50, 0.00, 0.00, 0.00, 0.00, 0.00, 0.00, 0.00, 0.000, 0.000, 0.000, 12:23:05.847
231, 56534.91, 0.00, 0.00, 0.00, 0.00, 0.00, 0.00, 0.00, 0.000, 0.000, 0.000, 12:23:05.847
232, 56535.36, 0.00, 0.00, 0.00, 0.00, 0.00, 0.00, 0.00, 0.000, 0.000, 0.000, 12:23:05.847
233, 56553.73, 0.00, 0.00, 0.00, 0.00, 0.00, 0.00, 0.00, 0.000, 0.000, 0.000, 12:23:05.847
234, 56549.93, 0.00, 0.00, 0.00, 0.00, 0.00, 0.00, 0.00, 0.188, 0.038, 1.004, 12:23:05.847
235, 56519.45, 0.00, 0.00, 0.00, 0.00, 0.00, 0.00, 0.00, 0.000, 0.000, 0.000, 12:23:05.847
236, 56507.38, 0.00, 0.00, 0.00, 0.00, 0.00, 0.00, 0.00, 0.000, 0.000, 0.000, 12:23:05.847
237, 56547.59, 0.00, 0.00, 0.00, 0.00, 0.00, 0.00, 0.00, 0.000, 0.000, 0.000, 12:23:05.847
238, 56559.19, 0.00, 0.00, 0.00, 0.00, 0.00, 0.00, 0.00, 0.000, 0.000, 0.000, 12:23:05.847
239, 56537.44, 0.00, 0.00, 0.00, 0.00, 0.00, 0.00, 0.00, 0.000, 0.000, 0.000, 12:23:05.847
240, 56522.04, 0.00, 0.00, 0.00, 0.00, 0.00, 0.00, 0.00, 0.000, 0.000, 0.000, 12:23:05.847
241, 56526.09, 0.00, 0.00, 0.00, 0.00, 0.00, 0.00, 0.00, 0.000, 0.000, 0.000, 12:23:05.848
242, 56529.30, 0.00, 0.00, 0.00, 0.00, 0.00, 0.00, 0.00, 0.000, 0.000, 0.000, 12:23:05.848
243, 56522.62, 0.00, 0.00, 0.00, 0.00, 0.00, 0.00, 0.00, 0.000, 0.000, 0.000, 12:23:05.848
244, 56509.57, 0.00, 0.00, 0.00, 0.00, 0.00, 0.00, 0.00, 0.188, 0.042, 1.002, 12:23:05.848
245, 56537.13, 0.00, 0.00, 0.00, 0.00, 0.00, 0.00, 0.00, 0.000, 0.000, 0.000, 12:23:05.848
246, 56550.11, 0.00, 0.00, 0.00, 0.00, 0.00, 0.00, 0.00, 0.000, 0.000, 0.000, 12:23:05.848
247, 56542.94, 0.00, 0.00, 0.00, 0.00, 0.00, 0.00, 0.00, 0.000, 0.000, 0.000, 12:23:05.848
248, 56524.81, 0.00, 0.00, 0.00, 0.00, 0.00, 0.00, 0.00, 0.000, 0.000, 0.000, 12:23:05.848
249, 56530.76, 0.00, 0.00, 0.00, 0.00, 0.00, 0.00, 0.00, 0.000, 0.000, 0.000, 12:23:05.848
250, 56539.25, 0.00, 0.00, 0.00, 0.00, 0.00, 0.00, 0.00, 0.000, 0.000, 0.000, 12:23:05.848
251, 56545.24, 0.00, 0.00, 0.00, 0.00, 0.00, 0.00, 0.00, 0.000, 0.000, 0.000, 12:23:05.848
252, 56533.80, 0.00, 0.00, 0.00, 0.00, 0.00, 0.00, 0.00, 0.000, 0.000, 0.000, 12:23:05.848
253, 56518.80, 0.00, 0.00, 0.00, 0.00, 0.00, 0.00, 0.00, 0.000, 0.000, 0.000, 12:23:05.848
254, 56513.79, 0.00, 0.00, 0.00, 0.00, 0.00, 0.00, 0.00, 0.186, 0.042, 0.998, 12:23:05.848
255, 56520.92, 0.00, 0.00, 0.00, 0.00, 0.00, 0.00, 0.00, 0.000, 0.000, 0.000, 12:23:05.848
0, 56536.03, 0.00, 0.00, 0.00, 0.00, 0.00, 0.00, 0.00, 0.000, 0.000, 0.000, 12:23:05.848
1, 56536.84, 0.00, 0.00, 0.00, 0.00, 0.00, 0.00, 0.00, 0.000, 0.000, 0.000, 12:23:05.848
2, 56524.97, 0.00, 0.00, 0.00, 0.00, 0.00, 0.00, 0.00, 0.000, 0.000, 0.000, 12:23:05.848
3, 56530.78, 0.00, 0.00, 0.00, 0.00, 0.00, 0.00, 0.00, 0.000, 0.000, 0.000, 12:23:05.849
4, 56533.13, 0.00, 0.00, 0.00, 0.00, 0.00, 0.00, 0.00, 0.000, 0.000, 0.000, 12:23:05.849
5, 56527.71, 0.00, 0.00, 0.00, 0.00, 0.00, 0.00, 0.00, 0.000, 0.000, 0.000, 12:23:05.849
6, 56529.66, 0.00, 0.00, 0.00, 0.00, 0.00, 0.00, 0.00, 0.000, 0.000, 0.000, 12:23:05.849
7, 56545.60, 0.00, 0.00, 0.00, 0.00, 0.00, 0.00, 0.00, 0.000, 0.000, 0.000, 12:23:05.849
8, 56550.05, 0.00, 0.00, 0.00, 0.00, 0.00, 0.00, 0.00, 0.190, 0.040, 1.008, 12:23:05.849
9, 56531.05, 0.00, 0.00, 0.00, 0.00, 0.00, 0.00, 0.00, 0.000, 0.000, 0.000, 12:23:05.849
10, 56544.52, 0.00, 0.00, 0.00, 0.00, 0.00, 0.00, 0.00, 0.000, 0.000, 0.000, 12:23:05.849
11, 56550.63, 0.00, 0.00, 0.00, 0.00, 0.00, 0.00, 0.00, 0.000, 0.000, 0.000, 12:23:05.849
12, 56534.13, 0.00, 0.00, 0.00, 0.00, 0.00, 0.00, 0.00, 0.000, 0.000, 0.000, 12:23:05.849
13, 56520.14, 0.00, 0.00, 0.00, 0.00, 0.00, 0.00, 0.00, 0.000, 0.000, 0.000, 12:23:05.849
14, 56523.65, 0.00, 0.00, 0.00, 0.00, 0.00, 0.00, 0.00, 0.000, 0.000, 0.000, 12:23:05.849
15, 56542.65, 0.00, 0.00, 0.00, 0.00, 0.00, 0.00, 0.00, 0.000, 0.000, 0.000, 12:23:05.849
16, 56539.74, 0.00, 0.00, 0.00, 0.00, 0.00, 0.00, 0.00, 0.000, 0.000, 0.000, 12:23:05.849
17, 56520.18, 0.00, 0.00, 0.00, 0.00, 0.00, 0.00, 0.00, 0.190, 0.038, 1.006, 12:23:05.849
18, 56514.91, 0.00, 0.00, 0.00, 0.00, 0.00, 0.00, 0.00, 0.000, 0.000, 0.000, 12:23:05.849
19, 56540.39, 0.00, 0.00, 0.00, 0.00, 0.00, 0.00, 0.00, 0.000, 0.000, 0.000, 12:23:05.849
20, 56544.26, 0.00, 0.00, 0.00, 0.00, 0.00, 0.00, 0.00, 0.000, 0.000, 0.000, 12:23:05.849
21, 56516.70, 0.00, 0.00, 0.00, 0.00, 0.00, 0.00, 0.00, 0.000, 0.000, 0.000, 12:23:05.849
22, 56515.96, 0.00, 0.00, 0.00, 0.00, 0.00, 0.00, 0.00, 0.000, 0.000, 0.000, 12:23:05.850
23, 56532.01, 0.00, 0.00, 0.00, 0.00, 0.00, 0.00, 0.00, 0.000, 0.000, 0.000, 12:23:05.850
24, 56542.94, 0.00, 0.00, 0.00, 0.00, 0.00, 0.00, 0.00, 0.000, 0.000, 0.000, 12:23:05.850
25, 56533.89, 0.00, 0.00, 0.00, 0.00, 0.00, 0.00, 0.00, 0.000, 0.000, 0.000, 12:23:05.850
26, 56523.98, 0.00, 0.00, 0.00, 0.00, 0.00, 0.00, 0.00, 0.000, 0.000, 0.000, 12:23:05.850
27, 56528.86, 0.00, 0.00, 0.00, 0.00, 0.00, 0.00, 0.00, 0.184, 0.038, 1.006, 12:23:05.850
28, 56540.39, 0.00, 0.00, 0.00, 0.00, 0.00, 0.00, 0.00, 0.000, 0.000, 0.000, 12:23:05.850
29, 56539.59, 0.00, 0.00, 0.00, 0.00, 0.00, 0.00, 0.00, 0.000, 0.000, 0.000, 12:23:05.850
30, 56544.77, 0.00, 0.00, 0.00, 0.00, 0.00, 0.00, 0.00, 0.000, 0.000, 0.000, 12:23:05.850
31, 56533.71, 0.00, 0.00, 0.00, 0.00, 0.00, 0.00, 0.00, 0.000, 0.000, 0.000, 12:23:05.851
32, 56522.51, 0.00, 0.00, 0.00, 0.00, 0.00, 0.00, 0.00, 0.000, 0.000, 0.000, 12:23:05.851
33, 56519.13, 0.00, 0.00, 0.00, 0.00, 0.00, 0.00, 0.00, 0.000, 0.000, 0.000, 12:23:05.851
34, 56530.71, 0.00, 0.00, 0.00, 0.00, 0.00, 0.00, 0.00, 0.000, 0.000, 0.000, 12:23:05.851
35, 56540.75, 0.00, 0.00, 0.00, 0.00, 0.00, 0.00, 0.00, 0.000, 0.000, 0.000, 12:23:05.851
36, 56556.30, 0.00, 0.00, 0.00, 0.00, 0.00, 0.00, 0.00, 0.000, 0.000, 0.000, 12:23:05.851
37, 56545.82, 0.00, 0.00, 0.00, 0.00, 0.00, 0.00, 0.00, 0.184, 0.042, 1.004, 12:23:05.851
38, 56534.87, 0.00, 0.00, 0.00, 0.00, 0.00, 0.00, 0.00, 0.000, 0.000, 0.000, 12:23:05.851
39, 56537.37, 0.00, 0.00, 0.00, 0.00, 0.00, 0.00, 0.00, 0.000, 0.000, 0.000, 12:23:05.851
40, 56544.73, 0.00, 0.00, 0.00, 0.00, 0.00, 0.00, 0.00, 0.000, 0.000, 0.000, 12:23:05.851
41, 56533.59, 0.00, 0.00, 0.00, 0.00, 0.00, 0.00, 0.00, 0.000, 0.000, 0.000, 12:23:05.851
42, 56512.56, 0.00, 0.00, 0.00, 0.00, 0.00, 0.00, 0.00, 0.000, 0.000, 0.000, 12:23:05.851
43, 56510.15, 0.00, 0.00, 0.00, 0.00, 0.00, 0.00, 0.00, 0.000, 0.000, 0.000, 12:23:05.852
44, 56531.92, 0.00, 0.00, 0.00, 0.00, 0.00, 0.00, 0.00, 0.000, 0.000, 0.000, 12:23:05.852
45, 56529.88, 0.00, 0.00, 0.00, 0.00, 0.00, 0.00, 0.00, 0.000, 0.000, 0.000, 12:23:05.852
46, 56511.49, 0.00, 0.00, 0.00, 0.00, 0.00, 0.00, 0.00, 0.000, 0.000, 0.000, 12:23:05.852
47, 56522.08, 0.00, 0.00, 0.00, 0.00, 0.00, 0.00, 0.00, 0.182, 0.042, 1.002, 12:23:05.852
48, 56551.32, 0.00, 0.00, 0.00, 0.00, 0.00, 0.00, 0.00, 0.000, 0.000, 0.000, 12:23:05.852
49, 56554.07, 0.00, 0.00, 0.00, 0.00, 0.00, 0.00, 0.00, 0.000, 0.000, 0.000, 12:23:05.852
50, 56523.69, 0.00, 0.00, 0.00, 0.00, 0.00, 0.00, 0.00, 0.000, 0.000, 0.000, 12:23:05.852
51, 56509.63, 0.00, 0.00, 0.00, 0.00, 0.00, 0.00, 0.00, 0.000, 0.000, 0.000, 12:23:05.852
52, 56549.66, 0.00, 0.00, 0.00, 0.00, 0.00, 0.00, 0.00, 0.000, 0.000, 0.000, 12:23:05.852
53, 56564.93, 0.00, 0.00, 0.00, 0.00, 0.00, 0.00, 0.00, 0.000, 0.000, 0.000, 12:23:05.852
54, 56538.16, 0.00, 0.00, 0.00, 0.00, 0.00, 0.00, 0.00, 0.000, 0.000, 0.000, 12:23:05.852
55, 56517.59, 0.00, 0.00, 0.00, 0.00, 0.00, 0.00, 0.00, 0.000, 0.000, 0.000, 12:23:05.852
56, 56524.09, 0.00, 0.00, 0.00, 0.00, 0.00, 0.00, 0.00, 0.000, 0.000, 0.000, 12:23:05.852
57, 56539.00, 0.00, 0.00, 0.00, 0.00, 0.00, 0.00, 0.00, 0.182, 0.040, 1.004, 12:23:05.852
58, 56545.44, 0.00, 0.00, 0.00, 0.00, 0.00, 0.00, 0.00, 0.000, 0.000, 0.000, 12:23:05.853
59, 56537.26, 0.00, 0.00, 0.00, 0.00, 0.00, 0.00, 0.00, 0.000, 0.000, 0.000, 12:23:05.853
60, 56551.25, 0.00, 0.00, 0.00, 0.00, 0.00, 0.00, 0.00, 0.000, 0.000, 0.000, 12:23:05.853
61, 56566.77, 0.00, 0.00, 0.00, 0.00, 0.00, 0.00, 0.00, 0.000, 0.000, 0.000, 12:23:05.853
62, 56555.79, 0.00, 0.00, 0.00, 0.00, 0.00, 0.00, 0.00, 0.000, 0.000, 0.000, 12:23:05.853
63, 56543.88, 0.00, 0.00, 0.00, 0.00, 0.00, 0.00, 0.00, 0.000, 0.000, 0.000, 12:23:05.853
64, 56546.09, 0.00, 0.00, 0.00, 0.00, 0.00, 0.00, 0.00, 0.000, 0.000, 0.000, 12:23:05.853
65, 56564.39, 0.00, 0.00, 0.00, 0.00, 0.00, 0.00, 0.00, 0.000, 0.000, 0.000, 12:23:05.854
66, 56549.11, 0.00, 0.00, 0.00, 0.00, 0.00, 0.00, 0.00, 0.000, 0.000, 0.000, 12:23:05.854
67, 56520.88, 0.00, 0.00, 0.00, 0.00, 0.00, 0.00, 0.00, 0.182, 0.038, 1.000, 12:23:05.854
68, 56534.98, 0.00, 0.00, 0.00, 0.00, 0.00, 0.00, 0.00, 0.000, 0.000, 0.000, 12:23:05.854
69, 56562.43, 0.00, 0.00, 0.00, 0.00, 0.00, 0.00, 0.00, 0.000, 0.000, 0.000, 12:23:05.854
70, 56567.23, 0.00, 0.00, 0.00, 0.00, 0.00, 0.00, 0.00, 0.000, 0.000, 0.000, 12:23:05.854
71, 56546.69, 0.00, 0.00, 0.00, 0.00, 0.00, 0.00, 0.00, 0.000, 0.000, 0.000, 12:23:05.854
72, 56537.06, 0.00, 0.00, 0.00, 0.00, 0.00, 0.00, 0.00, 0.000, 0.000, 0.000, 12:23:05.854
73, 56540.50, 0.00, 0.00, 0.00, 0.00, 0.00, 0.00, 0.00, 0.000, 0.000, 0.000, 12:23:05.854
74, 56557.09, 0.00, 0.00, 0.00, 0.00, 0.00, 0.00, 0.00, 0.000, 0.000, 0.000, 12:23:05.854
75, 56541.57, 0.00, 0.00, 0.00, 0.00, 0.00, 0.00, 0.00, 0.000, 0.000, 0.000, 12:23:05.854
76, 56530.09, 0.00, 0.00, 0.00, 0.00, 0.00, 0.00, 0.00, 0.184, 0.040, 1.002, 12:23:05.854
77, 56540.25, 0.00, 0.00, 0.00, 0.00, 0.00, 0.00, 0.00, 0.000, 0.000, 0.000, 12:23:05.854
78, 56556.75, 0.00, 0.00, 0.00, 0.00, 0.00, 0.00, 0.00, 0.000, 0.000, 0.000, 12:23:05.854
79, 56545.93, 0.00, 0.00, 0.00, 0.00, 0.00, 0.00, 0.00, 0.000, 0.000, 0.000, 12:23:05.854
80, 56529.59, 0.00, 0.00, 0.00, 0.00, 0.00, 0.00, 0.00, 0.000, 0.000, 0.000, 12:23:05.854
81, 56532.16, 0.00, 0.00, 0.00, 0.00, 0.00, 0.00, 0.00, 0.000, 0.000, 0.000, 12:23:05.854
82, 56520.41, 0.00, 0.00, 0.00, 0.00, 0.00, 0.00, 0.00, 0.000, 0.000, 0.000, 12:23:05.854
83, 56508.34, 0.00, 0.00, 0.00, 0.00, 0.00, 0.00, 0.00, 0.000, 0.000, 0.000, 12:23:05.854
84, 56561.60, 0.00, 0.00, 0.00, 0.00, 0.00, 0.00, 0.00, 0.000, 0.000, 0.000, 12:23:05.854
85, 56577.61, 0.00, 0.00, 0.00, 0.00, 0.00, 0.00, 0.00, 0.000, 0.000, 0.000, 12:23:05.854
86, 56569.43, 0.00, 0.00, 0.00, 0.00, 0.00, 0.00, 0.00, 0.180, 0.042, 0.998, 12:23:05.855
87, 56564.60, 0.00, 0.00, 0.00, 0.00, 0.00, 0.00, 0.00, 0.000, 0.000, 0.000, 12:23:05.855
88, 56557.94, 0.00, 0.00, 0.00, 0.00, 0.00, 0.00, 0.00, 0.000, 0.000, 0.000, 12:23:05.855
89, 56556.93, 0.00, 0.00, 0.00, 0.00, 0.00, 0.00, 0.00, 0.000, 0.000, 0.000, 12:23:05.855
90, 56554.52, 0.00, 0.00, 0.00, 0.00, 0.00, 0.00, 0.00, 0.000, 0.000, 0.000, 12:23:06.326
91, 56538.24, 0.00, 0.00, 0.00, 0.00, 0.00, 0.00, 0.00, 0.000, 0.000, 0.000, 12:23:06.326
92, 56540.79, 0.00, 0.00, 0.00, 0.00, 0.00, 0.00, 0.00, 0.000, 0.000, 0.000, 12:23:06.326
93, 56544.12, 0.00, 0.00, 0.00, 0.00, 0.00, 0.00, 0.00, 0.000, 0.000, 0.000, 12:23:06.327
94, 56558.16, 0.00, 0.00, 0.00, 0.00, 0.00, 0.00, 0.00, 0.000, 0.000, 0.000, 12:23:06.327
95, 56552.01, 0.00, 0.00, 0.00, 0.00, 0.00, 0.00, 0.00, 0.000, 0.000, 0.000, 12:23:06.327
96, 56542.74, 0.00, 0.00, 0.00, 0.00, 0.00, 0.00, 0.00, 0.186, 0.042, 1.000, 12:23:06.327
97, 56551.07, 0.00, 0.00, 0.00, 0.00, 0.00, 0.00, 0.00, 0.000, 0.000, 0.000, 12:23:06.327
98, 56562.27, 0.00, 0.00, 0.00, 0.00, 0.00, 0.00, 0.00, 0.000, 0.000, 0.000, 12:23:06.327
99, 56557.60, 0.00, 0.00, 0.00, 0.00, 0.00, 0.00, 0.00, 0.000, 0.000, 0.000, 12:23:06.327
100, 56532.28, 0.00, 0.00, 0.00, 0.00, 0.00, 0.00, 0.00, 0.000, 0.000, 0.000, 12:23:06.327
101, 56514.66, 0.00, 0.00, 0.00, 0.00, 0.00, 0.00, 0.00, 0.000, 0.000, 0.000, 12:23:06.327
102, 56537.89, 0.00, 0.00, 0.00, 0.00, 0.00, 0.00, 0.00, 0.000, 0.000, 0.000, 12:23:06.328
103, 56567.66, 0.00, 0.00, 0.00, 0.00, 0.00, 0.00, 0.00, 0.000, 0.000, 0.000, 12:23:06.328
104, 56549.78, 0.00, 0.00, 0.00, 0.00, 0.00, 0.00, 0.00, 0.000, 0.000, 0.000, 12:23:06.328
105, 56523.16, 0.00, 0.00, 0.00, 0.00, 0.00, 0.00, 0.00, 0.000, 0.000, 0.000, 12:23:06.329
106, 56513.95, 0.00, 0.00, 0.00, 0.00, 0.00, 0.00, 0.00, 0.188, 0.044, 1.006, 12:23:06.329
107, 56541.11, 0.00, 0.00, 0.00, 0.00, 0.00, 0.00, 0.00, 0.000, 0.000, 0.000, 12:23:06.329
108, 56575.10, 0.00, 0.00, 0.00, 0.00, 0.00, 0.00, 0.00, 0.000, 0.000, 0.000, 12:23:06.329
109, 56572.62, 0.00, 0.00, 0.00, 0.00, 0.00, 0.00, 0.00, 0.000, 0.000, 0.000, 12:23:06.329
110, 56567.39, 0.00, 0.00, 0.00, 0.00, 0.00, 0.00, 0.00, 0.000, 0.000, 0.000, 12:23:06.329
111, 56568.87, 0.00, 0.00, 0.00, 0.00, 0.00, 0.00, 0.00, 0.000, 0.000, 0.000, 12:23:06.329
112, 56547.45, 0.00, 0.00, 0.00, 0.00, 0.00, 0.00, 0.00, 0.000, 0.000, 0.000, 12:23:06.329
113, 56544.01, 0.00, 0.00, 0.00, 0.00, 0.00, 0.00, 0.00, 0.000, 0.000, 0.000, 12:23:06.329
114, 56550.00, 0.00, 0.00, 0.00, 0.00, 0.00, 0.00, 0.00, 0.000, 0.000, 0.000, 12:23:06.330
115, 56549.93, 0.00, 0.00, 0.00, 0.00, 0.00, 0.00, 0.00, 0.000, 0.000, 0.000, 12:23:06.330
116, 56553.64, 0.00, 0.00, 0.00, 0.00, 0.00, 0.00, 0.00, 0.184, 0.040, 1.000, 12:23:06.330
117, 56553.31, 0.00, 0.00, 0.00, 0.00, 0.00, 0.00, 0.00, 0.000, 0.000, 0.000, 12:23:06.330
118, 56554.89, 0.00, 0.00, 0.00, 0.00, 0.00, 0.00, 0.00, 0.000, 0.000, 0.000, 12:23:06.330
119, 56565.69, 0.00, 0.00, 0.00, 0.00, 0.00, 0.00, 0.00, 0.000, 0.000, 0.000, 12:23:06.330
120, 56565.80, 0.00, 0.00, 0.00, 0.00, 0.00, 0.00, 0.00, 0.000, 0.000, 0.000, 12:23:06.330
121, 56550.92, 0.00, 0.00, 0.00, 0.00, 0.00, 0.00, 0.00, 0.000, 0.000, 0.000, 12:23:06.330
122, 56547.30, 0.00, 0.00, 0.00, 0.00, 0.00, 0.00, 0.00, 0.000, 0.000, 0.000, 12:23:06.330
123, 56562.85, 0.00, 0.00, 0.00, 0.00, 0.00, 0.00, 0.00, 0.000, 0.000, 0.000, 12:23:06.330
124, 56570.12, 0.00, 0.00, 0.00, 0.00, 0.00, 0.00, 0.00, 0.000, 0.000, 0.000, 12:23:06.330
125, 56547.39, 0.00, 0.00, 0.00, 0.00, 0.00, 0.00, 0.00, 0.000, 0.000, 0.000, 12:23:06.331
126, 56548.61, 0.00, 0.00, 0.00, 0.00, 0.00, 0.00, 0.00, 0.184, 0.040, 1.002, 12:23:06.331
127, 56548.26, 0.00, 0.00, 0.00, 0.00, 0.00, 0.00, 0.00, 0.000, 0.000, 0.000, 12:23:06.331
128, 56539.14, 0.00, 0.00, 0.00, 0.00, 0.00, 0.00, 0.00, 0.000, 0.000, 0.000, 12:23:06.331
129, 56534.62, 0.00, 0.00, 0.00, 0.00, 0.00, 0.00, 0.00, 0.000, 0.000, 0.000, 12:23:06.331
130, 56553.96, 0.00, 0.00, 0.00, 0.00, 0.00, 0.00, 0.00, 0.000, 0.000, 0.000, 12:23:06.331
131, 56574.36, 0.00, 0.00, 0.00, 0.00, 0.00, 0.00, 0.00, 0.000, 0.000, 0.000, 12:23:06.331
132, 56576.76, 0.00, 0.00, 0.00, 0.00, 0.00, 0.00, 0.00, 0.000, 0.000, 0.000, 12:23:06.331
133, 56563.25, 0.00, 0.00, 0.00, 0.00, 0.00, 0.00, 0.00, 0.000, 0.000, 0.000, 12:23:06.331
134, 56558.05, 0.00, 0.00, 0.00, 0.00, 0.00, 0.00, 0.00, 0.000, 0.000, 0.000, 12:23:06.331
135, 56576.76, 0.00, 0.00, 0.00, 0.00, 0.00, 0.00, 0.00, 0.000, 0.000, 0.000, 12:23:06.331
136, 56570.68, 0.00, 0.00, 0.00, 0.00, 0.00, 0.00, 0.00, 0.182, 0.036, 1.004, 12:23:06.331
137, 56557.13, 0.00, 0.00, 0.00, 0.00, 0.00, 0.00, 0.00, 0.000, 0.000, 0.000, 12:23:06.331
138, 56554.79, 0.00, 0.00, 0.00, 0.00, 0.00, 0.00, 0.00, 0.000, 0.000, 0.000, 12:23:06.331
139, 56567.59, 0.00, 0.00, 0.00, 0.00, 0.00, 0.00, 0.00, 0.000, 0.000, 0.000, 12:23:06.331
140, 56579.48, 0.00, 0.00, 0.00, 0.00, 0.00, 0.00, 0.00, 0.000, 0.000, 0.000, 12:23:06.331
141, 56583.95, 0.00, 0.00, 0.00, 0.00, 0.00, 0.00, 0.00, 0.000, 0.000, 0.000, 12:23:06.331
142, 56562.07, 0.00, 0.00, 0.00, 0.00, 0.00, 0.00, 0.00, 0.000, 0.000, 0.000, 12:23:06.331
143, 56550.47, 0.00, 0.00, 0.00, 0.00, 0.00, 0.00, 0.00, 0.000, 0.000, 0.000, 12:23:06.331
144, 56557.98, 0.00, 0.00, 0.00, 0.00, 0.00, 0.00, 0.00, 0.000, 0.000, 0.000, 12:23:06.331
145, 56574.41, 0.00, 0.00, 0.00, 0.00, 0.00, 0.00, 0.00, 0.192, 0.038, 1.012, 12:23:06.331
146, 56574.88, 0.00, 0.00, 0.00, 0.00, 0.00, 0.00, 0.00, 0.000, 0.000, 0.000, 12:23:06.331
147, 56571.79, 0.00, 0.00, 0.00, 0.00, 0.00, 0.00, 0.00, 0.000, 0.000, 0.000, 12:23:06.332
148, 56575.35, 0.00, 0.00, 0.00, 0.00, 0.00, 0.00, 0.00, 0.000, 0.000, 0.000, 12:23:06.332
149, 56575.75, 0.00, 0.00, 0.00, 0.00, 0.00, 0.00, 0.00, 0.000, 0.000, 0.000, 12:23:06.332
150, 56551.86, 0.00, 0.00, 0.00, 0.00, 0.00, 0.00, 0.00, 0.000, 0.000, 0.000, 12:23:06.332
151, 56557.71, 0.00, 0.00, 0.00, 0.00, 0.00, 0.00, 0.00, 0.000, 0.000, 0.000, 12:23:06.332
152, 56576.44, 0.00, 0.00, 0.00, 0.00, 0.00, 0.00, 0.00, 0.000, 0.000, 0.000, 12:23:06.332
153, 56576.09, 0.00, 0.00, 0.00, 0.00, 0.00, 0.00, 0.00, 0.000, 0.000, 0.000, 12:23:06.332
154, 56562.85, 0.00, 0.00, 0.00, 0.00, 0.00, 0.00, 0.00, 0.000, 0.000, 0.000, 12:23:06.332
155, 56573.45, 0.00, 0.00, 0.00, 0.00, 0.00, 0.00, 0.00, 0.190, 0.042, 1.008, 12:23:06.332
156, 56583.53, 0.00, 0.00, 0.00, 0.00, 0.00, 0.00, 0.00, 0.000, 0.000, 0.000, 12:23:06.332
157, 56584.38, 0.00, 0.00, 0.00, 0.00, 0.00, 0.00, 0.00, 0.000, 0.000, 0.000, 12:23:06.332
158, 56569.87, 0.00, 0.00, 0.00, 0.00, 0.00, 0.00, 0.00, 0.000, 0.000, 0.000, 12:23:06.333
159, 56554.00, 0.00, 0.00, 0.00, 0.00, 0.00, 0.00, 0.00, 0.000, 0.000, 0.000, 12:23:06.333
160, 56556.50, 0.00, 0.00, 0.00, 0.00, 0.00, 0.00, 0.00, 0.000, 0.000, 0.000, 12:23:06.333
161, 56576.73, 0.00, 0.00, 0.00, 0.00, 0.00, 0.00, 0.00, 0.000, 0.000, 0.000, 12:23:06.333
162, 56562.18, 0.00, 0.00, 0.00, 0.00, 0.00, 0.00, 0.00, 0.000, 0.000, 0.000, 12:23:06.333
163, 56556.37, 0.00, 0.00, 0.00, 0.00, 0.00, 0.00, 0.00, 0.000, 0.000, 0.000, 12:23:06.333
164, 56567.03, 0.00, 0.00, 0.00, 0.00, 0.00, 0.00, 0.00, 0.000, 0.000, 0.000, 12:23:06.333
165, 56596.65, 0.00, 0.00, 0.00, 0.00, 0.00, 0.00, 0.00, 0.186, 0.044, 1.006, 12:23:06.333
166, 56595.22, 0.00, 0.00, 0.00, 0.00, 0.00, 0.00, 0.00, 0.000, 0.000, 0.000, 12:23:06.333
167, 56554.94, 0.00, 0.00, 0.00, 0.00, 0.00, 0.00, 0.00, 0.000, 0.000, 0.000, 12:23:06.333
168, 56554.43, 0.00, 0.00, 0.00, 0.00, 0.00, 0.00, 0.00, 0.000, 0.000, 0.000, 12:23:06.333
169, 56565.20, 0.00, 0.00, 0.00, 0.00, 0.00, 0.00, 0.00, 0.000, 0.000, 0.000, 12:23:06.333
170, 56588.98, 0.00, 0.00, 0.00, 0.00, 0.00, 0.00, 0.00, 0.000, 0.000, 0.000, 12:23:06.333
171, 56581.38, 0.00, 0.00, 0.00, 0.00, 0.00, 0.00, 0.00, 0.000, 0.000, 0.000, 12:23:06.333
172, 56576.13, 0.00, 0.00, 0.00, 0.00, 0.00, 0.00, 0.00, 0.000, 0.000, 0.000, 12:23:06.333
173, 56582.21, 0.00, 0.00, 0.00, 0.00, 0.00, 0.00, 0.00, 0.000, 0.000, 0.000, 12:23:06.333
174, 56584.54, 0.00, 0.00, 0.00, 0.00, 0.00, 0.00, 0.00, 0.000, 0.000, 0.000, 12:23:06.333
175, 56574.34, 0.00, 0.00, 0.00, 0.00, 0.00, 0.00, 0.00, 0.186, 0.046, 1.008, 12:23:06.333
176, 56563.50, 0.00, 0.00, 0.00, 0.00, 0.00, 0.00, 0.00, 0.000, 0.000, 0.000, 12:23:06.333
177, 56577.88, 0.00, 0.00, 0.00, 0.00, 0.00, 0.00, 0.00, 0.000, 0.000, 0.000, 12:23:06.333
178, 56584.07, 0.00, 0.00, 0.00, 0.00, 0.00, 0.00, 0.00, 0.000, 0.000, 0.000, 12:23:06.333
179, 56552.73, 0.00, 0.00, 0.00, 0.00, 0.00, 0.00, 0.00, 0.000, 0.000, 0.000, 12:23:06.334
180, 56550.34, 0.00, 0.00, 0.00, 0.00, 0.00, 0.00, 0.00, 0.000, 0.000, 0.000, 12:23:06.334
181, 56576.89, 0.00, 0.00, 0.00, 0.00, 0.00, 0.00, 0.00, 0.000, 0.000, 0.000, 12:23:06.358
182, 56587.44, 0.00, 0.00, 0.00, 0.00, 0.00, 0.00, 0.00, 0.000, 0.000, 0.000, 12:23:06.358
183, 56568.29, 0.00, 0.00, 0.00, 0.00, 0.00, 0.00, 0.00, 0.000, 0.000, 0.000, 12:23:06.358
184, 56536.70, 0.00, 0.00, 0.00, 0.00, 0.00, 0.00, 0.00, 0.000, 0.000, 0.000, 12:23:06.358
185, 56550.47, 0.00, 0.00, 0.00, 0.00, 0.00, 0.00, 0.00, 0.184, 0.044, 1.008, 12:23:06.364
186, 56603.20, 0.00, 0.00, 0.00, 0.00, 0.00, 0.00, 0.00, 0.000, 0.000, 0.000, 12:23:06.365
187, 56584.60, 0.00, 0.00, 0.00, 0.00, 0.00, 0.00, 0.00, 0.000, 0.000, 0.000, 12:23:06.365
188, 56554.79, 0.00, 0.00, 0.00, 0.00, 0.00, 0.00, 0.00, 0.000, 0.000, 0.000, 12:23:06.365
189, 56566.27, 0.00, 0.00, 0.00, 0.00, 0.00, 0.00, 0.00, 0.000, 0.000, 0.000, 12:23:06.366
190, 56583.15, 0.00, 0.00, 0.00, 0.00, 0.00, 0.00, 0.00, 0.000, 0.000, 0.000, 12:23:06.366
191, 56591.46, 0.00, 0.00, 0.00, 0.00, 0.00, 0.00, 0.00, 0.000, 0.000, 0.000, 12:23:06.366
192, 56584.29, 0.00, 0.00, 0.00, 0.00, 0.00, 0.00, 0.00, 0.000, 0.000, 0.000, 12:23:06.366
193, 56581.07, 0.00, 0.00, 0.00, 0.00, 0.00, 0.00, 0.00, 0.000, 0.000, 0.000, 12:23:06.366
194, 56585.07, 0.00, 0.00, 0.00, 0.00, 0.00, 0.00, 0.00, 0.000, 0.000, 0.000, 12:23:06.366
195, 56585.59, 0.00, 0.00, 0.00, 0.00, 0.00, 0.00, 0.00, 0.178, 0.042, 1.008, 12:23:06.366
196, 56575.68, 0.00, 0.00, 0.00, 0.00, 0.00, 0.00, 0.00, 0.000, 0.000, 0.000, 12:23:06.366
197, 56561.73, 0.00, 0.00, 0.00, 0.00, 0.00, 0.00, 0.00, 0.000, 0.000, 0.000, 12:23:06.366
198, 56563.79, 0.00, 0.00, 0.00, 0.00, 0.00, 0.00, 0.00, 0.000, 0.000, 0.000, 12:23:06.366
199, 56580.40, 0.00, 0.00, 0.00, 0.00, 0.00, 0.00, 0.00, 0.000, 0.000, 0.000, 12:23:06.366
200, 56585.47, 0.00, 0.00, 0.00, 0.00, 0.00, 0.00, 0.00, 0.000, 0.000, 0.000, 12:23:06.366
201, 56579.62, 0.00, 0.00, 0.00, 0.00, 0.00, 0.00, 0.00, 0.000, 0.000, 0.000, 12:23:06.367
202, 56577.49, 0.00, 0.00, 0.00, 0.00, 0.00, 0.00, 0.00, 0.000, 0.000, 0.000, 12:23:06.367
203, 56592.60, 0.00, 0.00, 0.00, 0.00, 0.00, 0.00, 0.00, 0.000, 0.000, 0.000, 12:23:06.367
204, 56582.25, 0.00, 0.00, 0.00, 0.00, 0.00, 0.00, 0.00, 0.184, 0.046, 1.010, 12:23:06.367
205, 56568.33, 0.00, 0.00, 0.00, 0.00, 0.00, 0.00, 0.00, 0.000, 0.000, 0.000, 12:23:06.367
206, 56577.36, 0.00, 0.00, 0.00, 0.00, 0.00, 0.00, 0.00, 0.000, 0.000, 0.000, 12:23:06.367
207, 56579.10, 0.00, 0.00, 0.00, 0.00, 0.00, 0.00, 0.00, 0.000, 0.000, 0.000, 12:23:06.367
208, 56550.34, 0.00, 0.00, 0.00, 0.00, 0.00, 0.00, 0.00, 0.000, 0.000, 0.000, 12:23:06.367
209, 56557.40, 0.00, 0.00, 0.00, 0.00, 0.00, 0.00, 0.00, 0.000, 0.000, 0.000, 12:23:06.367
210, 56593.30, 0.00, 0.00, 0.00, 0.00, 0.00, 0.00, 0.00, 0.000, 0.000, 0.000, 12:23:06.807
211, 56602.64, 0.00, 0.00, 0.00, 0.00, 0.00, 0.00, 0.00, 0.000, 0.000, 0.000, 12:23:06.807
212, 56595.98, 0.00, 0.00, 0.00, 0.00, 0.00, 0.00, 0.00, 0.000, 0.000, 0.000, 12:23:06.807
213, 56576.31, 0.00, 0.00, 0.00, 0.00, 0.00, 0.00, 0.00, 0.000, 0.000, 0.000, 12:23:06.807
214, 56575.62, 0.00, 0.00, 0.00, 0.00, 0.00, 0.00, 0.00, 0.182, 0.040, 0.996, 12:23:06.807
215, 56568.71, 0.00, 0.00, 0.00, 0.00, 0.00, 0.00, 0.00, 0.000, 0.000, 0.000, 12:23:06.808
216, 56551.12, 0.00, 0.00, 0.00, 0.00, 0.00, 0.00, 0.00, 0.000, 0.000, 0.000, 12:23:06.808
217, 56566.36, 0.00, 0.00, 0.00, 0.00, 0.00, 0.00, 0.00, 0.000, 0.000, 0.000, 12:23:06.808
218, 56599.73, 0.00, 0.00, 0.00, 0.00, 0.00, 0.00, 0.00, 0.000, 0.000, 0.000, 12:23:06.808
219, 56599.15, 0.00, 0.00, 0.00, 0.00, 0.00, 0.00, 0.00, 0.000, 0.000, 0.000, 12:23:06.808
220, 56596.36, 0.00, 0.00, 0.00, 0.00, 0.00, 0.00, 0.00, 0.000, 0.000, 0.000, 12:23:06.808
221, 56578.39, 0.00, 0.00, 0.00, 0.00, 0.00, 0.00, 0.00, 0.000, 0.000, 0.000, 12:23:06.808
222, 56563.95, 0.00, 0.00, 0.00, 0.00, 0.00, 0.00, 0.00, 0.000, 0.000, 0.000, 12:23:06.808
223, 56574.32, 0.00, 0.00, 0.00, 0.00, 0.00, 0.00, 0.00, 0.000, 0.000, 0.000, 12:23:06.808
224, 56578.95, 0.00, 0.00, 0.00, 0.00, 0.00, 0.00, 0.00, 0.186, 0.040, 0.996, 12:23:06.808
225, 56556.57, 0.00, 0.00, 0.00, 0.00, 0.00, 0.00, 0.00, 0.000, 0.000, 0.000, 12:23:06.808
226, 56563.64, 0.00, 0.00, 0.00, 0.00, 0.00, 0.00, 0.00, 0.000, 0.000, 0.000, 12:23:06.808
227, 56567.23, 0.00, 0.00, 0.00, 0.00, 0.00, 0.00, 0.00, 0.000, 0.000, 0.000, 12:23:06.808
228, 56599.00, 0.00, 0.00, 0.00, 0.00, 0.00, 0.00, 0.00, 0.000, 0.000, 0.000, 12:23:06.808
229, 56592.13, 0.00, 0.00, 0.00, 0.00, 0.00, 0.00, 0.00, 0.000, 0.000, 0.000, 12:23:06.808
230, 56557.67, 0.00, 0.00, 0.00, 0.00, 0.00, 0.00, 0.00, 0.000, 0.000, 0.000, 12:23:06.808
231, 56554.16, 0.00, 0.00, 0.00, 0.00, 0.00, 0.00, 0.00, 0.000, 0.000, 0.000, 12:23:06.809
232, 56573.94, 0.00, 0.00, 0.00, 0.00, 0.00, 0.00, 0.00, 0.000, 0.000, 0.000, 12:23:06.809
233, 56588.76, 0.00, 0.00, 0.00, 0.00, 0.00, 0.00, 0.00, 0.000, 0.000, 0.000, 12:23:06.809
234, 56586.08, 0.00, 0.00, 0.00, 0.00, 0.00, 0.00, 0.00, 0.186, 0.044, 0.994, 12:23:06.809
235, 56590.35, 0.00, 0.00, 0.00, 0.00, 0.00, 0.00, 0.00, 0.000, 0.000, 0.000, 12:23:06.809
236, 56603.45, 0.00, 0.00, 0.00, 0.00, 0.00, 0.00, 0.00, 0.000, 0.000, 0.000, 12:23:06.809
237, 56591.91, 0.00, 0.00, 0.00, 0.00, 0.00, 0.00, 0.00, 0.000, 0.000, 0.000, 12:23:06.809
238, 56563.41, 0.00, 0.00, 0.00, 0.00, 0.00, 0.00, 0.00, 0.000, 0.000, 0.000, 12:23:06.809
239, 56557.04, 0.00, 0.00, 0.00, 0.00, 0.00, 0.00, 0.00, 0.000, 0.000, 0.000, 12:23:06.809
240, 56583.46, 0.00, 0.00, 0.00, 0.00, 0.00, 0.00, 0.00, 0.000, 0.000, 0.000, 12:23:06.809
241, 56603.46, 0.00, 0.00, 0.00, 0.00, 0.00, 0.00, 0.00, 0.000, 0.000, 0.000, 12:23:06.809
242, 56580.15, 0.00, 0.00, 0.00, 0.00, 0.00, 0.00, 0.00, 0.000, 0.000, 0.000, 12:23:06.809
243, 56573.54, 0.00, 0.00, 0.00, 0.00, 0.00, 0.00, 0.00, 0.000, 0.000, 0.000, 12:23:06.809
244, 56580.60, 0.00, 0.00, 0.00, 0.00, 0.00, 0.00, 0.00, 0.184, 0.042, 0.994, 12:23:06.809
245, 56586.43, 0.00, 0.00, 0.00, 0.00, 0.00, 0.00, 0.00, 0.000, 0.000, 0.000, 12:23:06.809
246, 56568.60, 0.00, 0.00, 0.00, 0.00, 0.00, 0.00, 0.00, 0.000, 0.000, 0.000, 12:23:06.810
247, 56568.93, 0.00, 0.00, 0.00, 0.00, 0.00, 0.00, 0.00, 0.000, 0.000, 0.000, 12:23:06.810
248, 56590.93, 0.00, 0.00, 0.00, 0.00, 0.00, 0.00, 0.00, 0.000, 0.000, 0.000, 12:23:06.810
249, 56600.52, 0.00, 0.00, 0.00, 0.00, 0.00, 0.00, 0.00, 0.000, 0.000, 0.000, 12:23:06.810
250, 56576.20, 0.00, 0.00, 0.00, 0.00, 0.00, 0.00, 0.00, 0.000, 0.000, 0.000, 12:23:06.810
251, 56556.86, 0.00, 0.00, 0.00, 0.00, 0.00, 0.00, 0.00, 0.000, 0.000, 0.000, 12:23:06.810
252, 56588.25, 0.00, 0.00, 0.00, 0.00, 0.00, 0.00, 0.00, 0.000, 0.000, 0.000, 12:23:06.810
253, 56604.65, 0.00, 0.00, 0.00, 0.00, 0.00, 0.00, 0.00, 0.000, 0.000, 0.000, 12:23:06.810
254, 56598.53, 0.00, 0.00, 0.00, 0.00, 0.00, 0.00, 0.00, 0.180, 0.044, 0.996, 12:23:06.810
255, 56577.52, 0.00, 0.00, 0.00, 0.00, 0.00, 0.00, 0.00, 0.000, 0.000, 0.000, 12:23:06.810
0, 56568.93, 0.00, 0.00, 0.00, 0.00, 0.00, 0.00, 0.00, 0.000, 0.000, 0.000, 12:23:06.810
1, 56583.13, 0.00, 0.00, 0.00, 0.00, 0.00, 0.00, 0.00, 0.000, 0.000, 0.000, 12:23:06.810
2, 56594.59, 0.00, 0.00, 0.00, 0.00, 0.00, 0.00, 0.00, 0.000, 0.000, 0.000, 12:23:06.810
3, 56585.92, 0.00, 0.00, 0.00, 0.00, 0.00, 0.00, 0.00, 0.000, 0.000, 0.000, 12:23:06.811
4, 56582.52, 0.00, 0.00, 0.00, 0.00, 0.00, 0.00, 0.00, 0.000, 0.000, 0.000, 12:23:06.811
5, 56581.70, 0.00, 0.00, 0.00, 0.00, 0.00, 0.00, 0.00, 0.000, 0.000, 0.000, 12:23:06.811
6, 56574.45, 0.00, 0.00, 0.00, 0.00, 0.00, 0.00, 0.00, 0.000, 0.000, 0.000, 12:23:06.811
7, 56566.30, 0.00, 0.00, 0.00, 0.00, 0.00, 0.00, 0.00, 0.000, 0.000, 0.000, 12:23:06.811
8, 56575.77, 0.00, 0.00, 0.00, 0.00, 0.00, 0.00, 0.00, 0.180, 0.040, 0.996, 12:23:06.811
9, 56586.19, 0.00, 0.00, 0.00, 0.00, 0.00, 0.00, 0.00, 0.000, 0.000, 0.000, 12:23:06.811
10, 56593.12, 0.00, 0.00, 0.00, 0.00, 0.00, 0.00, 0.00, 0.000, 0.000, 0.000, 12:23:06.811
11, 56584.24, 0.00, 0.00, 0.00, 0.00, 0.00, 0.00, 0.00, 0.000, 0.000, 0.000, 12:23:06.811
12, 56581.05, 0.00, 0.00, 0.00, 0.00, 0.00, 0.00, 0.00, 0.000, 0.000, 0.000, 12:23:06.811
13, 56584.69, 0.00, 0.00, 0.00, 0.00, 0.00, 0.00, 0.00, 0.000, 0.000, 0.000, 12:23:06.811
14, 56592.40, 0.00, 0.00, 0.00, 0.00, 0.00, 0.00, 0.00, 0.000, 0.000, 0.000, 12:23:06.811
15, 56583.66, 0.00, 0.00, 0.00, 0.00, 0.00, 0.00, 0.00, 0.000, 0.000, 0.000, 12:23:06.811
16, 56574.86, 0.00, 0.00, 0.00, 0.00, 0.00, 0.00, 0.00, 0.000, 0.000, 0.000, 12:23:06.812
17, 56573.00, 0.00, 0.00, 0.00, 0.00, 0.00, 0.00, 0.00, 0.184, 0.042, 1.002, 12:23:06.812
18, 56593.83, 0.00, 0.00, 0.00, 0.00, 0.00, 0.00, 0.00, 0.000, 0.000, 0.000, 12:23:06.812
19, 56593.45, 0.00, 0.00, 0.00, 0.00, 0.00, 0.00, 0.00, 0.000, 0.000, 0.000, 12:23:06.812
20, 56574.88, 0.00, 0.00, 0.00, 0.00, 0.00, 0.00, 0.00, 0.000, 0.000, 0.000, 12:23:06.812
21, 56586.14, 0.00, 0.00, 0.00, 0.00, 0.00, 0.00, 0.00, 0.000, 0.000, 0.000, 12:23:06.812
22, 56604.88, 0.00, 0.00, 0.00, 0.00, 0.00, 0.00, 0.00, 0.000, 0.000, 0.000, 12:23:06.812
23, 56585.94, 0.00, 0.00, 0.00, 0.00, 0.00, 0.00, 0.00, 0.000, 0.000, 0.000, 12:23:06.812
24, 56577.63, 0.00, 0.00, 0.00, 0.00, 0.00, 0.00, 0.00, 0.000, 0.000, 0.000, 12:23:06.812
25, 56586.39, 0.00, 0.00, 0.00, 0.00, 0.00, 0.00, 0.00, 0.000, 0.000, 0.000, 12:23:06.812
26, 56624.59, 0.00, 0.00, 0.00, 0.00, 0.00, 0.00, 0.00, 0.000, 0.000, 0.000, 12:23:06.812
27, 56623.02, 0.00, 0.00, 0.00, 0.00, 0.00, 0.00, 0.00, 0.182, 0.046, 1.000, 12:23:06.812
28, 56601.28, 0.00, 0.00, 0.00, 0.00, 0.00, 0.00, 0.00, 0.000, 0.000, 0.000, 12:23:06.812
29, 56582.79, 0.00, 0.00, 0.00, 0.00, 0.00, 0.00, 0.00, 0.000, 0.000, 0.000, 12:23:06.812
30, 56585.56, 0.00, 0.00, 0.00, 0.00, 0.00, 0.00, 0.00, 0.000, 0.000, 0.000, 12:23:06.812
31, 56597.83, 0.00, 0.00, 0.00, 0.00, 0.00, 0.00, 0.00, 0.000, 0.000, 0.000, 12:23:06.812
32, 56600.00, 0.00, 0.00, 0.00, 0.00, 0.00, 0.00, 0.00, 0.000, 0.000, 0.000, 12:23:06.813
33, 56592.89, 0.00, 0.00, 0.00, 0.00, 0.00, 0.00, 0.00, 0.000, 0.000, 0.000, 12:23:06.813
34, 56600.00, 0.00, 0.00, 0.00, 0.00, 0.00, 0.00, 0.00, 0.000, 0.000, 0.000, 12:23:06.813
35, 56604.25, 0.00, 0.00, 0.00, 0.00, 0.00, 0.00, 0.00, 0.000, 0.000, 0.000, 12:23:06.813
36, 56588.00, 0.00, 0.00, 0.00, 0.00, 0.00, 0.00, 0.00, 0.000, 0.000, 0.000, 12:23:06.813
37, 56592.02, 0.00, 0.00, 0.00, 0.00, 0.00, 0.00, 0.00, 0.188, 0.044, 1.000, 12:23:06.813
38, 56600.07, 0.00, 0.00, 0.00, 0.00, 0.00, 0.00, 0.00, 0.000, 0.000, 0.000, 12:23:06.813
39, 56592.49, 0.00, 0.00, 0.00, 0.00, 0.00, 0.00, 0.00, 0.000, 0.000, 0.000, 12:23:06.813
40, 56585.85, 0.00, 0.00, 0.00, 0.00, 0.00, 0.00, 0.00, 0.000, 0.000, 0.000, 12:23:06.813
41, 56595.13, 0.00, 0.00, 0.00, 0.00, 0.00, 0.00, 0.00, 0.000, 0.000, 0.000, 12:23:06.813
42, 56589.43, 0.00, 0.00, 0.00, 0.00, 0.00, 0.00, 0.00, 0.000, 0.000, 0.000, 12:23:06.813
43, 56596.09, 0.00, 0.00, 0.00, 0.00, 0.00, 0.00, 0.00, 0.000, 0.000, 0.000, 12:23:06.813
44, 56589.74, 0.00, 0.00, 0.00, 0.00, 0.00, 0.00, 0.00, 0.000, 0.000, 0.000, 12:23:06.813
45, 56595.75, 0.00, 0.00, 0.00, 0.00, 0.00, 0.00, 0.00, 0.000, 0.000, 0.000, 12:23:06.814
46, 56615.80, 0.00, 0.00, 0.00, 0.00, 0.00, 0.00, 0.00, 0.000, 0.000, 0.000, 12:23:06.814
47, 56617.08, 0.00, 0.00, 0.00, 0.00, 0.00, 0.00, 0.00, 0.180, 0.040, 1.002, 12:23:06.814
48, 56602.46, 0.00, 0.00, 0.00, 0.00, 0.00, 0.00, 0.00, 0.000, 0.000, 0.000, 12:23:06.814
49, 56584.80, 0.00, 0.00, 0.00, 0.00, 0.00, 0.00, 0.00, 0.000, 0.000, 0.000, 12:23:06.814
50, 56601.25, 0.00, 0.00, 0.00, 0.00, 0.00, 0.00, 0.00, 0.000, 0.000, 0.000, 12:23:06.814
51, 56599.93, 0.00, 0.00, 0.00, 0.00, 0.00, 0.00, 0.00, 0.000, 0.000, 0.000, 12:23:06.815
52, 56597.54, 0.00, 0.00, 0.00, 0.00, 0.00, 0.00, 0.00, 0.000, 0.000, 0.000, 12:23:06.815
53, 56597.34, 0.00, 0.00, 0.00, 0.00, 0.00, 0.00, 0.00, 0.000, 0.000, 0.000, 12:23:06.815
54, 56607.45, 0.00, 0.00, 0.00, 0.00, 0.00, 0.00, 0.00, 0.000, 0.000, 0.000, 12:23:06.815
55, 56612.12, 0.00, 0.00, 0.00, 0.00, 0.00, 0.00, 0.00, 0.000, 0.000, 0.000, 12:23:06.815
56, 56593.68, 0.00, 0.00, 0.00, 0.00, 0.00, 0.00, 0.00, 0.000, 0.000, 0.000, 12:23:06.815
57, 56582.50, 0.00, 0.00, 0.00, 0.00, 0.00, 0.00, 0.00, 0.178, 0.044, 1.000, 12:23:06.815
58, 56595.71, 0.00, 0.00, 0.00, 0.00, 0.00, 0.00, 0.00, 0.000, 0.000, 0.000, 12:23:06.815
59, 56604.54, 0.00, 0.00, 0.00, 0.00, 0.00, 0.00, 0.00, 0.000, 0.000, 0.000, 12:23:06.815
60, 56590.32, 0.00, 0.00, 0.00, 0.00, 0.00, 0.00, 0.00, 0.000, 0.000, 0.000, 12:23:06.815
61, 56572.96, 0.00, 0.00, 0.00, 0.00, 0.00, 0.00, 0.00, 0.000, 0.000, 0.000, 12:23:06.815
62, 56597.10, 0.00, 0.00, 0.00, 0.00, 0.00, 0.00, 0.00, 0.000, 0.000, 0.000, 12:23:06.815
63, 56612.00, 0.00, 0.00, 0.00, 0.00, 0.00, 0.00, 0.00, 0.000, 0.000, 0.000, 12:23:06.815
64, 56600.85, 0.00, 0.00, 0.00, 0.00, 0.00, 0.00, 0.00, 0.000, 0.000, 0.000, 12:23:06.816
65, 56575.86, 0.00, 0.00, 0.00, 0.00, 0.00, 0.00, 0.00, 0.000, 0.000, 0.000, 12:23:06.816
66, 56572.53, 0.00, 0.00, 0.00, 0.00, 0.00, 0.00, 0.00, 0.000, 0.000, 0.000, 12:23:06.816
67, 56577.47, 0.00, 0.00, 0.00, 0.00, 0.00, 0.00, 0.00, 0.184, 0.042, 1.000, 12:23:06.816
68, 56585.18, 0.00, 0.00, 0.00, 0.00, 0.00, 0.00, 0.00, 0.000, 0.000, 0.000, 12:23:06.816
69, 56590.39, 0.00, 0.00, 0.00, 0.00, 0.00, 0.00, 0.00, 0.000, 0.000, 0.000, 12:23:06.816
70, 56595.71, 0.00, 0.00, 0.00, 0.00, 0.00, 0.00, 0.00, 0.000, 0.000, 0.000, 12:23:06.816
71, 56598.46, 0.00, 0.00, 0.00, 0.00, 0.00, 0.00, 0.00, 0.000, 0.000, 0.000, 12:23:06.816
72, 56608.27, 0.00, 0.00, 0.00, 0.00, 0.00, 0.00, 0.00, 0.000, 0.000, 0.000, 12:23:06.816
73, 56599.46, 0.00, 0.00, 0.00, 0.00, 0.00, 0.00, 0.00, 0.000, 0.000, 0.000, 12:23:06.816
74, 56583.08, 0.00, 0.00, 0.00, 0.00, 0.00, 0.00, 0.00, 0.000, 0.000, 0.000, 12:23:07.288
75, 56584.51, 0.00, 0.00, 0.00, 0.00, 0.00, 0.00, 0.00, 0.000, 0.000, 0.000, 12:23:07.288
76, 56590.05, 0.00, 0.00, 0.00, 0.00, 0.00, 0.00, 0.00, 0.180, 0.040, 0.996, 12:23:07.288
77, 56586.55, 0.00, 0.00, 0.00, 0.00, 0.00, 0.00, 0.00, 0.000, 0.000, 0.000, 12:23:07.289
78, 56583.19, 0.00, 0.00, 0.00, 0.00, 0.00, 0.00, 0.00, 0.000, 0.000, 0.000, 12:23:07.289
79, 56577.54, 0.00, 0.00, 0.00, 0.00, 0.00, 0.00, 0.00, 0.000, 0.000, 0.000, 12:23:07.289
80, 56587.21, 0.00, 0.00, 0.00, 0.00, 0.00, 0.00, 0.00, 0.000, 0.000, 0.000, 12:23:07.289
81, 56595.78, 0.00, 0.00, 0.00, 0.00, 0.00, 0.00, 0.00, 0.000, 0.000, 0.000, 12:23:07.289
82, 56581.90, 0.00, 0.00, 0.00, 0.00, 0.00, 0.00, 0.00, 0.000, 0.000, 0.000, 12:23:07.289
83, 56583.35, 0.00, 0.00, 0.00, 0.00, 0.00, 0.00, 0.00, 0.000, 0.000, 0.000, 12:23:07.290
84, 56598.15, 0.00, 0.00, 0.00, 0.00, 0.00, 0.00, 0.00, 0.000, 0.000, 0.000, 12:23:07.290
85, 56588.71, 0.00, 0.00, 0.00, 0.00, 0.00, 0.00, 0.00, 0.000, 0.000, 0.000, 12:23:07.290
86, 56568.11, 0.00, 0.00, 0.00, 0.00, 0.00, 0.00, 0.00, 0.178, 0.042, 0.998, 12:23:07.290
87, 56571.95, 0.00, 0.00, 0.00, 0.00, 0.00, 0.00, 0.00, 0.000, 0.000, 0.000, 12:23:07.290
88, 56612.14, 0.00, 0.00, 0.00, 0.00, 0.00, 0.00, 0.00, 0.000, 0.000, 0.000, 12:23:07.290
89, 56614.82, 0.00, 0.00, 0.00, 0.00, 0.00, 0.00, 0.00, 0.000, 0.000, 0.000, 12:23:07.291
90, 56603.58, 0.00, 0.00, 0.00, 0.00, 0.00, 0.00, 0.00, 0.000, 0.000, 0.000, 12:23:07.291
91, 56592.04, 0.00, 0.00, 0.00, 0.00, 0.00, 0.00, 0.00, 0.000, 0.000, 0.000, 12:23:07.291
92, 56592.54, 0.00, 0.00, 0.00, 0.00, 0.00, 0.00, 0.00, 0.000, 0.000, 0.000, 12:23:07.291
93, 56605.01, 0.00, 0.00, 0.00, 0.00, 0.00, 0.00, 0.00, 0.000, 0.000, 0.000, 12:23:07.291
94, 56604.20, 0.00, 0.00, 0.00, 0.00, 0.00, 0.00, 0.00, 0.000, 0.000, 0.000, 12:23:07.291
95, 56588.85, 0.00, 0.00, 0.00, 0.00, 0.00, 0.00, 0.00, 0.000, 0.000, 0.000, 12:23:07.292
96, 56580.00, 0.00, 0.00, 0.00, 0.00, 0.00, 0.00, 0.00, 0.180, 0.040, 1.006, 12:23:07.292
97, 56594.53, 0.00, 0.00, 0.00, 0.00, 0.00, 0.00, 0.00, 0.000, 0.000, 0.000, 12:23:07.292
98, 56594.04, 0.00, 0.00, 0.00, 0.00, 0.00, 0.00, 0.00, 0.000, 0.000, 0.000, 12:23:07.292
99, 56589.45, 0.00, 0.00, 0.00, 0.00, 0.00, 0.00, 0.00, 0.000, 0.000, 0.000, 12:23:07.292
100, 56586.86, 0.00, 0.00, 0.00, 0.00, 0.00, 0.00, 0.00, 0.000, 0.000, 0.000, 12:23:07.292
101, 56607.15, 0.00, 0.00, 0.00, 0.00, 0.00, 0.00, 0.00, 0.000, 0.000, 0.000, 12:23:07.293
102, 56608.74, 0.00, 0.00, 0.00, 0.00, 0.00, 0.00, 0.00, 0.000, 0.000, 0.000, 12:23:07.293
103, 56592.56, 0.00, 0.00, 0.00, 0.00, 0.00, 0.00, 0.00, 0.000, 0.000, 0.000, 12:23:07.293
104, 56585.47, 0.00, 0.00, 0.00, 0.00, 0.00, 0.00, 0.00, 0.000, 0.000, 0.000, 12:23:07.293
105, 56583.62, 0.00, 0.00, 0.00, 0.00, 0.00, 0.00, 0.00, 0.000, 0.000, 0.000, 12:23:07.293
106, 56589.59, 0.00, 0.00, 0.00, 0.00, 0.00, 0.00, 0.00, 0.184, 0.040, 1.006, 12:23:07.293
107, 56571.84, 0.00, 0.00, 0.00, 0.00, 0.00, 0.00, 0.00, 0.000, 0.000, 0.000, 12:23:07.294
108, 56572.15, 0.00, 0.00, 0.00, 0.00, 0.00, 0.00, 0.00, 0.000, 0.000, 0.000, 12:23:07.294
109, 56604.18, 0.00, 0.00, 0.00, 0.00, 0.00, 0.00, 0.00, 0.000, 0.000, 0.000, 12:23:07.294
110, 56622.24, 0.00, 0.00, 0.00, 0.00, 0.00, 0.00, 0.00, 0.000, 0.000, 0.000, 12:23:07.294
111, 56603.42, 0.00, 0.00, 0.00, 0.00, 0.00, 0.00, 0.00, 0.000, 0.000, 0.000, 12:23:07.294
112, 56583.98, 0.00, 0.00, 0.00, 0.00, 0.00, 0.00, 0.00, 0.000, 0.000, 0.000, 12:23:07.294
113, 56593.09, 0.00, 0.00, 0.00, 0.00, 0.00, 0.00, 0.00, 0.000, 0.000, 0.000, 12:23:07.295
114, 56607.55, 0.00, 0.00, 0.00, 0.00, 0.00, 0.00, 0.00, 0.000, 0.000, 0.000, 12:23:07.295
115, 56590.95, 0.00, 0.00, 0.00, 0.00, 0.00, 0.00, 0.00, 0.000, 0.000, 0.000, 12:23:07.295
116, 56577.74, 0.00, 0.00, 0.00, 0.00, 0.00, 0.00, 0.00, 0.184, 0.042, 1.000, 12:23:07.295
117, 56588.89, 0.00, 0.00, 0.00, 0.00, 0.00, 0.00, 0.00, 0.000, 0.000, 0.000, 12:23:07.295
118, 56617.55, 0.00, 0.00, 0.00, 0.00, 0.00, 0.00, 0.00, 0.000, 0.000, 0.000, 12:23:07.296
119, 56609.61, 0.00, 0.00, 0.00, 0.00, 0.00, 0.00, 0.00, 0.000, 0.000, 0.000, 12:23:07.296
120, 56605.39, 0.00, 0.00, 0.00, 0.00, 0.00, 0.00, 0.00, 0.000, 0.000, 0.000, 12:23:07.296
121, 56606.73, 0.00, 0.00, 0.00, 0.00, 0.00, 0.00, 0.00, 0.000, 0.000, 0.000, 12:23:07.296
122, 56605.59, 0.00, 0.00, 0.00, 0.00, 0.00, 0.00, 0.00, 0.000, 0.000, 0.000, 12:23:07.296
123, 56596.54, 0.00, 0.00, 0.00, 0.00, 0.00, 0.00, 0.00, 0.000, 0.000, 0.000, 12:23:07.296
124, 56595.20, 0.00, 0.00, 0.00, 0.00, 0.00, 0.00, 0.00, 0.000, 0.000, 0.000, 12:23:07.297
125, 56599.64, 0.00, 0.00, 0.00, 0.00, 0.00, 0.00, 0.00, 0.000, 0.000, 0.000, 12:23:07.297
126, 56615.20, 0.00, 0.00, 0.00, 0.00, 0.00, 0.00, 0.00, 0.182, 0.040, 0.992, 12:23:07.297
127, 56602.91, 0.00, 0.00, 0.00, 0.00, 0.00, 0.00, 0.00, 0.000, 0.000, 0.000, 12:23:07.297
128, 56595.64, 0.00, 0.00, 0.00, 0.00, 0.00, 0.00, 0.00, 0.000, 0.000, 0.000, 12:23:07.297
129, 56590.70, 0.00, 0.00, 0.00, 0.00, 0.00, 0.00, 0.00, 0.000, 0.000, 0.000, 12:23:07.297
130, 56599.13, 0.00, 0.00, 0.00, 0.00, 0.00, 0.00, 0.00, 0.000, 0.000, 0.000, 12:23:07.298
131, 56610.86, 0.00, 0.00, 0.00, 0.00, 0.00, 0.00, 0.00, 0.000, 0.000, 0.000, 12:23:07.298
132, 56593.36, 0.00, 0.00, 0.00, 0.00, 0.00, 0.00, 0.00, 0.000, 0.000, 0.000, 12:23:07.298
133, 56590.99, 0.00, 0.00, 0.00, 0.00, 0.00, 0.00, 0.00, 0.000, 0.000, 0.000, 12:23:07.298
134, 56594.93, 0.00, 0.00, 0.00, 0.00, 0.00, 0.00, 0.00, 0.000, 0.000, 0.000, 12:23:07.298
135, 56580.20, 0.00, 0.00, 0.00, 0.00, 0.00, 0.00, 0.00, 0.000, 0.000, 0.000, 12:23:07.298
136, 56563.57, 0.00, 0.00, 0.00, 0.00, 0.00, 0.00, 0.00, 0.184, 0.040, 0.998, 12:23:07.299
137, 56575.21, 0.00, 0.00, 0.00, 0.00, 0.00, 0.00, 0.00, 0.000, 0.000, 0.000, 12:23:07.299
138, 56597.16, 0.00, 0.00, 0.00, 0.00, 0.00, 0.00, 0.00, 0.000, 0.000, 0.000, 12:23:07.299
139, 56610.35, 0.00, 0.00, 0.00, 0.00, 0.00, 0.00, 0.00, 0.000, 0.000, 0.000, 12:23:07.299
140, 56604.07, 0.00, 0.00, 0.00, 0.00, 0.00, 0.00, 0.00, 0.000, 0.000, 0.000, 12:23:07.299
141, 56590.28, 0.00, 0.00, 0.00, 0.00, 0.00, 0.00, 0.00, 0.000, 0.000, 0.000, 12:23:07.299
142, 56575.23, 0.00, 0.00, 0.00, 0.00, 0.00, 0.00, 0.00, 0.000, 0.000, 0.000, 12:23:07.300
143, 56587.21, 0.00, 0.00, 0.00, 0.00, 0.00, 0.00, 0.00, 0.000, 0.000, 0.000, 12:23:07.300
144, 56605.79, 0.00, 0.00, 0.00, 0.00, 0.00, 0.00, 0.00, 0.000, 0.000, 0.000, 12:23:07.300
145, 56599.29, 0.00, 0.00, 0.00, 0.00, 0.00, 0.00, 0.00, 0.178, 0.040, 1.000, 12:23:07.300
146, 56606.89, 0.00, 0.00, 0.00, 0.00, 0.00, 0.00, 0.00, 0.000, 0.000, 0.000, 12:23:07.300
147, 56618.89, 0.00, 0.00, 0.00, 0.00, 0.00, 0.00, 0.00, 0.000, 0.000, 0.000, 12:23:07.301
148, 56597.99, 0.00, 0.00, 0.00, 0.00, 0.00, 0.00, 0.00, 0.000, 0.000, 0.000, 12:23:07.301
149, 56571.13, 0.00, 0.00, 0.00, 0.00, 0.00, 0.00, 0.00, 0.000, 0.000, 0.000, 12:23:07.301
150, 56592.40, 0.00, 0.00, 0.00, 0.00, 0.00, 0.00, 0.00, 0.000, 0.000, 0.000, 12:23:07.301
151, 56616.83, 0.00, 0.00, 0.00, 0.00, 0.00, 0.00, 0.00, 0.000, 0.000, 0.000, 12:23:07.301
152, 56600.20, 0.00, 0.00, 0.00, 0.00, 0.00, 0.00, 0.00, 0.000, 0.000, 0.000, 12:23:07.301
153, 56580.27, 0.00, 0.00, 0.00, 0.00, 0.00, 0.00, 0.00, 0.000, 0.000, 0.000, 12:23:07.302
154, 56598.75, 0.00, 0.00, 0.00, 0.00, 0.00, 0.00, 0.00, 0.000, 0.000, 0.000, 12:23:07.302
155, 56607.38, 0.00, 0.00, 0.00, 0.00, 0.00, 0.00, 0.00, 0.180, 0.042, 1.002, 12:23:07.302
156, 56600.58, 0.00, 0.00, 0.00, 0.00, 0.00, 0.00, 0.00, 0.000, 0.000, 0.000, 12:23:07.314
157, 56574.27, 0.00, 0.00, 0.00, 0.00, 0.00, 0.00, 0.00, 0.000, 0.000, 0.000, 12:23:07.314
158, 56577.54, 0.00, 0.00, 0.00, 0.00, 0.00, 0.00, 0.00, 0.000, 0.000, 0.000, 12:23:07.315
159, 56594.13, 0.00, 0.00, 0.00, 0.00, 0.00, 0.00, 0.00, 0.000, 0.000, 0.000, 12:23:07.315
160, 56599.27, 0.00, 0.00, 0.00, 0.00, 0.00, 0.00, 0.00, 0.000, 0.000, 0.000, 12:23:07.315
161, 56596.16, 0.00, 0.00, 0.00, 0.00, 0.00, 0.00, 0.00, 0.000, 0.000, 0.000, 12:23:07.315
162, 56588.09, 0.00, 0.00, 0.00, 0.00, 0.00, 0.00, 0.00, 0.000, 0.000, 0.000, 12:23:07.316
163, 56594.97, 0.00, 0.00, 0.00, 0.00, 0.00, 0.00, 0.00, 0.000, 0.000, 0.000, 12:23:07.316
164, 56615.71, 0.00, 0.00, 0.00, 0.00, 0.00, 0.00, 0.00, 0.000, 0.000, 0.000, 12:23:07.317
165, 56591.93, 0.00, 0.00, 0.00, 0.00, 0.00, 0.00, 0.00, 0.184, 0.044, 1.002, 12:23:07.319
166, 56607.42, 0.00, 0.00, 0.00, 0.00, 0.00, 0.00, 0.00, 0.000, 0.000, 0.000, 12:23:07.319
167, 56627.00, 0.00, 0.00, 0.00, 0.00, 0.00, 0.00, 0.00, 0.000, 0.000, 0.000, 12:23:07.319
168, 56631.09, 0.00, 0.00, 0.00, 0.00, 0.00, 0.00, 0.00, 0.000, 0.000, 0.000, 12:23:07.319
169, 56617.59, 0.00, 0.00, 0.00, 0.00, 0.00, 0.00, 0.00, 0.000, 0.000, 0.000, 12:23:07.320
170, 56599.24, 0.00, 0.00, 0.00, 0.00, 0.00, 0.00, 0.00, 0.000, 0.000, 0.000, 12:23:07.320
171, 56596.71, 0.00, 0.00, 0.00, 0.00, 0.00, 0.00, 0.00, 0.000, 0.000, 0.000, 12:23:07.320
172, 56595.02, 0.00, 0.00, 0.00, 0.00, 0.00, 0.00, 0.00, 0.000, 0.000, 0.000, 12:23:07.320
173, 56601.05, 0.00, 0.00, 0.00, 0.00, 0.00, 0.00, 0.00, 0.000, 0.000, 0.000, 12:23:07.320
174, 56605.43, 0.00, 0.00, 0.00, 0.00, 0.00, 0.00, 0.00, 0.000, 0.000, 0.000, 12:23:07.321
175, 56599.87, 0.00, 0.00, 0.00, 0.00, 0.00, 0.00, 0.00, 0.180, 0.044, 1.002, 12:23:07.321
176, 56598.17, 0.00, 0.00, 0.00, 0.00, 0.00, 0.00, 0.00, 0.000, 0.000, 0.000, 12:23:07.321
177, 56597.07, 0.00, 0.00, 0.00, 0.00, 0.00, 0.00, 0.00, 0.000, 0.000, 0.000, 12:23:07.321
178, 56587.86, 0.00, 0.00, 0.00, 0.00, 0.00, 0.00, 0.00, 0.000, 0.000, 0.000, 12:23:07.322
179, 56591.11, 0.00, 0.00, 0.00, 0.00, 0.00, 0.00, 0.00, 0.000, 0.000, 0.000, 12:23:07.322
180, 56590.99, 0.00, 0.00, 0.00, 0.00, 0.00, 0.00, 0.00, 0.000, 0.000, 0.000, 12:23:07.322
181, 56573.52, 0.00, 0.00, 0.00, 0.00, 0.00, 0.00, 0.00, 0.000, 0.000, 0.000, 12:23:07.322
182, 56553.73, 0.00, 0.00, 0.00, 0.00, 0.00, 0.00, 0.00, 0.000, 0.000, 0.000, 12:23:07.323
183, 56586.55, 0.00, 0.00, 0.00, 0.00, 0.00, 0.00, 0.00, 0.000, 0.000, 0.000, 12:23:07.323
184, 56609.34, 0.00, 0.00, 0.00, 0.00, 0.00, 0.00, 0.00, 0.000, 0.000, 0.000, 12:23:07.323
185, 56597.52, 0.00, 0.00, 0.00, 0.00, 0.00, 0.00, 0.00, 0.180, 0.038, 1.000, 12:23:07.324
186, 56584.09, 0.00, 0.00, 0.00, 0.00, 0.00, 0.00, 0.00, 0.000, 0.000, 0.000, 12:23:07.324
187, 56579.01, 0.00, 0.00, 0.00, 0.00, 0.00, 0.00, 0.00, 0.000, 0.000, 0.000, 12:23:07.324
188, 56584.16, 0.00, 0.00, 0.00, 0.00, 0.00, 0.00, 0.00, 0.000, 0.000, 0.000, 12:23:07.324
189, 56606.39, 0.00, 0.00, 0.00, 0.00, 0.00, 0.00, 0.00, 0.000, 0.000, 0.000, 12:23:07.324
190, 56600.34, 0.00, 0.00, 0.00, 0.00, 0.00, 0.00, 0.00, 0.000, 0.000, 0.000, 12:23:07.325
191, 56595.60, 0.00, 0.00, 0.00, 0.00, 0.00, 0.00, 0.00, 0.000, 0.000, 0.000, 12:23:07.325
192, 56601.77, 0.00, 0.00, 0.00, 0.00, 0.00, 0.00, 0.00, 0.000, 0.000, 0.000, 12:23:07.325
193, 56599.87, 0.00, 0.00, 0.00, 0.00, 0.00, 0.00, 0.00, 0.000, 0.000, 0.000, 12:23:07.325
194, 56595.51, 0.00, 0.00, 0.00, 0.00, 0.00, 0.00, 0.00, 0.000, 0.000, 0.000, 12:23:07.770
195, 56588.16, 0.00, 0.00, 0.00, 0.00, 0.00, 0.00, 0.00, 0.182, 0.040, 0.998, 12:23:07.771
196, 56600.80, 0.00, 0.00, 0.00, 0.00, 0.00, 0.00, 0.00, 0.000, 0.000, 0.000, 12:23:07.771
197, 56610.11, 0.00, 0.00, 0.00, 0.00, 0.00, 0.00, 0.00, 0.000, 0.000, 0.000, 12:23:07.771
198, 56603.33, 0.00, 0.00, 0.00, 0.00, 0.00, 0.00, 0.00, 0.000, 0.000, 0.000, 12:23:07.771
199, 56574.36, 0.00, 0.00, 0.00, 0.00, 0.00, 0.00, 0.00, 0.000, 0.000, 0.000, 12:23:07.771
200, 56579.28, 0.00, 0.00, 0.00, 0.00, 0.00, 0.00, 0.00, 0.000, 0.000, 0.000, 12:23:07.771
201, 56618.69, 0.00, 0.00, 0.00, 0.00, 0.00, 0.00, 0.00, 0.000, 0.000, 0.000, 12:23:07.772
202, 56613.21, 0.00, 0.00, 0.00, 0.00, 0.00, 0.00, 0.00, 0.000, 0.000, 0.000, 12:23:07.772
203, 56582.28, 0.00, 0.00, 0.00, 0.00, 0.00, 0.00, 0.00, 0.000, 0.000, 0.000, 12:23:07.772
204, 56583.57, 0.00, 0.00, 0.00, 0.00, 0.00, 0.00, 0.00, 0.000, 0.000, 0.000, 12:23:07.772
205, 56598.55, 0.00, 0.00, 0.00, 0.00, 0.00, 0.00, 0.00, 0.180, 0.042, 0.998, 12:23:07.772
206, 56594.70, 0.00, 0.00, 0.00, 0.00, 0.00, 0.00, 0.00, 0.000, 0.000, 0.000, 12:23:07.772
207, 56568.75, 0.00, 0.00, 0.00, 0.00, 0.00, 0.00, 0.00, 0.000, 0.000, 0.000, 12:23:07.773
208, 56552.15, 0.00, 0.00, 0.00, 0.00, 0.00, 0.00, 0.00, 0.000, 0.000, 0.000, 12:23:07.773
209, 56575.01, 0.00, 0.00, 0.00, 0.00, 0.00, 0.00, 0.00, 0.000, 0.000, 0.000, 12:23:07.773
210, 56618.71, 0.00, 0.00, 0.00, 0.00, 0.00, 0.00, 0.00, 0.000, 0.000, 0.000, 12:23:07.773
211, 56611.71, 0.00, 0.00, 0.00, 0.00, 0.00, 0.00, 0.00, 0.000, 0.000, 0.000, 12:23:07.773
212, 56594.70, 0.00, 0.00, 0.00, 0.00, 0.00, 0.00, 0.00, 0.000, 0.000, 0.000, 12:23:07.773
213, 56581.00, 0.00, 0.00, 0.00, 0.00, 0.00, 0.00, 0.00, 0.000, 0.000, 0.000, 12:23:07.773
214, 56567.30, 0.00, 0.00, 0.00, 0.00, 0.00, 0.00, 0.00, 0.176, 0.044, 0.998, 12:23:07.773
215, 56558.76, 0.00, 0.00, 0.00, 0.00, 0.00, 0.00, 0.00, 0.000, 0.000, 0.000, 12:23:07.773
216, 56574.75, 0.00, 0.00, 0.00, 0.00, 0.00, 0.00, 0.00, 0.000, 0.000, 0.000, 12:23:07.774
217, 56584.29, 0.00, 0.00, 0.00, 0.00, 0.00, 0.00, 0.00, 0.000, 0.000, 0.000, 12:23:07.774
218, 56599.69, 0.00, 0.00, 0.00, 0.00, 0.00, 0.00, 0.00, 0.000, 0.000, 0.000, 12:23:07.774
219, 56603.38, 0.00, 0.00, 0.00, 0.00, 0.00, 0.00, 0.00, 0.000, 0.000, 0.000, 12:23:07.774
220, 56579.26, 0.00, 0.00, 0.00, 0.00, 0.00, 0.00, 0.00, 0.000, 0.000, 0.000, 12:23:07.774
221, 56583.91, 0.00, 0.00, 0.00, 0.00, 0.00, 0.00, 0.00, 0.000, 0.000, 0.000, 12:23:07.774
222, 56591.26, 0.00, 0.00, 0.00, 0.00, 0.00, 0.00, 0.00, 0.000, 0.000, 0.000, 12:23:07.774
223, 56586.88, 0.00, 0.00, 0.00, 0.00, 0.00, 0.00, 0.00, 0.000, 0.000, 0.000, 12:23:07.774
224, 56586.10, 0.00, 0.00, 0.00, 0.00, 0.00, 0.00, 0.00, 0.178, 0.044, 0.996, 12:23:07.775
225, 56581.72, 0.00, 0.00, 0.00, 0.00, 0.00, 0.00, 0.00, 0.000, 0.000, 0.000, 12:23:07.775
226, 56594.91, 0.00, 0.00, 0.00, 0.00, 0.00, 0.00, 0.00, 0.000, 0.000, 0.000, 12:23:07.775
227, 56598.88, 0.00, 0.00, 0.00, 0.00, 0.00, 0.00, 0.00, 0.000, 0.000, 0.000, 12:23:07.775
228, 56588.07, 0.00, 0.00, 0.00, 0.00, 0.00, 0.00, 0.00, 0.000, 0.000, 0.000, 12:23:07.775
229, 56566.90, 0.00, 0.00, 0.00, 0.00, 0.00, 0.00, 0.00, 0.000, 0.000, 0.000, 12:23:07.775
230, 56587.44, 0.00, 0.00, 0.00, 0.00, 0.00, 0.00, 0.00, 0.000, 0.000, 0.000, 12:23:07.775
231, 56613.95, 0.00, 0.00, 0.00, 0.00, 0.00, 0.00, 0.00, 0.000, 0.000, 0.000, 12:23:07.776
232, 56589.18, 0.00, 0.00, 0.00, 0.00, 0.00, 0.00, 0.00, 0.000, 0.000, 0.000, 12:23:07.776
233, 56576.55, 0.00, 0.00, 0.00, 0.00, 0.00, 0.00, 0.00, 0.000, 0.000, 0.000, 12:23:07.776
234, 56573.67, 0.00, 0.00, 0.00, 0.00, 0.00, 0.00, 0.00, 0.176, 0.042, 1.006, 12:23:07.776
235, 56586.93, 0.00, 0.00, 0.00, 0.00, 0.00, 0.00, 0.00, 0.000, 0.000, 0.000, 12:23:07.776
236, 56579.84, 0.00, 0.00, 0.00, 0.00, 0.00, 0.00, 0.00, 0.000, 0.000, 0.000, 12:23:07.776
237, 56586.84, 0.00, 0.00, 0.00, 0.00, 0.00, 0.00, 0.00, 0.000, 0.000, 0.000, 12:23:07.776
238, 56593.63, 0.00, 0.00, 0.00, 0.00, 0.00, 0.00, 0.00, 0.000, 0.000, 0.000, 12:23:07.777
239, 56605.90, 0.00, 0.00, 0.00, 0.00, 0.00, 0.00, 0.00, 0.000, 0.000, 0.000, 12:23:07.777
240, 56613.37, 0.00, 0.00, 0.00, 0.00, 0.00, 0.00, 0.00, 0.000, 0.000, 0.000, 12:23:07.777
241, 56592.25, 0.00, 0.00, 0.00, 0.00, 0.00, 0.00, 0.00, 0.000, 0.000, 0.000, 12:23:07.777
242, 56596.49, 0.00, 0.00, 0.00, 0.00, 0.00, 0.00, 0.00, 0.000, 0.000, 0.000, 12:23:07.777
243, 56612.38, 0.00, 0.00, 0.00, 0.00, 0.00, 0.00, 0.00, 0.000, 0.000, 0.000, 12:23:07.777
244, 56593.86, 0.00, 0.00, 0.00, 0.00, 0.00, 0.00, 0.00, 0.178, 0.042, 1.000, 12:23:07.778
245, 56572.60, 0.00, 0.00, 0.00, 0.00, 0.00, 0.00, 0.00, 0.000, 0.000, 0.000, 12:23:07.778
246, 56563.61, 0.00, 0.00, 0.00, 0.00, 0.00, 0.00, 0.00, 0.000, 0.000, 0.000, 12:23:07.778
247, 56568.17, 0.00, 0.00, 0.00, 0.00, 0.00, 0.00, 0.00, 0.000, 0.000, 0.000, 12:23:07.778
248, 56594.13, 0.00, 0.00, 0.00, 0.00, 0.00, 0.00, 0.00, 0.000, 0.000, 0.000, 12:23:07.778
249, 56600.27, 0.00, 0.00, 0.00, 0.00, 0.00, 0.00, 0.00, 0.000, 0.000, 0.000, 12:23:07.778
250, 56586.73, 0.00, 0.00, 0.00, 0.00, 0.00, 0.00, 0.00, 0.000, 0.000, 0.000, 12:23:07.779
251, 56589.79, 0.00, 0.00, 0.00, 0.00, 0.00, 0.00, 0.00, 0.000, 0.000, 0.000, 12:23:07.779
252, 56601.05, 0.00, 0.00, 0.00, 0.00, 0.00, 0.00, 0.00, 0.000, 0.000, 0.000, 12:23:07.779
253, 56581.52, 0.00, 0.00, 0.00, 0.00, 0.00, 0.00, 0.00, 0.000, 0.000, 0.000, 12:23:07.779
254, 56585.70, 0.00, 0.00, 0.00, 0.00, 0.00, 0.00, 0.00, 0.184, 0.042, 0.998, 12:23:07.779
255, 56586.28, 0.00, 0.00, 0.00, 0.00, 0.00, 0.00, 0.00, 0.000, 0.000, 0.000, 12:23:07.779
0, 56586.73, 0.00, 0.00, 0.00, 0.00, 0.00, 0.00, 0.00, 0.000, 0.000, 0.000, 12:23:07.779
1, 56585.47, 0.00, 0.00, 0.00, 0.00, 0.00, 0.00, 0.00, 0.000, 0.000, 0.000, 12:23:07.779
2, 56579.93, 0.00, 0.00, 0.00, 0.00, 0.00, 0.00, 0.00, 0.000, 0.000, 0.000, 12:23:07.780
3, 56605.61, 0.00, 0.00, 0.00, 0.00, 0.00, 0.00, 0.00, 0.000, 0.000, 0.000, 12:23:07.780
4, 56617.32, 0.00, 0.00, 0.00, 0.00, 0.00, 0.00, 0.00, 0.000, 0.000, 0.000, 12:23:07.780
5, 56596.71, 0.00, 0.00, 0.00, 0.00, 0.00, 0.00, 0.00, 0.000, 0.000, 0.000, 12:23:07.780
6, 56577.09, 0.00, 0.00, 0.00, 0.00, 0.00, 0.00, 0.00, 0.000, 0.000, 0.000, 12:23:07.780
7, 56572.46, 0.00, 0.00, 0.00, 0.00, 0.00, 0.00, 0.00, 0.000, 0.000, 0.000, 12:23:07.780
8, 56586.03, 0.00, 0.00, 0.00, 0.00, 0.00, 0.00, 0.00, 0.184, 0.042, 1.002, 12:23:07.780
9, 56606.44, 0.00, 0.00, 0.00, 0.00, 0.00, 0.00, 0.00, 0.000, 0.000, 0.000, 12:23:07.780
10, 56601.90, 0.00, 0.00, 0.00, 0.00, 0.00, 0.00, 0.00, 0.000, 0.000, 0.000, 12:23:07.781
11, 56595.57, 0.00, 0.00, 0.00, 0.00, 0.00, 0.00, 0.00, 0.000, 0.000, 0.000, 12:23:07.781
12, 56600.96, 0.00, 0.00, 0.00, 0.00, 0.00, 0.00, 0.00, 0.000, 0.000, 0.000, 12:23:07.781
13, 56596.20, 0.00, 0.00, 0.00, 0.00, 0.00, 0.00, 0.00, 0.000, 0.000, 0.000, 12:23:07.781
14, 56588.02, 0.00, 0.00, 0.00, 0.00, 0.00, 0.00, 0.00, 0.000, 0.000, 0.000, 12:23:07.781
15, 56594.48, 0.00, 0.00, 0.00, 0.00, 0.00, 0.00, 0.00, 0.000, 0.000, 0.000, 12:23:07.781
16, 56603.02, 0.00, 0.00, 0.00, 0.00, 0.00, 0.00, 0.00, 0.000, 0.000, 0.000, 12:23:07.781
17, 56592.89, 0.00, 0.00, 0.00, 0.00, 0.00, 0.00, 0.00, 0.182, 0.038, 1.002, 12:23:07.781
18, 56582.57, 0.00, 0.00, 0.00, 0.00, 0.00, 0.00, 0.00, 0.000, 0.000, 0.000, 12:23:07.781
19, 56586.99, 0.00, 0.00, 0.00, 0.00, 0.00, 0.00, 0.00, 0.000, 0.000, 0.000, 12:23:07.781
20, 56589.27, 0.00, 0.00, 0.00, 0.00, 0.00, 0.00, 0.00, 0.000, 0.000, 0.000, 12:23:07.781
21, 56601.95, 0.00, 0.00, 0.00, 0.00, 0.00, 0.00, 0.00, 0.000, 0.000, 0.000, 12:23:07.781
22, 56588.89, 0.00, 0.00, 0.00, 0.00, 0.00, 0.00, 0.00, 0.000, 0.000, 0.000, 12:23:07.781
23, 56589.38, 0.00, 0.00, 0.00, 0.00, 0.00, 0.00, 0.00, 0.000, 0.000, 0.000, 12:23:07.781
24, 56613.52, 0.00, 0.00, 0.00, 0.00, 0.00, 0.00, 0.00, 0.000, 0.000, 0.000, 12:23:07.782
25, 56613.30, 0.00, 0.00, 0.00, 0.00, 0.00, 0.00, 0.00, 0.000, 0.000, 0.000, 12:23:07.782
26, 56587.89, 0.00, 0.00, 0.00, 0.00, 0.00, 0.00, 0.00, 0.000, 0.000, 0.000, 12:23:07.782
27, 56589.38, 0.00, 0.00, 0.00, 0.00, 0.00, 0.00, 0.00, 0.182, 0.042, 1.004, 12:23:07.782
28, 56601.01, 0.00, 0.00, 0.00, 0.00, 0.00, 0.00, 0.00, 0.000, 0.000, 0.000, 12:23:07.782
29, 56599.44, 0.00, 0.00, 0.00, 0.00, 0.00, 0.00, 0.00, 0.000, 0.000, 0.000, 12:23:07.782
30, 56595.35, 0.00, 0.00, 0.00, 0.00, 0.00, 0.00, 0.00, 0.000, 0.000, 0.000, 12:23:07.783
31, 56577.61, 0.00, 0.00, 0.00, 0.00, 0.00, 0.00, 0.00, 0.000, 0.000, 0.000, 12:23:07.783
32, 56580.96, 0.00, 0.00, 0.00, 0.00, 0.00, 0.00, 0.00, 0.000, 0.000, 0.000, 12:23:07.783
33, 56603.69, 0.00, 0.00, 0.00, 0.00, 0.00, 0.00, 0.00, 0.000, 0.000, 0.000, 12:23:07.783
34, 56587.26, 0.00, 0.00, 0.00, 0.00, 0.00, 0.00, 0.00, 0.000, 0.000, 0.000, 12:23:07.783
35, 56581.47, 0.00, 0.00, 0.00, 0.00, 0.00, 0.00, 0.00, 0.000, 0.000, 0.000, 12:23:07.783
36, 56588.00, 0.00, 0.00, 0.00, 0.00, 0.00, 0.00, 0.00, 0.000, 0.000, 0.000, 12:23:07.783
37, 56606.86, 0.00, 0.00, 0.00, 0.00, 0.00, 0.00, 0.00, 0.182, 0.040, 1.000, 12:23:07.783
38, 56620.50, 0.00, 0.00, 0.00, 0.00, 0.00, 0.00, 0.00, 0.000, 0.000, 0.000, 12:23:07.783
39, 56595.15, 0.00, 0.00, 0.00, 0.00, 0.00, 0.00, 0.00, 0.000, 0.000, 0.000, 12:23:07.785
40, 56583.80, 0.00, 0.00, 0.00, 0.00, 0.00, 0.00, 0.00, 0.000, 0.000, 0.000, 12:23:07.785
41, 56596.00, 0.00, 0.00, 0.00, 0.00, 0.00, 0.00, 0.00, 0.000, 0.000, 0.000, 12:23:07.785
42, 56601.84, 0.00, 0.00, 0.00, 0.00, 0.00, 0.00, 0.00, 0.000, 0.000, 0.000, 12:23:07.785
43, 56577.25, 0.00, 0.00, 0.00, 0.00, 0.00, 0.00, 0.00, 0.000, 0.000, 0.000, 12:23:07.785
44, 56580.22, 0.00, 0.00, 0.00, 0.00, 0.00, 0.00, 0.00, 0.000, 0.000, 0.000, 12:23:07.785
45, 56585.76, 0.00, 0.00, 0.00, 0.00, 0.00, 0.00, 0.00, 0.000, 0.000, 0.000, 12:23:07.785
46, 56603.62, 0.00, 0.00, 0.00, 0.00, 0.00, 0.00, 0.00, 0.000, 0.000, 0.000, 12:23:07.785
47, 56592.78, 0.00, 0.00, 0.00, 0.00, 0.00, 0.00, 0.00, 0.184, 0.038, 0.998, 12:23:07.786
48, 56594.08, 0.00, 0.00, 0.00, 0.00, 0.00, 0.00, 0.00, 0.000, 0.000, 0.000, 12:23:07.786
49, 56615.94, 0.00, 0.00, 0.00, 0.00, 0.00, 0.00, 0.00, 0.000, 0.000, 0.000, 12:23:07.786
50, 56605.86, 0.00, 0.00, 0.00, 0.00, 0.00, 0.00, 0.00, 0.000, 0.000, 0.000, 12:23:07.786
51, 56584.63, 0.00, 0.00, 0.00, 0.00, 0.00, 0.00, 0.00, 0.000, 0.000, 0.000, 12:23:07.786
52, 56590.50, 0.00, 0.00, 0.00, 0.00, 0.00, 0.00, 0.00, 0.000, 0.000, 0.000, 12:23:07.786
53, 56599.69, 0.00, 0.00, 0.00, 0.00, 0.00, 0.00, 0.00, 0.000, 0.000, 0.000, 12:23:07.786
54, 56614.69, 0.00, 0.00, 0.00, 0.00, 0.00, 0.00, 0.00, 0.000, 0.000, 0.000, 12:23:07.786
55, 56604.41, 0.00, 0.00, 0.00, 0.00, 0.00, 0.00, 0.00, 0.000, 0.000, 0.000, 12:23:07.786
56, 56587.44, 0.00, 0.00, 0.00, 0.00, 0.00, 0.00, 0.00, 0.000, 0.000, 0.000, 12:23:07.787
57, 56599.55, 0.00, 0.00, 0.00, 0.00, 0.00, 0.00, 0.00, 0.186, 0.042, 1.006, 12:23:07.787
58, 56602.62, 0.00, 0.00, 0.00, 0.00, 0.00, 0.00, 0.00, 0.000, 0.000, 0.000, 12:23:07.787
59, 56589.79, 0.00, 0.00, 0.00, 0.00, 0.00, 0.00, 0.00, 0.000, 0.000, 0.000, 12:23:08.247
60, 56567.73, 0.00, 0.00, 0.00, 0.00, 0.00, 0.00, 0.00, 0.000, 0.000, 0.000, 12:23:08.248
61, 56588.31, 0.00, 0.00, 0.00, 0.00, 0.00, 0.00, 0.00, 0.000, 0.000, 0.000, 12:23:08.248
62, 56621.82, 0.00, 0.00, 0.00, 0.00, 0.00, 0.00, 0.00, 0.000, 0.000, 0.000, 12:23:08.248
63, 56606.21, 0.00, 0.00, 0.00, 0.00, 0.00, 0.00, 0.00, 0.000, 0.000, 0.000, 12:23:08.248
64, 56575.59, 0.00, 0.00, 0.00, 0.00, 0.00, 0.00, 0.00, 0.000, 0.000, 0.000, 12:23:08.248
65, 56578.16, 0.00, 0.00, 0.00, 0.00, 0.00, 0.00, 0.00, 0.000, 0.000, 0.000, 12:23:08.248
66, 56601.23, 0.00, 0.00, 0.00, 0.00, 0.00, 0.00, 0.00, 0.000, 0.000, 0.000, 12:23:08.248
67, 56608.76, 0.00, 0.00, 0.00, 0.00, 0.00, 0.00, 0.00, 0.184, 0.040, 1.000, 12:23:08.248
68, 56588.11, 0.00, 0.00, 0.00, 0.00, 0.00, 0.00, 0.00, 0.000, 0.000, 0.000, 12:23:08.248
69, 56582.72, 0.00, 0.00, 0.00, 0.00, 0.00, 0.00, 0.00, 0.000, 0.000, 0.000, 12:23:08.249
70, 56573.00, 0.00, 0.00, 0.00, 0.00, 0.00, 0.00, 0.00, 0.000, 0.000, 0.000, 12:23:08.249
71, 56577.54, 0.00, 0.00, 0.00, 0.00, 0.00, 0.00, 0.00, 0.000, 0.000, 0.000, 12:23:08.249
72, 56590.95, 0.00, 0.00, 0.00, 0.00, 0.00, 0.00, 0.00, 0.000, 0.000, 0.000, 12:23:08.249
73, 56598.10, 0.00, 0.00, 0.00, 0.00, 0.00, 0.00, 0.00, 0.000, 0.000, 0.000, 12:23:08.249
74, 56596.40, 0.00, 0.00, 0.00, 0.00, 0.00, 0.00, 0.00, 0.000, 0.000, 0.000, 12:23:08.249
75, 56591.06, 0.00, 0.00, 0.00, 0.00, 0.00, 0.00, 0.00, 0.000, 0.000, 0.000, 12:23:08.249
76, 56581.18, 0.00, 0.00, 0.00, 0.00, 0.00, 0.00, 0.00, 0.000, 0.000, 0.000, 12:23:08.249
77, 56571.13, 0.00, 0.00, 0.00, 0.00, 0.00, 0.00, 0.00, 0.178, 0.042, 0.996, 12:23:08.249
78, 56589.00, 0.00, 0.00, 0.00, 0.00, 0.00, 0.00, 0.00, 0.000, 0.000, 0.000, 12:23:08.249
79, 56594.77, 0.00, 0.00, 0.00, 0.00, 0.00, 0.00, 0.00, 0.000, 0.000, 0.000, 12:23:08.249
80, 56577.70, 0.00, 0.00, 0.00, 0.00, 0.00, 0.00, 0.00, 0.000, 0.000, 0.000, 12:23:08.249
81, 56565.09, 0.00, 0.00, 0.00, 0.00, 0.00, 0.00, 0.00, 0.000, 0.000, 0.000, 12:23:08.249
82, 56580.33, 0.00, 0.00, 0.00, 0.00, 0.00, 0.00, 0.00, 0.000, 0.000, 0.000, 12:23:08.249
83, 56583.82, 0.00, 0.00, 0.00, 0.00, 0.00, 0.00, 0.00, 0.000, 0.000, 0.000, 12:23:08.249
84, 56574.03, 0.00, 0.00, 0.00, 0.00, 0.00, 0.00, 0.00, 0.000, 0.000, 0.000, 12:23:08.249
85, 56568.91, 0.00, 0.00, 0.00, 0.00, 0.00, 0.00, 0.00, 0.000, 0.000, 0.000, 12:23:08.249
86, 56569.09, 0.00, 0.00, 0.00, 0.00, 0.00, 0.00, 0.00, 0.186, 0.044, 0.994, 12:23:08.249
87, 56587.64, 0.00, 0.00, 0.00, 0.00, 0.00, 0.00, 0.00, 0.000, 0.000, 0.000, 12:23:08.249
88, 56593.18, 0.00, 0.00, 0.00, 0.00, 0.00, 0.00, 0.00, 0.000, 0.000, 0.000, 12:23:08.249
89, 56582.37, 0.00, 0.00, 0.00, 0.00, 0.00, 0.00, 0.00, 0.000, 0.000, 0.000, 12:23:08.250
90, 56587.75, 0.00, 0.00, 0.00, 0.00, 0.00, 0.00, 0.00, 0.000, 0.000, 0.000, 12:23:08.250
91, 56605.41, 0.00, 0.00, 0.00, 0.00, 0.00, 0.00, 0.00, 0.000, 0.000, 0.000, 12:23:08.250
92, 56599.67, 0.00, 0.00, 0.00, 0.00, 0.00, 0.00, 0.00, 0.000, 0.000, 0.000, 12:23:08.250
93, 56580.96, 0.00, 0.00, 0.00, 0.00, 0.00, 0.00, 0.00, 0.000, 0.000, 0.000, 12:23:08.250
94, 56579.33, 0.00, 0.00, 0.00, 0.00, 0.00, 0.00, 0.00, 0.000, 0.000, 0.000, 12:23:08.250
95, 56580.62, 0.00, 0.00, 0.00, 0.00, 0.00, 0.00, 0.00, 0.000, 0.000, 0.000, 12:23:08.250
96, 56603.09, 0.00, 0.00, 0.00, 0.00, 0.00, 0.00, 0.00, 0.182, 0.042, 0.998, 12:23:08.250
97, 56598.50, 0.00, 0.00, 0.00, 0.00, 0.00, 0.00, 0.00, 0.000, 0.000, 0.000, 12:23:08.250
98, 56583.62, 0.00, 0.00, 0.00, 0.00, 0.00, 0.00, 0.00, 0.000, 0.000, 0.000, 12:23:08.250
99, 56581.29, 0.00, 0.00, 0.00, 0.00, 0.00, 0.00, 0.00, 0.000, 0.000, 0.000, 12:23:08.250
100, 56579.97, 0.00, 0.00, 0.00, 0.00, 0.00, 0.00, 0.00, 0.000, 0.000, 0.000, 12:23:08.250
101, 56579.13, 0.00, 0.00, 0.00, 0.00, 0.00, 0.00, 0.00, 0.000, 0.000, 0.000, 12:23:08.250
102, 56588.56, 0.00, 0.00, 0.00, 0.00, 0.00, 0.00, 0.00, 0.000, 0.000, 0.000, 12:23:08.250
103, 56597.41, 0.00, 0.00, 0.00, 0.00, 0.00, 0.00, 0.00, 0.000, 0.000, 0.000, 12:23:08.250
104, 56595.93, 0.00, 0.00, 0.00, 0.00, 0.00, 0.00, 0.00, 0.000, 0.000, 0.000, 12:23:08.250
105, 56584.87, 0.00, 0.00, 0.00, 0.00, 0.00, 0.00, 0.00, 0.000, 0.000, 0.000, 12:23:08.250
106, 56583.59, 0.00, 0.00, 0.00, 0.00, 0.00, 0.00, 0.00, 0.184, 0.040, 0.992, 12:23:08.250
107, 56596.25, 0.00, 0.00, 0.00, 0.00, 0.00, 0.00, 0.00, 0.000, 0.000, 0.000, 12:23:08.250
108, 56597.79, 0.00, 0.00, 0.00, 0.00, 0.00, 0.00, 0.00, 0.000, 0.000, 0.000, 12:23:08.250
109, 56596.25, 0.00, 0.00, 0.00, 0.00, 0.00, 0.00, 0.00, 0.000, 0.000, 0.000, 12:23:08.250
110, 56589.12, 0.00, 0.00, 0.00, 0.00, 0.00, 0.00, 0.00, 0.000, 0.000, 0.000, 12:23:08.250
111, 56594.37, 0.00, 0.00, 0.00, 0.00, 0.00, 0.00, 0.00, 0.000, 0.000, 0.000, 12:23:08.251
112, 56603.20, 0.00, 0.00, 0.00, 0.00, 0.00, 0.00, 0.00, 0.000, 0.000, 0.000, 12:23:08.251
113, 56605.41, 0.00, 0.00, 0.00, 0.00, 0.00, 0.00, 0.00, 0.000, 0.000, 0.000, 12:23:08.251
114, 56590.35, 0.00, 0.00, 0.00, 0.00, 0.00, 0.00, 0.00, 0.000, 0.000, 0.000, 12:23:08.251
115, 56586.19, 0.00, 0.00, 0.00, 0.00, 0.00, 0.00, 0.00, 0.000, 0.000, 0.000, 12:23:08.251
116, 56605.63, 0.00, 0.00, 0.00, 0.00, 0.00, 0.00, 0.00, 0.182, 0.038, 0.992, 12:23:08.251
117, 56614.13, 0.00, 0.00, 0.00, 0.00, 0.00, 0.00, 0.00, 0.000, 0.000, 0.000, 12:23:08.251
118, 56598.06, 0.00, 0.00, 0.00, 0.00, 0.00, 0.00, 0.00, 0.000, 0.000, 0.000, 12:23:08.251
119, 56596.74, 0.00, 0.00, 0.00, 0.00, 0.00, 0.00, 0.00, 0.000, 0.000, 0.000, 12:23:08.251
120, 56599.31, 0.00, 0.00, 0.00, 0.00, 0.00, 0.00, 0.00, 0.000, 0.000, 0.000, 12:23:08.251
121, 56613.86, 0.00, 0.00, 0.00, 0.00, 0.00, 0.00, 0.00, 0.000, 0.000, 0.000, 12:23:08.251
122, 56594.48, 0.00, 0.00, 0.00, 0.00, 0.00, 0.00, 0.00, 0.000, 0.000, 0.000, 12:23:08.251
123, 56585.65, 0.00, 0.00, 0.00, 0.00, 0.00, 0.00, 0.00, 0.000, 0.000, 0.000, 12:23:08.251
124, 56602.77, 0.00, 0.00, 0.00, 0.00, 0.00, 0.00, 0.00, 0.000, 0.000, 0.000, 12:23:08.251
125, 56626.55, 0.00, 0.00, 0.00, 0.00, 0.00, 0.00, 0.00, 0.000, 0.000, 0.000, 12:23:08.251
126, 56601.01, 0.00, 0.00, 0.00, 0.00, 0.00, 0.00, 0.00, 0.186, 0.034, 0.998, 12:23:08.251
127, 56568.78, 0.00, 0.00, 0.00, 0.00, 0.00, 0.00, 0.00, 0.000, 0.000, 0.000, 12:23:08.251
128, 56582.48, 0.00, 0.00, 0.00, 0.00, 0.00, 0.00, 0.00, 0.000, 0.000, 0.000, 12:23:08.251
129, 56612.34, 0.00, 0.00, 0.00, 0.00, 0.00, 0.00, 0.00, 0.000, 0.000, 0.000, 12:23:08.251
130, 56588.16, 0.00, 0.00, 0.00, 0.00, 0.00, 0.00, 0.00, 0.000, 0.000, 0.000, 12:23:08.251
131, 56585.76, 0.00, 0.00, 0.00, 0.00, 0.00, 0.00, 0.00, 0.000, 0.000, 0.000, 12:23:08.252
132, 56601.54, 0.00, 0.00, 0.00, 0.00, 0.00, 0.00, 0.00, 0.000, 0.000, 0.000, 12:23:08.252
133, 56610.55, 0.00, 0.00, 0.00, 0.00, 0.00, 0.00, 0.00, 0.000, 0.000, 0.000, 12:23:08.252
134, 56600.76, 0.00, 0.00, 0.00, 0.00, 0.00, 0.00, 0.00, 0.000, 0.000, 0.000, 12:23:08.252
135, 56573.74, 0.00, 0.00, 0.00, 0.00, 0.00, 0.00, 0.00, 0.000, 0.000, 0.000, 12:23:08.252
136, 56600.38, 0.00, 0.00, 0.00, 0.00, 0.00, 0.00, 0.00, 0.184, 0.038, 0.998, 12:23:08.252
137, 56620.95, 0.00, 0.00, 0.00, 0.00, 0.00, 0.00, 0.00, 0.000, 0.000, 0.000, 12:23:08.252
138, 56610.08, 0.00, 0.00, 0.00, 0.00, 0.00, 0.00, 0.00, 0.000, 0.000, 0.000, 12:23:08.252
139, 56588.31, 0.00, 0.00, 0.00, 0.00, 0.00, 0.00, 0.00, 0.000, 0.000, 0.000, 12:23:08.252
140, 56592.07, 0.00, 0.00, 0.00, 0.00, 0.00, 0.00, 0.00, 0.000, 0.000, 0.000, 12:23:08.252
141, 56618.75, 0.00, 0.00, 0.00, 0.00, 0.00, 0.00, 0.00, 0.000, 0.000, 0.000, 12:23:08.252
142, 56616.77, 0.00, 0.00, 0.00, 0.00, 0.00, 0.00, 0.00, 0.000, 0.000, 0.000, 12:23:08.252
143, 56584.20, 0.00, 0.00, 0.00, 0.00, 0.00, 0.00, 0.00, 0.000, 0.000, 0.000, 12:23:08.252
144, 56581.72, 0.00, 0.00, 0.00, 0.00, 0.00, 0.00, 0.00, 0.000, 0.000, 0.000, 12:23:08.252
145, 56614.73, 0.00, 0.00, 0.00, 0.00, 0.00, 0.00, 0.00, 0.182, 0.038, 0.998, 12:23:08.252
146, 56619.40, 0.00, 0.00, 0.00, 0.00, 0.00, 0.00, 0.00, 0.000, 0.000, 0.000, 12:23:08.252
147, 56600.27, 0.00, 0.00, 0.00, 0.00, 0.00, 0.00, 0.00, 0.000, 0.000, 0.000, 12:23:08.252
148, 56589.99, 0.00, 0.00, 0.00, 0.00, 0.00, 0.00, 0.00, 0.000, 0.000, 0.000, 12:23:08.252
149, 56599.87, 0.00, 0.00, 0.00, 0.00, 0.00, 0.00, 0.00, 0.000, 0.000, 0.000, 12:23:08.253
150, 56617.70, 0.00, 0.00, 0.00, 0.00, 0.00, 0.00, 0.00, 0.000, 0.000, 0.000, 12:23:08.253
151, 56604.72, 0.00, 0.00, 0.00, 0.00, 0.00, 0.00, 0.00, 0.000, 0.000, 0.000, 12:23:08.253
152, 56582.05, 0.00, 0.00, 0.00, 0.00, 0.00, 0.00, 0.00, 0.000, 0.000, 0.000, 12:23:08.253
153, 56610.24, 0.00, 0.00, 0.00, 0.00, 0.00, 0.00, 0.00, 0.000, 0.000, 0.000, 12:23:08.253
154, 56636.84, 0.00, 0.00, 0.00, 0.00, 0.00, 0.00, 0.00, 0.000, 0.000, 0.000, 12:23:08.254
155, 56626.49, 0.00, 0.00, 0.00, 0.00, 0.00, 0.00, 0.00, 0.184, 0.038, 1.000, 12:23:08.254
156, 56613.99, 0.00, 0.00, 0.00, 0.00, 0.00, 0.00, 0.00, 0.000, 0.000, 0.000, 12:23:08.254
157, 56611.85, 0.00, 0.00, 0.00, 0.00, 0.00, 0.00, 0.00, 0.000, 0.000, 0.000, 12:23:08.254
158, 56603.31, 0.00, 0.00, 0.00, 0.00, 0.00, 0.00, 0.00, 0.000, 0.000, 0.000, 12:23:08.254
159, 56587.21, 0.00, 0.00, 0.00, 0.00, 0.00, 0.00, 0.00, 0.000, 0.000, 0.000, 12:23:08.254
160, 56591.87, 0.00, 0.00, 0.00, 0.00, 0.00, 0.00, 0.00, 0.000, 0.000, 0.000, 12:23:08.254
161, 56620.03, 0.00, 0.00, 0.00, 0.00, 0.00, 0.00, 0.00, 0.000, 0.000, 0.000, 12:23:08.254
162, 56615.80, 0.00, 0.00, 0.00, 0.00, 0.00, 0.00, 0.00, 0.000, 0.000, 0.000, 12:23:08.254
163, 56608.12, 0.00, 0.00, 0.00, 0.00, 0.00, 0.00, 0.00, 0.000, 0.000, 0.000, 12:23:08.254
164, 56596.09, 0.00, 0.00, 0.00, 0.00, 0.00, 0.00, 0.00, 0.000, 0.000, 0.000, 12:23:08.254
165, 56597.90, 0.00, 0.00, 0.00, 0.00, 0.00, 0.00, 0.00, 0.186, 0.040, 1.002, 12:23:08.254
166, 56586.70, 0.00, 0.00, 0.00, 0.00, 0.00, 0.00, 0.00, 0.000, 0.000, 0.000, 12:23:08.254
167, 56593.63, 0.00, 0.00, 0.00, 0.00, 0.00, 0.00, 0.00, 0.000, 0.000, 0.000, 12:23:08.254
168, 56588.85, 0.00, 0.00, 0.00, 0.00, 0.00, 0.00, 0.00, 0.000, 0.000, 0.000, 12:23:08.254
169, 56603.20, 0.00, 0.00, 0.00, 0.00, 0.00, 0.00, 0.00, 0.000, 0.000, 0.000, 12:23:08.254
170, 56615.94, 0.00, 0.00, 0.00, 0.00, 0.00, 0.00, 0.00, 0.000, 0.000, 0.000, 12:23:08.254
171, 56599.64, 0.00, 0.00, 0.00, 0.00, 0.00, 0.00, 0.00, 0.000, 0.000, 0.000, 12:23:08.254
172, 56570.54, 0.00, 0.00, 0.00, 0.00, 0.00, 0.00, 0.00, 0.000, 0.000, 0.000, 12:23:08.254
173, 56588.74, 0.00, 0.00, 0.00, 0.00, 0.00, 0.00, 0.00, 0.000, 0.000, 0.000, 12:23:08.254
174, 56624.63, 0.00, 0.00, 0.00, 0.00, 0.00, 0.00, 0.00, 0.000, 0.000, 0.000, 12:23:08.254
175, 56621.75, 0.00, 0.00, 0.00, 0.00, 0.00, 0.00, 0.00, 0.184, 0.042, 1.000, 12:23:08.254
176, 56602.39, 0.00, 0.00, 0.00, 0.00, 0.00, 0.00, 0.00, 0.000, 0.000, 0.000, 12:23:08.254
177, 56599.22, 0.00, 0.00, 0.00, 0.00, 0.00, 0.00, 0.00, 0.000, 0.000, 0.000, 12:23:08.254
178, 56608.23, 0.00, 0.00, 0.00, 0.00, 0.00, 0.00, 0.00, 0.000, 0.000, 0.000, 12:23:08.255
179, 56622.75, 0.00, 0.00, 0.00, 0.00, 0.00, 0.00, 0.00, 0.000, 0.000, 0.000, 12:23:08.728
180, 56620.66, 0.00, 0.00, 0.00, 0.00, 0.00, 0.00, 0.00, 0.000, 0.000, 0.000, 12:23:08.728
181, 56598.32, 0.00, 0.00, 0.00, 0.00, 0.00, 0.00, 0.00, 0.000, 0.000, 0.000, 12:23:08.729
182, 56585.25, 0.00, 0.00, 0.00, 0.00, 0.00, 0.00, 0.00, 0.000, 0.000, 0.000, 12:23:08.729
183, 56587.55, 0.00, 0.00, 0.00, 0.00, 0.00, 0.00, 0.00, 0.000, 0.000, 0.000, 12:23:08.729
184, 56588.40, 0.00, 0.00, 0.00, 0.00, 0.00, 0.00, 0.00, 0.000, 0.000, 0.000, 12:23:08.729
185, 56592.20, 0.00, 0.00, 0.00, 0.00, 0.00, 0.00, 0.00, 0.182, 0.038, 1.002, 12:23:08.729
186, 56613.57, 0.00, 0.00, 0.00, 0.00, 0.00, 0.00, 0.00, 0.000, 0.000, 0.000, 12:23:08.729
187, 56647.84, 0.00, 0.00, 0.00, 0.00, 0.00, 0.00, 0.00, 0.000, 0.000, 0.000, 12:23:08.729
188, 56637.17, 0.00, 0.00, 0.00, 0.00, 0.00, 0.00, 0.00, 0.000, 0.000, 0.000, 12:23:08.729
189, 56609.28, 0.00, 0.00, 0.00, 0.00, 0.00, 0.00, 0.00, 0.000, 0.000, 0.000, 12:23:08.729
190, 56586.66, 0.00, 0.00, 0.00, 0.00, 0.00, 0.00, 0.00, 0.000, 0.000, 0.000, 12:23:08.729
191, 56594.84, 0.00, 0.00, 0.00, 0.00, 0.00, 0.00, 0.00, 0.000, 0.000, 0.000, 12:23:08.729
192, 56634.91, 0.00, 0.00, 0.00, 0.00, 0.00, 0.00, 0.00, 0.000, 0.000, 0.000, 12:23:08.729
193, 56613.59, 0.00, 0.00, 0.00, 0.00, 0.00, 0.00, 0.00, 0.000, 0.000, 0.000, 12:23:08.729
194, 56613.01, 0.00, 0.00, 0.00, 0.00, 0.00, 0.00, 0.00, 0.000, 0.000, 0.000, 12:23:08.729
195, 56629.57, 0.00, 0.00, 0.00, 0.00, 0.00, 0.00, 0.00, 0.180, 0.038, 1.002, 12:23:08.729
196, 56632.39, 0.00, 0.00, 0.00, 0.00, 0.00, 0.00, 0.00, 0.000, 0.000, 0.000, 12:23:08.729
197, 56620.01, 0.00, 0.00, 0.00, 0.00, 0.00, 0.00, 0.00, 0.000, 0.000, 0.000, 12:23:08.729
198, 56616.16, 0.00, 0.00, 0.00, 0.00, 0.00, 0.00, 0.00, 0.000, 0.000, 0.000, 12:23:08.729
199, 56614.02, 0.00, 0.00, 0.00, 0.00, 0.00, 0.00, 0.00, 0.000, 0.000, 0.000, 12:23:08.729
200, 56615.43, 0.00, 0.00, 0.00, 0.00, 0.00, 0.00, 0.00, 0.000, 0.000, 0.000, 12:23:08.730
201, 56601.86, 0.00, 0.00, 0.00, 0.00, 0.00, 0.00, 0.00, 0.000, 0.000, 0.000, 12:23:08.730
202, 56606.08, 0.00, 0.00, 0.00, 0.00, 0.00, 0.00, 0.00, 0.000, 0.000, 0.000, 12:23:08.730
203, 56619.38, 0.00, 0.00, 0.00, 0.00, 0.00, 0.00, 0.00, 0.000, 0.000, 0.000, 12:23:08.730
204, 56616.34, 0.00, 0.00, 0.00, 0.00, 0.00, 0.00, 0.00, 0.000, 0.000, 0.000, 12:23:08.730
205, 56597.30, 0.00, 0.00, 0.00, 0.00, 0.00, 0.00, 0.00, 0.176, 0.038, 1.004, 12:23:08.730
206, 56605.41, 0.00, 0.00, 0.00, 0.00, 0.00, 0.00, 0.00, 0.000, 0.000, 0.000, 12:23:08.730
207, 56614.53, 0.00, 0.00, 0.00, 0.00, 0.00, 0.00, 0.00, 0.000, 0.000, 0.000, 12:23:08.730
208, 56612.16, 0.00, 0.00, 0.00, 0.00, 0.00, 0.00, 0.00, 0.000, 0.000, 0.000, 12:23:08.730
209, 56615.76, 0.00, 0.00, 0.00, 0.00, 0.00, 0.00, 0.00, 0.000, 0.000, 0.000, 12:23:08.730
210, 56619.61, 0.00, 0.00, 0.00, 0.00, 0.00, 0.00, 0.00, 0.000, 0.000, 0.000, 12:23:08.730
211, 56617.10, 0.00, 0.00, 0.00, 0.00, 0.00, 0.00, 0.00, 0.000, 0.000, 0.000, 12:23:08.730
212, 56619.25, 0.00, 0.00, 0.00, 0.00, 0.00, 0.00, 0.00, 0.000, 0.000, 0.000, 12:23:08.730
213, 56605.14, 0.00, 0.00, 0.00, 0.00, 0.00, 0.00, 0.00, 0.000, 0.000, 0.000, 12:23:08.730
214, 56601.07, 0.00, 0.00, 0.00, 0.00, 0.00, 0.00, 0.00, 0.176, 0.038, 0.998, 12:23:08.730
215, 56600.23, 0.00, 0.00, 0.00, 0.00, 0.00, 0.00, 0.00, 0.000, 0.000, 0.000, 12:23:08.731
216, 56602.35, 0.00, 0.00, 0.00, 0.00, 0.00, 0.00, 0.00, 0.000, 0.000, 0.000, 12:23:08.731
217, 56631.79, 0.00, 0.00, 0.00, 0.00, 0.00, 0.00, 0.00, 0.000, 0.000, 0.000, 12:23:08.731
218, 56620.61, 0.00, 0.00, 0.00, 0.00, 0.00, 0.00, 0.00, 0.000, 0.000, 0.000, 12:23:08.731
219, 56604.29, 0.00, 0.00, 0.00, 0.00, 0.00, 0.00, 0.00, 0.000, 0.000, 0.000, 12:23:08.731
220, 56604.92, 0.00, 0.00, 0.00, 0.00, 0.00, 0.00, 0.00, 0.000, 0.000, 0.000, 12:23:08.731
221, 56618.38, 0.00, 0.00, 0.00, 0.00, 0.00, 0.00, 0.00, 0.000, 0.000, 0.000, 12:23:08.731
222, 56623.49, 0.00, 0.00, 0.00, 0.00, 0.00, 0.00, 0.00, 0.000, 0.000, 0.000, 12:23:08.731
223, 56607.94, 0.00, 0.00, 0.00, 0.00, 0.00, 0.00, 0.00, 0.000, 0.000, 0.000, 12:23:08.731
224, 56607.36, 0.00, 0.00, 0.00, 0.00, 0.00, 0.00, 0.00, 0.178, 0.042, 0.998, 12:23:08.731
225, 56620.63, 0.00, 0.00, 0.00, 0.00, 0.00, 0.00, 0.00, 0.000, 0.000, 0.000, 12:23:08.731
226, 56618.13, 0.00, 0.00, 0.00, 0.00, 0.00, 0.00, 0.00, 0.000, 0.000, 0.000, 12:23:08.731
227, 56604.61, 0.00, 0.00, 0.00, 0.00, 0.00, 0.00, 0.00, 0.000, 0.000, 0.000, 12:23:08.731
228, 56600.94, 0.00, 0.00, 0.00, 0.00, 0.00, 0.00, 0.00, 0.000, 0.000, 0.000, 12:23:08.731
229, 56615.18, 0.00, 0.00, 0.00, 0.00, 0.00, 0.00, 0.00, 0.000, 0.000, 0.000, 12:23:08.731
230, 56598.53, 0.00, 0.00, 0.00, 0.00, 0.00, 0.00, 0.00, 0.000, 0.000, 0.000, 12:23:08.731
231, 56596.94, 0.00, 0.00, 0.00, 0.00, 0.00, 0.00, 0.00, 0.000, 0.000, 0.000, 12:23:08.731
232, 56625.15, 0.00, 0.00, 0.00, 0.00, 0.00, 0.00, 0.00, 0.000, 0.000, 0.000, 12:23:08.731
233, 56637.55, 0.00, 0.00, 0.00, 0.00, 0.00, 0.00, 0.00, 0.000, 0.000, 0.000, 12:23:08.731
234, 56627.79, 0.00, 0.00, 0.00, 0.00, 0.00, 0.00, 0.00, 0.184, 0.044, 1.002, 12:23:08.731
235, 56603.54, 0.00, 0.00, 0.00, 0.00, 0.00, 0.00, 0.00, 0.000, 0.000, 0.000, 12:23:08.732
236, 56594.91, 0.00, 0.00, 0.00, 0.00, 0.00, 0.00, 0.00, 0.000, 0.000, 0.000, 12:23:08.732
237, 56606.82, 0.00, 0.00, 0.00, 0.00, 0.00, 0.00, 0.00, 0.000, 0.000, 0.000, 12:23:08.732
238, 56619.29, 0.00, 0.00, 0.00, 0.00, 0.00, 0.00, 0.00, 0.000, 0.000, 0.000, 12:23:08.732
239, 56608.76, 0.00, 0.00, 0.00, 0.00, 0.00, 0.00, 0.00, 0.000, 0.000, 0.000, 12:23:08.732
240, 56616.30, 0.00, 0.00, 0.00, 0.00, 0.00, 0.00, 0.00, 0.000, 0.000, 0.000, 12:23:08.732
241, 56613.70, 0.00, 0.00, 0.00, 0.00, 0.00, 0.00, 0.00, 0.000, 0.000, 0.000, 12:23:08.732
242, 56600.07, 0.00, 0.00, 0.00, 0.00, 0.00, 0.00, 0.00, 0.000, 0.000, 0.000, 12:23:08.732
243, 56604.81, 0.00, 0.00, 0.00, 0.00, 0.00, 0.00, 0.00, 0.000, 0.000, 0.000, 12:23:08.732
244, 56613.12, 0.00, 0.00, 0.00, 0.00, 0.00, 0.00, 0.00, 0.182, 0.038, 0.996, 12:23:08.732
245, 56611.49, 0.00, 0.00, 0.00, 0.00, 0.00, 0.00, 0.00, 0.000, 0.000, 0.000, 12:23:08.732
246, 56617.04, 0.00, 0.00, 0.00, 0.00, 0.00, 0.00, 0.00, 0.000, 0.000, 0.000, 12:23:08.732
247, 56609.55, 0.00, 0.00, 0.00, 0.00, 0.00, 0.00, 0.00, 0.000, 0.000, 0.000, 12:23:08.732
248, 56606.24, 0.00, 0.00, 0.00, 0.00, 0.00, 0.00, 0.00, 0.000, 0.000, 0.000, 12:23:08.732
249, 56601.34, 0.00, 0.00, 0.00, 0.00, 0.00, 0.00, 0.00, 0.000, 0.000, 0.000, 12:23:08.732
250, 56607.60, 0.00, 0.00, 0.00, 0.00, 0.00, 0.00, 0.00, 0.000, 0.000, 0.000, 12:23:08.732
251, 56603.76, 0.00, 0.00, 0.00, 0.00, 0.00, 0.00, 0.00, 0.000, 0.000, 0.000, 12:23:08.732
252, 56605.25, 0.00, 0.00, 0.00, 0.00, 0.00, 0.00, 0.00, 0.000, 0.000, 0.000, 12:23:08.732
253, 56614.64, 0.00, 0.00, 0.00, 0.00, 0.00, 0.00, 0.00, 0.000, 0.000, 0.000, 12:23:08.732
254, 56616.39, 0.00, 0.00, 0.00, 0.00, 0.00, 0.00, 0.00, 0.186, 0.044, 0.996, 12:23:08.732
255, 56596.63, 0.00, 0.00, 0.00, 0.00, 0.00, 0.00, 0.00, 0.000, 0.000, 0.000, 12:23:08.732
0, 56589.65, 0.00, 0.00, 0.00, 0.00, 0.00, 0.00, 0.00, 0.000, 0.000, 0.000, 12:23:08.732
1, 56606.48, 0.00, 0.00, 0.00, 0.00, 0.00, 0.00, 0.00, 0.000, 0.000, 0.000, 12:23:08.732
2, 56630.09, 0.00, 0.00, 0.00, 0.00, 0.00, 0.00, 0.00, 0.000, 0.000, 0.000, 12:23:08.733
3, 56637.29, 0.00, 0.00, 0.00, 0.00, 0.00, 0.00, 0.00, 0.000, 0.000, 0.000, 12:23:08.733
4, 56608.83, 0.00, 0.00, 0.00, 0.00, 0.00, 0.00, 0.00, 0.000, 0.000, 0.000, 12:23:08.733
5, 56603.98, 0.00, 0.00, 0.00, 0.00, 0.00, 0.00, 0.00, 0.000, 0.000, 0.000, 12:23:08.733
6, 56622.40, 0.00, 0.00, 0.00, 0.00, 0.00, 0.00, 0.00, 0.000, 0.000, 0.000, 12:23:08.733
7, 56621.73, 0.00, 0.00, 0.00, 0.00, 0.00, 0.00, 0.00, 0.000, 0.000, 0.000, 12:23:08.733
8, 56613.48, 0.00, 0.00, 0.00, 0.00, 0.00, 0.00, 0.00, 0.180, 0.046, 1.000, 12:23:08.733
9, 56614.46, 0.00, 0.00, 0.00, 0.00, 0.00, 0.00, 0.00, 0.000, 0.000, 0.000, 12:23:08.733
10, 56612.54, 0.00, 0.00, 0.00, 0.00, 0.00, 0.00, 0.00, 0.000, 0.000, 0.000, 12:23:08.733
11, 56623.61, 0.00, 0.00, 0.00, 0.00, 0.00, 0.00, 0.00, 0.000, 0.000, 0.000, 12:23:08.733
12, 56617.95, 0.00, 0.00, 0.00, 0.00, 0.00, 0.00, 0.00, 0.000, 0.000, 0.000, 12:23:08.733
13, 56596.36, 0.00, 0.00, 0.00, 0.00, 0.00, 0.00, 0.00, 0.000, 0.000, 0.000, 12:23:08.733
14, 56585.16, 0.00, 0.00, 0.00, 0.00, 0.00, 0.00, 0.00, 0.000, 0.000, 0.000, 12:23:08.733
15, 56618.84, 0.00, 0.00, 0.00, 0.00, 0.00, 0.00, 0.00, 0.000, 0.000, 0.000, 12:23:08.733
16, 56606.26, 0.00, 0.00, 0.00, 0.00, 0.00, 0.00, 0.00, 0.000, 0.000, 0.000, 12:23:08.733
17, 56603.40, 0.00, 0.00, 0.00, 0.00, 0.00, 0.00, 0.00, 0.000, 0.000, 0.000, 12:23:08.733
18, 56607.96, 0.00, 0.00, 0.00, 0.00, 0.00, 0.00, 0.00, 0.186, 0.046, 0.998, 12:23:08.733
19, 56608.56, 0.00, 0.00, 0.00, 0.00, 0.00, 0.00, 0.00, 0.000, 0.000, 0.000, 12:23:08.733
20, 56588.76, 0.00, 0.00, 0.00, 0.00, 0.00, 0.00, 0.00, 0.000, 0.000, 0.000, 12:23:08.733
21, 56595.75, 0.00, 0.00, 0.00, 0.00, 0.00, 0.00, 0.00, 0.000, 0.000, 0.000, 12:23:08.733
22, 56614.62, 0.00, 0.00, 0.00, 0.00, 0.00, 0.00, 0.00, 0.000, 0.000, 0.000, 12:23:08.733
23, 56621.10, 0.00, 0.00, 0.00, 0.00, 0.00, 0.00, 0.00, 0.000, 0.000, 0.000, 12:23:08.734
24, 56603.46, 0.00, 0.00, 0.00, 0.00, 0.00, 0.00, 0.00, 0.000, 0.000, 0.000, 12:23:08.734
25, 56580.67, 0.00, 0.00, 0.00, 0.00, 0.00, 0.00, 0.00, 0.000, 0.000, 0.000, 12:23:08.734
26, 56613.57, 0.00, 0.00, 0.00, 0.00, 0.00, 0.00, 0.00, 0.000, 0.000, 0.000, 12:23:08.734
27, 56626.71, 0.00, 0.00, 0.00, 0.00, 0.00, 0.00, 0.00, 0.188, 0.054, 0.996, 12:23:08.734
28, 56617.46, 0.00, 0.00, 0.00, 0.00, 0.00, 0.00, 0.00, 0.000, 0.000, 0.000, 12:23:08.734
29, 56595.75, 0.00, 0.00, 0.00, 0.00, 0.00, 0.00, 0.00, 0.000, 0.000, 0.000, 12:23:08.734
30, 56581.36, 0.00, 0.00, 0.00, 0.00, 0.00, 0.00, 0.00, 0.000, 0.000, 0.000, 12:23:08.734
31, 56592.16, 0.00, 0.00, 0.00, 0.00, 0.00, 0.00, 0.00, 0.000, 0.000, 0.000, 12:23:08.734
32, 56624.21, 0.00, 0.00, 0.00, 0.00, 0.00, 0.00, 0.00, 0.000, 0.000, 0.000, 12:23:08.734
33, 56623.18, 0.00, 0.00, 0.00, 0.00, 0.00, 0.00, 0.00, 0.000, 0.000, 0.000, 12:23:08.734
34, 56609.16, 0.00, 0.00, 0.00, 0.00, 0.00, 0.00, 0.00, 0.000, 0.000, 0.000, 12:23:08.734
35, 56614.38, 0.00, 0.00, 0.00, 0.00, 0.00, 0.00, 0.00, 0.000, 0.000, 0.000, 12:23:08.734
36, 56631.09, 0.00, 0.00, 0.00, 0.00, 0.00, 0.00, 0.00, 0.000, 0.000, 0.000, 12:23:08.734
37, 56616.74, 0.00, 0.00, 0.00, 0.00, 0.00, 0.00, 0.00, 0.184, 0.050, 0.998, 12:23:08.734
38, 56602.97, 0.00, 0.00, 0.00, 0.00, 0.00, 0.00, 0.00, 0.000, 0.000, 0.000, 12:23:08.734
39, 56627.45, 0.00, 0.00, 0.00, 0.00, 0.00, 0.00, 0.00, 0.000, 0.000, 0.000, 12:23:08.734
40, 56619.29, 0.00, 0.00, 0.00, 0.00, 0.00, 0.00, 0.00, 0.000, 0.000, 0.000, 12:23:08.734
41, 56606.91, 0.00, 0.00, 0.00, 0.00, 0.00, 0.00, 0.00, 0.000, 0.000, 0.000, 12:23:08.734
42, 56597.79, 0.00, 0.00, 0.00, 0.00, 0.00, 0.00, 0.00, 0.000, 0.000, 0.000, 12:23:08.734
