# Mains_Frequency_(Hz) =,60,,,,,,,,,,,,,,,,,,,,,,,,,,,
# Sample_Frequency_(Hz) =,300,,,,,,,,,,,,,,,,,,,,,,,,,,,
# Filter_Delay_(ms) =,43.3,,,,,,,,,,,,,,,,,,,,,,,,,,,
# Sensor_Data_Units =,uV,,,,,,,,,,,,,,,,,,,,,,,,,,,
# Headset_Name =,DSI-24 SN:1580,,,,,,,,,,,,,,,,,,,,,,,,,,,
# Data_Logger =,DSI-Streamer-v.1.08.31,,,,,,,,,,,,,,,,,,,,,,,,,,,
# Date =,4/20/2018,,,,,,,,,,,,,,,,,,,,,,,,,,,
# Time =,11:40:13,,,,,,,,,,,,,,,,,,,,,,,,,,,
# Patient_ID =,X F 01-MAY-1999 X,,,,,,,,,,,,,,,,,,,,,,,,,,,
# Record_ID =,Startdate 20-APR-2018 EEG_XX X X,,,,,,,,,,,,,,,,,,,,,,,,,,,
# Filter =,Non-Filtered,,,,,,,,,,,,,,,,,,,,,,,,,,,
# Comments =,,,,,,,,,,,,,,,,,,,,,,,,,,,,
# Reference location:,Pz,,,,,,,,,,,,,,,,,,,,,,,,,,,
# Trigger Source,Wireless,,,,,,,,,,,,,,,,,,,,,,,,,,,
# Channel_Number =,ch_1,ch_2,ch_3,ch_4,ch_5,ch_6,ch_7,ch_8,ch_9,ch_10,ch_11,ch_12,ch_13,ch_14,ch_15,ch_16,ch_17,ch_18,ch_19,ch_20,ch_21,ch_22,ch_23,ch_24,Trigger,Time_Offset,ADC_Status,ADC_Sequence,Event,Comments
Time,P3,C3,F3,Fz,F4,C4,P4,Cz,CM,A1,Fp1,Fp2,T3,T5,O1,O2,X3,X2,F7,F8,X1,A2,T6,T4,Trigger,Time_Offset,ADC_Status,ADC_Sequence,Event,Comments
0.0033,-15.3,15.9,90.9,-67.5,52.2,-101.1,104.1,-97.8,-3186.3,233.4,-51.6,-14.7,186.9,-168.9,19.8,-177.0,-6.3,-4.8,142.2,-155.1,-1.8,128.4,-858.6,54.9,0,6,0,16,0,Start Data Acquisition
0.0067,-15.6,16.2,87.6,-68.1,53.4,-100.2,102.9,-95.1,-3112.2,229.8,-48.6,-9.6,186.3,-175.5,3.0,-187.2,-6.0,-4.2,145.8,-156.0,-1.5,120.3,-855.3,55.5,0,12,0,17,0,
0.0100,-17.7,15.9,87.0,-69.9,44.4,-104.7,98.1,-93.0,-3112.2,229.5,-55.2,-14.4,191.4,-162.9,20.7,-183.3,-6.3,-4.5,142.8,-165.3,-2.1,112.5,-855.6,46.8,0,18,0,18,0,
0.0133,-18.9,10.5,79.2,-75.3,38.7,-107.4,95.4,-98.7,-3112.2,222.0,-60.0,-16.5,189.9,-163.2,27.0,-188.7,-6.0,-4.5,136.8,-165.3,-1.8,110.4,-866.1,47.7,0,24,0,19,0,
0.0167,-17.7,14.7,85.8,-69.9,44.7,-102.6,100.2,-93.9,-3186.3,226.2,-54.0,-10.8,192.9,-165.3,14.7,-186.9,-6.3,-4.5,143.7,-159.9,-1.8,116.4,-864.6,42.3,0,30,0,20,0,
0.0200,-17.1,15.0,85.5,-66.6,51.0,-99.0,100.5,-94.2,-3112.2,230.4,-59.4,-15.0,189.3,-172.5,4.5,-194.4,-6.0,-4.2,144.6,-157.8,-2.1,122.7,-857.4,48.9,0,36,0,21,0,
0.0233,-10.8,19.2,91.2,-64.8,58.2,-93.0,104.4,-91.5,-3186.3,241.5,-52.5,-14.1,195.0,-164.7,10.2,-190.8,-5.7,-4.5,148.2,-153.9,-1.8,123.0,-858.0,57.9,0,42,0,22,0,
0.0267,-18.3,15.6,89.7,-62.4,59.1,-95.1,105.3,-92.7,-3112.2,235.8,-46.8,-12.6,189.6,-170.1,13.8,-189.9,-6.0,-4.2,150.0,-153.0,-1.8,122.1,-859.8,58.2,0,48,0,23,0,
0.0300,-18.0,15.9,90.9,-63.9,60.0,-91.5,101.1,-91.8,-3186.3,229.8,-52.5,-7.8,191.4,-173.4,7.8,-194.1,-6.0,-4.5,148.5,-154.2,-1.8,120.9,-861.6,60.3,0,54,0,24,0,
0.0333,-14.1,18.3,89.4,-63.0,57.9,-94.2,108.0,-87.3,-3038.1,226.5,-49.5,-15.6,186.9,-168.0,12.6,-192.9,-6.0,-4.5,150.9,-159.3,-1.5,121.2,-862.2,48.6,0,60,0,25,0,
0.0367,-13.8,19.2,89.4,-59.7,59.4,-92.7,108.3,-88.5,-3038.1,226.5,-46.2,-9.6,190.2,-167.7,24.0,-171.9,-6.3,-4.8,148.2,-157.8,-1.8,120.0,-856.8,47.7,0,66,0,26,0,
0.0400,-8.4,23.7,96.6,-57.3,65.1,-93.6,107.7,-85.8,-3186.3,235.2,-37.5,-2.4,191.1,-159.0,24.9,-180.9,-6.0,-4.5,156.9,-152.1,-1.5,128.4,-863.7,45.6,0,72,0,27,0,
0.0433,-13.2,20.7,99.6,-57.3,64.2,-91.5,105.6,-88.8,-3186.3,235.8,-39.6,-1.2,192.9,-168.3,20.4,-190.8,-6.3,-4.2,155.4,-148.2,-1.8,117.9,-867.6,59.7,0,78,0,28,0,
0.0467,-15.3,21.3,93.6,-60.3,59.7,-97.2,106.2,-91.2,-3186.3,237.9,-44.4,-3.3,189.6,-162.6,21.6,-184.5,-6.0,-4.2,153.9,-151.5,-1.5,127.5,-864.3,58.2,0,84,0,29,0,
0.0500,-15.0,19.5,94.8,-61.2,62.4,-95.4,102.6,-92.7,-3038.1,238.2,-40.5,-2.7,201.6,-163.2,25.2,-182.7,-6.3,-4.8,157.5,-148.5,-1.8,126.9,-867.6,59.4,0,90,0,30,0,
0.0533,-17.7,16.5,91.2,-61.2,58.5,-98.7,104.1,-94.2,-3186.3,233.1,-43.2,-0.6,187.2,-171.3,15.3,-190.8,-6.0,-4.5,156.0,-148.8,-1.8,127.2,-868.8,58.5,0,96,0,31,0,
0.0567,-18.6,16.5,88.8,-64.2,52.8,-99.3,103.5,-96.3,-3186.3,230.1,-45.0,0.9,183.3,-172.5,22.5,-184.2,-6.3,-4.5,154.2,-150.6,-1.5,124.5,-869.4,55.2,0,102,0,32,0,
0.0600,-18.3,16.5,88.2,-66.9,50.4,-101.1,100.5,-97.5,-3112.2,234.3,-47.1,-8.4,179.7,-165.6,16.8,-189.9,-5.7,-4.5,152.4,-151.8,-1.8,131.7,-865.2,48.6,0,108,0,33,0,
0.0633,-19.2,12.9,88.8,-63.6,51.9,-95.4,100.5,-95.4,-3186.3,235.2,-51.9,-10.5,181.8,-172.8,14.1,-189.0,-6.3,-4.2,144.9,-152.7,-2.1,120.9,-862.8,52.2,0,114,0,34,0,
0.0667,-17.4,14.1,86.4,-69.0,49.8,-93.6,103.2,-96.3,-3112.2,229.8,-54.9,-12.9,187.2,-170.4,18.9,-172.5,-6.3,-4.5,138.0,-157.8,-2.1,113.4,-858.3,49.8,0,120,0,35,0,
0.0700,-14.7,17.7,88.5,-61.5,58.8,-88.8,106.5,-89.7,-3112.2,231.0,-49.8,-3.6,187.8,-174.3,-0.6,-189.9,-6.0,-4.8,148.5,-150.9,-1.8,123.9,-856.8,58.8,0,126,0,36,0,
0.0733,-15.6,17.4,87.3,-63.0,54.6,-94.8,101.4,-91.2,-2964.0,236.7,-47.4,-5.7,182.1,-173.4,2.1,-196.2,-6.3,-4.5,148.2,-149.1,-2.1,126.6,-868.5,57.6,0,132,0,37,0,
0.0767,-17.1,16.5,91.2,-62.4,58.8,-90.6,104.7,-91.2,-3186.3,232.2,-44.1,-0.9,184.5,-177.0,1.2,-187.5,-6.0,-4.2,155.1,-144.9,-1.5,124.8,-860.1,56.1,0,138,0,38,0,
0.0800,-16.8,19.8,86.1,-64.8,56.4,-93.0,106.2,-92.7,-2964.0,229.2,-46.5,-3.0,189.0,-169.8,8.4,-184.2,-6.3,-4.8,148.5,-149.1,-1.5,124.2,-859.8,56.4,0,144,0,39,0,
0.0833,-18.3,19.2,86.1,-65.1,56.7,-93.0,105.9,-94.2,-3186.3,230.1,-46.5,3.9,190.8,-172.5,13.8,-192.6,-6.3,-4.2,152.7,-149.1,-1.5,125.1,-861.3,54.6,0,150,0,40,0,
0.0867,-19.2,20.4,88.5,-69.0,50.7,-95.4,101.7,-94.2,-3112.2,234.9,-46.8,-1.5,191.4,-171.3,12.9,-191.4,-6.0,-4.5,154.2,-151.2,-1.8,124.5,-858.9,51.9,0,156,0,41,0,
0.0900,-16.5,17.7,86.7,-69.6,51.3,-94.5,100.8,-95.7,-3260.4,237.0,-49.8,-5.1,178.2,-170.7,12.9,-182.4,-6.0,-4.5,152.1,-153.9,-1.8,116.7,-859.8,49.5,0,162,0,42,0,
0.0933,-14.1,15.3,82.5,-68.7,51.3,-97.2,97.8,-94.5,-3112.2,231.6,-49.2,-7.8,182.4,-163.5,27.3,-177.9,-6.3,-4.5,147.9,-155.4,-2.1,115.8,-860.7,44.1,0,168,0,43,0,
0.0967,-11.4,17.7,87.6,-66.0,56.1,-92.7,100.8,-91.8,-3112.2,233.4,-41.4,0.6,185.4,-168.6,9.9,-187.2,-6.0,-4.5,156.9,-149.1,-1.5,120.9,-865.2,51.6,0,174,0,44,0,
0.1000,-9.6,19.8,89.1,-65.7,55.5,-98.1,101.4,-91.8,-3186.3,239.1,-37.8,-3.6,186.9,-162.9,15.0,-191.4,-6.6,-4.5,156.3,-151.2,-1.8,124.8,-868.2,51.0,0,180,0,45,0,
0.1033,-12.3,18.0,91.2,-66.3,53.7,-96.0,103.2,-92.4,-3186.3,236.7,-40.8,-1.8,183.9,-168.6,12.9,-195.0,-5.7,-4.5,157.5,-156.3,-1.5,125.4,-866.4,50.1,0,186,0,46,0,
0.1067,-18.6,14.1,84.0,-67.8,51.9,-101.7,101.7,-95.7,-3186.3,234.6,-52.2,-5.1,175.2,-171.0,13.5,-182.7,-5.7,-4.8,149.4,-158.1,-1.8,118.8,-865.8,42.9,0,192,0,47,0,
0.1100,-19.5,12.9,79.8,-72.0,47.7,-102.6,100.2,-97.8,-3186.3,227.7,-56.1,-9.0,170.1,-171.6,14.4,-184.2,-6.3,-4.2,143.4,-162.9,-1.8,111.0,-870.0,44.4,0,198,0,48,0,
0.1133,-15.9,17.7,80.4,-71.1,47.1,-102.9,93.6,-95.7,-3112.2,234.6,-51.3,-12.0,175.2,-164.7,14.7,-179.1,-6.3,-4.5,149.4,-159.3,-1.8,117.3,-864.0,40.8,0,204,0,49,0,
0.1167,-12.9,23.7,93.6,-56.4,56.7,-95.4,99.6,-85.5,-3112.2,245.1,-39.3,0.6,182.4,-162.9,6.9,-203.1,-6.0,-4.2,159.3,-145.5,-1.5,124.5,-868.2,47.4,0,210,0,50,0,
0.1200,-14.1,21.0,91.8,-59.1,56.1,-98.4,100.5,-84.9,-3186.3,238.8,-41.1,2.4,184.8,-165.3,10.8,-190.5,-5.7,-4.5,159.9,-148.8,-1.8,119.4,-874.8,41.4,0,216,0,51,0,
0.1233,-13.5,18.0,91.8,-60.0,55.8,-91.8,102.0,-85.5,-3112.2,234.0,-42.3,1.8,179.7,-159.3,24.9,-182.7,-6.3,-4.8,155.7,-149.4,-1.5,119.7,-868.2,45.3,0,222,0,52,0,
0.1267,-15.6,17.4,89.1,-60.3,55.8,-92.4,104.7,-84.3,-3186.3,234.9,-46.5,6.0,177.0,-161.7,27.9,-182.7,-6.0,-4.5,151.2,-147.0,-1.5,123.9,-867.6,51.0,0,228,0,53,0,
0.1300,-13.2,22.2,96.3,-51.9,60.0,-86.4,107.4,-82.2,-3112.2,238.5,-30.6,9.6,181.8,-170.4,10.5,-183.3,-6.3,-4.2,161.4,-145.2,-1.8,129.6,-855.3,48.6,0,234,0,54,0,
0.1333,-12.6,19.8,96.0,-56.4,62.4,-85.2,103.2,-83.7,-3038.1,244.5,-30.6,11.4,184.5,-168.9,9.0,-203.7,-6.0,-4.2,164.7,-138.0,-1.8,132.6,-860.7,50.7,0,240,0,55,0,
0.1367,-14.7,18.6,96.0,-54.9,60.9,-84.0,105.9,-82.8,-3038.1,243.3,-34.2,9.0,186.3,-171.0,10.2,-197.7,-6.3,-4.5,157.2,-144.0,-1.5,135.0,-859.2,50.7,0,246,0,56,0,
0.1400,-19.2,17.7,92.4,-57.9,62.7,-82.8,108.9,-82.8,-3186.3,241.8,-33.6,5.4,185.1,-177.0,0.9,-187.5,-5.7,-4.5,161.7,-139.5,-1.8,126.9,-849.0,55.5,0,252,0,57,0,
0.1433,-15.0,24.9,99.6,-51.0,66.6,-81.9,106.8,-81.0,-3260.4,248.7,-26.1,7.2,190.8,-169.5,3.3,-203.1,-6.3,-4.5,167.4,-138.9,-1.8,130.8,-861.9,49.5,0,258,0,58,0,
0.1467,-14.1,26.4,98.4,-58.8,60.3,-86.7,105.0,-78.3,-3112.2,250.5,-32.1,3.3,191.7,-170.1,7.2,-200.1,-6.0,-4.2,165.6,-142.2,-2.1,126.6,-867.3,45.6,0,264,0,59,0,
0.1500,-15.9,21.0,93.9,-61.5,51.6,-96.0,100.5,-86.7,-3038.1,237.3,-35.4,0.3,182.7,-174.3,9.6,-195.9,-6.3,-4.5,161.7,-152.4,-1.5,117.6,-870.0,45.3,0,270,0,60,0,
0.1533,-15.6,21.9,93.6,-59.7,52.2,-94.5,104.4,-85.8,-3112.2,243.6,-37.5,3.3,182.1,-176.4,8.1,-185.4,-6.3,-4.2,162.0,-150.6,-1.8,119.7,-864.9,46.8,0,276,0,61,0,
0.1567,-16.8,19.8,89.4,-57.6,55.8,-92.1,105.6,-82.2,-3112.2,242.4,-40.8,2.4,179.4,-181.5,3.6,-200.7,-6.3,-4.5,159.6,-149.4,-1.8,126.3,-861.0,50.7,0,282,0,62,0,
0.1600,-20.7,13.2,82.8,-65.7,45.6,-100.5,102.0,-90.0,-3260.4,239.7,-42.6,-2.1,172.8,-182.4,4.2,-198.3,-6.0,-4.5,157.5,-155.7,-1.8,120.0,-865.5,44.7,0,288,0,63,0,
0.1633,-24.0,14.1,78.6,-69.9,45.0,-103.2,101.7,-91.8,-3112.2,230.7,-46.2,-1.8,171.9,-187.5,0.9,-199.8,-6.0,-4.8,153.6,-159.0,-1.8,119.1,-869.1,43.2,0,294,0,64,0,
0.1667,-22.5,11.1,80.4,-74.7,39.9,-104.4,103.5,-94.5,-3112.2,226.8,-48.3,-8.1,173.4,-181.5,13.2,-184.8,-6.0,-4.2,153.0,-164.4,-1.8,117.3,-865.2,39.9,0,300,0,65,0,
0.1700,-21.0,11.7,82.2,-70.2,44.4,-102.3,100.2,-89.7,-3112.2,227.7,-44.7,-6.0,171.9,-180.3,13.2,-188.7,-6.0,-5.1,154.5,-161.7,-1.8,118.8,-862.8,43.2,0,306,0,66,0,
0.1733,-24.9,13.2,80.7,-71.7,40.8,-103.5,97.2,-93.0,-3186.3,225.6,-48.6,-9.3,167.4,-191.7,1.2,-210.3,-6.0,-4.8,154.8,-164.1,-1.5,123.6,-868.8,43.5,0,312,0,67,0,
0.1767,-22.5,12.9,79.2,-70.2,42.0,-105.3,97.2,-93.3,-3112.2,230.7,-54.0,-13.8,171.3,-184.8,8.7,-208.8,-6.0,-4.8,149.1,-165.6,-1.8,116.4,-870.0,39.6,0,318,0,68,0,
0.1800,-28.8,5.7,75.6,-75.0,35.7,-106.8,95.4,-99.3,-3186.3,221.7,-63.6,-20.1,170.7,-188.4,10.2,-195.6,-6.3,-4.2,144.9,-172.2,-1.8,108.9,-865.5,27.3,0,324,0,69,0,
0.1833,-22.5,13.8,87.0,-63.3,48.3,-99.3,98.4,-87.0,-3112.2,232.2,-44.7,-2.1,177.9,-186.9,-2.1,-198.6,-6.3,-4.5,157.5,-154.8,-1.8,119.7,-864.3,37.5,0,330,0,70,0,
0.1867,-23.7,11.1,84.0,-67.8,45.3,-100.8,97.8,-92.4,-3186.3,224.7,-51.6,-10.8,177.9,-186.3,-0.6,-189.0,-6.0,-4.5,147.3,-162.6,-1.5,119.7,-862.5,35.7,0,336,0,71,0,
0.1900,-19.8,15.0,87.9,-63.9,46.8,-101.4,96.9,-89.4,-3112.2,231.9,-45.6,-5.7,174.6,-183.9,-4.8,-200.4,-6.3,-3.9,154.8,-160.5,-2.1,119.1,-859.8,41.4,0,342,0,72,0,
0.1933,-25.2,11.1,82.2,-69.9,42.0,-108.3,91.2,-96.0,-3112.2,226.8,-52.2,-11.4,172.8,-181.2,5.1,-205.8,-6.0,-4.8,153.3,-166.2,-2.1,113.4,-865.5,35.4,0,348,0,73,0,
0.1967,-16.8,17.7,92.7,-63.9,46.8,-102.0,94.2,-88.8,-3112.2,240.3,-48.0,-2.1,175.5,-174.9,5.4,-223.2,-6.3,-4.2,155.1,-156.9,-1.8,121.2,-873.9,35.7,0,354,0,74,0,
0.2000,-21.6,12.9,82.8,-73.2,39.9,-107.7,93.3,-94.5,-3112.2,225.6,-53.1,-11.1,167.7,-178.2,9.0,-212.4,-6.0,-4.5,153.0,-167.1,-1.8,113.1,-876.6,31.5,0,360,0,75,0,
0.2033,-15.3,15.3,87.9,-67.5,46.2,-106.5,98.1,-93.0,-3112.2,234.9,-40.5,-7.8,174.0,-176.1,-1.8,-213.3,-6.3,-4.5,160.8,-159.6,-1.8,108.6,-873.9,28.8,0,366,0,76,0,
0.2067,-15.0,17.7,93.9,-63.3,50.4,-101.1,99.0,-90.3,-3112.2,235.5,-39.0,-5.1,179.1,-184.5,-0.9,-204.0,-6.0,-4.5,162.9,-156.9,-1.8,117.0,-873.0,33.0,0,372,0,77,0,
0.2100,-18.9,11.4,89.4,-65.1,46.5,-100.2,96.3,-95.4,-3186.3,235.8,-42.0,-3.3,171.3,-183.9,-4.2,-208.8,-6.3,-4.5,156.9,-160.2,-1.5,110.4,-876.9,30.6,0,378,0,78,0,
0.2133,-19.5,12.0,89.7,-65.7,46.5,-97.8,98.1,-90.6,-3112.2,233.4,-43.8,-8.1,179.7,-188.4,-9.6,-209.1,-6.0,-4.5,157.5,-162.3,-1.5,115.8,-875.4,32.1,0,384,0,79,0,
0.2167,-18.9,12.3,85.5,-69.0,41.7,-103.2,96.9,-92.1,-3186.3,231.9,-46.8,-8.7,180.9,-180.3,0.6,-202.2,-6.0,-4.5,151.5,-162.9,-1.5,115.5,-869.7,38.1,0,390,0,80,0,
0.2200,-21.6,11.4,81.6,-74.1,41.1,-104.7,97.8,-97.2,-3038.1,222.3,-48.6,-6.6,178.5,-178.5,6.6,-194.7,-6.3,-4.5,152.4,-163.5,-1.8,111.9,-868.5,40.2,0,396,0,81,0,
0.2233,-21.0,13.8,83.1,-70.8,42.0,-97.5,96.9,-91.2,-3186.3,237.3,-42.6,-2.4,173.7,-184.5,-3.9,-208.2,-6.3,-4.5,154.2,-159.3,-1.8,115.2,-873.0,37.2,0,402,0,82,0,
0.2267,-18.3,17.7,88.2,-66.3,43.8,-100.5,102.6,-86.7,-3112.2,236.7,-41.7,0.9,172.5,-179.4,-2.4,-209.7,-6.3,-4.5,159.9,-157.8,-1.5,119.7,-876.0,18.9,0,408,0,83,0,
0.2300,-18.9,21.3,89.4,-66.9,45.3,-99.3,101.4,-88.8,-3186.3,241.5,-37.2,0.9,173.4,-175.8,3.0,-203.4,-6.3,-4.5,161.7,-158.1,-1.8,116.7,-875.1,33.6,0,414,0,84,0,
0.2333,-20.4,11.4,82.2,-73.5,41.1,-104.4,95.7,-94.5,-3186.3,239.1,-45.9,-2.7,171.0,-177.6,6.0,-204.9,-6.0,-4.5,151.5,-161.1,-1.8,117.9,-876.9,35.7,0,420,0,85,0,
0.2367,-18.9,12.0,86.4,-69.6,42.0,-102.9,98.1,-92.7,-3112.2,242.1,-47.7,-0.6,179.4,-175.5,4.8,-199.5,-6.0,-4.2,156.6,-157.8,-2.1,127.2,-872.4,41.4,0,426,0,86,0,
0.2400,-18.3,12.3,88.2,-69.0,43.8,-102.6,100.8,-91.5,-3112.2,239.4,-40.2,0.0,174.6,-172.2,10.8,-200.4,-6.3,-4.2,155.4,-157.8,-2.1,120.3,-871.5,38.7,0,432,0,87,0,
0.2433,-19.8,12.3,87.0,-65.4,46.5,-97.2,105.6,-87.9,-3186.3,238.5,-40.8,1.2,174.6,-176.4,11.7,-198.0,-6.0,-4.5,152.1,-158.7,-2.1,120.6,-864.0,39.9,0,438,0,88,0,
0.2467,-21.9,10.2,82.2,-69.0,41.7,-101.7,99.3,-91.5,-3112.2,231.9,-47.1,0.3,181.2,-177.0,12.6,-185.4,-6.3,-4.2,149.1,-164.1,-1.8,118.5,-870.6,42.3,0,444,0,89,0,
0.2500,-25.5,11.1,83.4,-70.2,38.7,-104.4,97.5,-94.8,-3112.2,232.8,-47.7,-8.1,182.1,-184.2,4.5,-192.3,-6.3,-4.5,152.4,-163.8,-1.5,115.8,-875.1,38.1,0,450,0,90,0,
0.2533,-24.3,7.8,77.4,-69.9,39.0,-104.4,99.3,-97.2,-3112.2,225.0,-52.5,-13.8,165.0,-182.1,16.2,-184.2,-6.3,-4.5,145.5,-166.2,-1.8,111.9,-873.6,38.4,0,456,0,91,0,
0.2567,-26.7,4.2,79.2,-75.3,32.4,-107.7,95.1,-102.6,-3112.2,228.6,-54.0,-12.9,159.0,-185.7,12.0,-192.6,-6.6,-4.5,138.6,-166.8,-1.8,112.5,-874.5,28.2,0,462,0,92,0,
0.2600,-27.9,12.0,81.9,-68.1,43.2,-96.0,99.6,-97.5,-3112.2,236.7,-49.8,-6.6,173.1,-186.6,3.6,-199.5,-6.0,-4.5,147.0,-155.7,-1.8,127.5,-868.8,43.5,0,468,0,93,0,
0.2633,-27.3,11.4,84.9,-69.9,44.7,-98.4,101.4,-94.2,-3186.3,233.1,-51.6,-4.5,181.2,-185.7,2.7,-197.1,-6.3,-4.5,145.5,-156.6,-1.8,126.0,-871.2,35.1,0,474,0,94,0,
0.2667,-23.7,13.8,87.3,-68.4,42.9,-100.8,97.8,-95.7,-3112.2,239.7,-57.6,-8.1,179.4,-177.6,2.4,-202.2,-6.3,-4.8,145.8,-161.4,-1.2,120.3,-875.1,32.1,0,480,0,95,0,
0.2700,-26.4,12.0,83.7,-72.3,33.3,-107.7,93.9,-98.4,-3038.1,227.4,-60.3,-14.1,178.8,-181.8,5.1,-201.0,-6.0,-4.5,137.7,-166.5,-1.8,120.0,-870.9,40.8,0,486,0,96,0,
0.2733,-25.2,12.9,85.2,-67.5,39.3,-102.6,95.7,-96.3,-3186.3,233.1,-51.9,-6.3,174.0,-185.4,-3.0,-208.8,-6.3,-4.5,144.3,-165.0,-2.1,114.3,-876.9,36.3,0,492,0,97,0,
0.2767,-24.6,7.8,80.1,-73.8,36.0,-107.4,95.7,-97.8,-3260.4,225.9,-58.5,-12.9,169.8,-188.1,-2.1,-200.7,-6.3,-4.5,134.1,-170.4,-2.1,104.7,-876.6,27.9,0,498,0,98,0,
0.2800,-21.6,10.5,77.7,-74.4,37.2,-104.7,97.2,-97.8,-3112.2,225.3,-66.0,-19.2,176.4,-185.7,-6.6,-206.4,-6.0,-4.5,137.7,-171.6,-1.5,110.4,-879.3,29.7,0,504,0,99,0,
0.2833,-21.9,12.9,74.4,-76.5,34.8,-108.6,94.2,-101.4,-3260.4,221.4,-70.2,-24.3,164.4,-185.1,1.2,-200.4,-6.0,-4.5,134.4,-173.4,-1.8,96.3,-877.2,25.5,0,510,0,100,0,
0.2867,-21.3,6.9,69.3,-84.9,30.9,-112.2,96.6,-106.2,-3260.4,209.1,-70.5,-33.0,161.4,-179.4,7.8,-193.8,-6.0,-4.2,127.2,-177.6,-2.1,96.6,-877.2,24.0,0,516,0,101,0,
0.2900,-22.8,8.1,67.2,-90.6,24.0,-116.7,95.4,-105.9,-3186.3,211.2,-73.5,-33.9,167.1,-184.8,11.1,-194.7,-6.3,-4.5,127.8,-182.7,-1.8,99.3,-879.3,19.8,0,522,0,102,0,
0.2933,-23.1,10.5,68.4,-85.5,30.3,-112.5,95.4,-102.3,-3186.3,225.0,-68.7,-27.0,171.0,-185.4,-5.7,-197.1,-6.0,-4.5,132.6,-178.8,-1.8,99.3,-871.8,21.0,0,528,0,103,0,
0.2967,-24.6,8.1,68.7,-91.2,25.5,-118.2,95.1,-104.7,-3260.4,208.8,-71.4,-28.8,166.5,-188.1,-5.1,-193.8,-6.0,-4.5,131.7,-180.9,-2.1,92.1,-875.7,18.0,0,534,0,104,0,
0.3000,-21.3,12.0,71.7,-90.9,25.5,-117.9,91.2,-104.7,-3112.2,228.3,-64.2,-23.4,171.9,-179.7,-2.4,-200.4,-6.3,-4.2,135.9,-180.0,-2.1,92.1,-889.8,20.7,0,540,0,105,0,
0.3033,-18.0,12.6,72.9,-87.9,24.9,-117.3,93.9,-103.5,-3186.3,219.9,-62.1,-19.2,176.7,-169.5,18.0,-199.2,-6.0,-4.8,137.1,-178.5,-1.8,93.9,-885.6,22.8,0,546,0,106,0,
0.3067,-21.3,12.3,68.7,-93.0,24.0,-116.4,93.9,-104.4,-3038.1,224.7,-65.4,-21.3,177.6,-174.6,5.4,-196.5,-6.3,-4.5,134.4,-180.0,-1.5,101.4,-883.2,15.0,0,552,0,107,0,
0.3100,-22.5,7.8,66.6,-94.5,26.7,-115.5,92.1,-102.6,-3260.4,222.6,-68.4,-23.7,172.5,-183.9,0.3,-196.2,-6.3,-4.5,131.7,-177.3,-1.8,97.2,-878.1,21.6,0,558,0,108,0,
0.3133,-22.8,8.7,64.2,-91.5,23.4,-116.4,90.9,-105.6,-3112.2,218.1,-75.0,-23.7,170.4,-181.5,-0.9,-202.5,-6.3,-5.1,128.1,-180.6,-1.2,98.7,-880.2,23.1,0,564,0,109,0,
0.3167,-21.9,5.7,59.4,-92.7,21.6,-119.4,91.2,-108.3,-3186.3,208.5,-92.1,-38.1,164.7,-185.1,4.8,-187.8,-6.3,-4.8,114.0,-186.0,-1.8,92.4,-875.7,15.3,0,570,0,110,0,
0.3200,-16.8,14.1,71.7,-81.3,33.6,-111.3,93.6,-100.5,-3112.2,216.9,-75.3,-22.8,177.6,-179.7,-2.7,-208.2,-6.0,-4.8,124.2,-171.0,-1.8,108.6,-875.1,21.3,0,576,0,111,0,
0.3233,-17.7,17.1,76.8,-75.0,39.9,-106.8,94.8,-102.9,-3186.3,222.0,-60.9,-16.5,185.7,-174.3,2.4,-201.0,-6.0,-4.2,138.3,-167.7,-1.8,110.1,-876.6,29.7,0,582,0,112,0,
0.3267,-21.9,15.3,78.9,-78.0,34.8,-109.5,95.1,-100.5,-3260.4,221.7,-58.5,-21.9,173.7,-180.3,-0.9,-203.1,-5.7,-4.5,139.2,-177.0,-1.5,101.7,-875.7,24.0,0,588,0,113,0,
0.3300,-23.4,13.8,74.7,-72.9,36.0,-107.7,94.8,-99.9,-3260.4,224.7,-52.8,-15.0,170.4,-187.2,-1.8,-206.1,-6.3,-4.5,145.2,-169.2,-1.8,104.7,-876.6,29.7,0,594,0,114,0,
0.3333,-24.9,6.6,69.9,-80.1,27.3,-115.5,92.4,-105.3,-3186.3,213.6,-59.4,-16.5,162.6,-181.8,12.3,-204.6,-6.3,-4.2,137.7,-177.0,-1.8,97.8,-878.7,25.8,0,600,0,115,0,
0.3367,-24.0,8.1,76.2,-73.5,34.8,-106.2,97.8,-99.3,-3186.3,220.2,-58.8,-12.6,165.0,-185.4,6.6,-202.2,-6.0,-4.5,138.6,-168.3,-1.8,98.1,-870.3,36.0,0,606,0,116,0,
0.3400,-27.0,6.9,75.9,-72.9,39.3,-102.0,102.0,-97.8,-3186.3,215.4,-59.7,-7.5,163.2,-193.5,-8.1,-204.3,-6.3,-4.8,138.0,-164.1,-1.8,103.5,-866.1,31.8,0,612,0,117,0,
0.3433,-28.8,7.8,76.8,-75.0,38.7,-105.9,100.2,-97.2,-3038.1,223.2,-58.5,-14.7,161.1,-196.5,-12.0,-194.4,-6.0,-4.2,137.1,-166.8,-2.1,98.7,-865.2,30.6,0,618,0,118,0,
0.3467,-25.2,7.5,75.0,-75.0,39.3,-105.0,105.3,-98.4,-3186.3,217.2,-63.0,-13.5,158.4,-191.1,-3.3,-183.3,-6.0,-4.8,134.1,-165.9,-1.8,99.9,-859.8,33.3,0,624,0,119,0,
0.3500,-25.8,13.2,80.1,-69.9,42.9,-100.5,105.9,-92.7,-3112.2,224.7,-59.4,-8.7,164.7,-190.5,-10.2,-200.4,-6.3,-3.9,140.4,-162.9,-1.8,112.2,-872.7,35.1,0,630,0,120,0,
0.3533,-24.6,13.5,78.3,-70.2,42.9,-99.0,100.5,-96.6,-3186.3,227.4,-58.2,-14.1,165.0,-180.9,-3.6,-213.3,-6.0,-4.5,138.0,-163.8,-1.8,107.7,-876.0,30.9,0,636,0,121,0,
0.3567,-27.3,6.0,73.2,-78.6,35.1,-108.9,96.3,-102.0,-3186.3,218.7,-60.3,-15.3,163.2,-190.8,-4.8,-204.0,-6.3,-4.5,133.2,-171.6,-1.8,105.6,-875.1,29.1,0,642,0,122,0,
0.3600,-26.4,8.7,71.7,-78.6,32.4,-108.0,95.1,-103.5,-3112.2,222.0,-64.2,-11.1,164.7,-185.4,3.9,-186.3,-6.3,-4.8,131.1,-171.3,-1.8,102.9,-864.3,34.2,0,648,0,123,0,
0.3633,-28.8,12.6,79.2,-71.7,40.2,-107.7,95.4,-99.6,-3112.2,225.0,-55.5,-3.3,168.0,-189.0,-13.8,-217.2,-6.3,-4.5,140.4,-161.4,-1.8,104.7,-877.5,32.7,0,654,0,124,0,
0.3667,-27.9,16.8,78.3,-73.8,37.8,-105.6,93.3,-99.6,-3186.3,222.3,-48.0,-6.0,174.9,-185.1,-2.1,-204.6,-6.0,-4.5,142.8,-162.0,-1.8,101.4,-874.2,38.4,0,660,0,125,0,
0.3700,-25.8,18.9,74.7,-78.3,36.0,-108.9,99.0,-98.1,-3038.1,216.0,-51.3,-13.8,183.6,-189.3,4.2,-193.2,-6.6,-4.5,139.5,-168.9,-1.5,104.1,-872.7,35.1,0,666,0,126,0,
0.3733,-21.3,22.2,83.1,-75.0,39.6,-103.2,99.9,-99.3,-2964.0,223.2,-51.0,-10.8,168.0,-182.7,2.1,-198.3,-6.3,-4.2,139.5,-164.4,-1.8,102.9,-875.4,35.1,0,672,0,127,0,
0.3767,-20.1,23.7,83.7,-77.4,36.3,-105.6,98.4,-102.0,-3186.3,217.5,-55.2,-6.3,177.9,-180.6,0.3,-200.7,-6.0,-4.5,140.1,-166.2,-1.8,108.0,-873.3,27.0,0,678,0,128,0,
0.3800,-19.2,21.0,80.4,-80.1,35.1,-107.1,97.2,-102.3,-3112.2,221.7,-57.0,-14.7,178.8,-177.0,3.0,-197.4,-6.0,-4.5,140.4,-168.9,-1.5,103.5,-873.6,31.5,0,684,0,129,0,
0.3833,-18.9,19.2,78.3,-79.8,34.8,-110.7,94.2,-104.4,-3186.3,225.6,-54.9,-14.4,182.4,-176.7,1.5,-204.3,-6.6,-4.8,141.9,-164.4,-1.8,110.1,-876.9,30.9,0,690,0,130,0,
0.3867,-17.7,18.6,76.8,-81.3,33.0,-107.1,93.0,-104.4,-3112.2,219.6,-58.8,-17.4,177.9,-171.6,7.8,-199.5,-6.6,-4.5,133.8,-168.9,-2.1,101.7,-873.3,34.8,0,696,0,131,0,
0.3900,-17.7,17.7,77.4,-79.8,32.4,-109.8,90.9,-104.7,-3038.1,219.9,-61.2,-15.9,175.8,-170.7,12.0,-201.3,-6.3,-4.8,138.3,-171.3,-1.8,99.9,-875.4,23.7,0,702,0,132,0,
0.3933,-18.0,20.4,79.8,-80.4,36.6,-107.7,93.9,-101.4,-3186.3,221.7,-51.9,-10.2,177.3,-174.0,11.4,-194.4,-6.3,-4.5,136.5,-161.7,-1.8,100.8,-877.8,26.1,0,708,0,133,0,
0.3967,-20.4,16.5,74.7,-79.8,35.7,-103.8,94.8,-102.9,-3112.2,222.0,-58.8,-15.9,175.2,-181.2,2.1,-197.1,-6.3,-4.5,135.0,-164.7,-2.1,103.2,-877.5,28.8,0,714,0,134,0,
0.4000,-17.1,19.2,78.3,-77.1,38.1,-104.1,94.2,-102.0,-3186.3,218.7,-56.7,-6.6,174.9,-172.5,5.4,-200.7,-6.0,-4.5,136.8,-157.8,-1.8,105.6,-879.3,23.4,0,720,0,135,0,
0.4033,-23.4,14.4,72.0,-77.4,36.0,-108.9,89.1,-107.4,-3112.2,222.0,-54.9,-8.4,170.4,-181.8,0.9,-208.8,-6.3,-4.5,137.7,-160.5,-1.8,102.6,-883.2,26.1,0,726,0,136,0,
0.4067,-19.8,17.7,73.2,-79.5,35.1,-108.9,96.6,-106.8,-3038.1,221.1,-63.6,-15.6,171.6,-175.5,14.7,-195.3,-6.3,-4.5,131.7,-164.4,-2.1,102.9,-872.1,31.8,0,732,0,137,0,
0.4100,-23.7,11.1,72.0,-84.9,35.1,-112.2,94.5,-110.7,-3112.2,219.3,-66.9,-17.1,165.9,-172.2,18.9,-188.4,-6.3,-4.2,131.7,-165.6,-1.8,93.9,-873.3,38.4,0,738,0,138,0,
0.4133,-21.0,15.3,68.7,-82.5,35.4,-108.0,94.2,-108.0,-3260.4,221.4,-55.5,-10.8,171.6,-175.5,14.1,-195.0,-6.3,-4.5,136.5,-161.4,-1.8,108.3,-875.4,35.4,0,744,0,139,0,
0.4167,-22.8,10.8,68.4,-81.9,40.2,-110.4,97.2,-107.4,-3112.2,218.7,-64.2,-16.2,167.1,-184.5,9.0,-178.5,-6.3,-4.8,127.8,-163.8,-1.8,104.7,-873.0,23.7,0,750,0,140,0,
0.4200,-23.4,12.6,69.3,-83.1,36.3,-110.4,94.5,-107.4,-3112.2,217.5,-64.2,-16.5,162.3,-183.9,2.4,-186.9,-6.3,-4.8,127.5,-164.1,-1.8,95.1,-872.1,26.1,0,756,0,141,0,
0.4233,-24.0,8.4,66.0,-84.9,32.4,-112.5,90.6,-110.4,-3112.2,215.7,-63.6,-19.5,162.3,-173.4,22.2,-204.9,-6.6,-4.5,125.4,-170.1,-1.5,98.4,-881.7,26.7,0,762,0,142,0,
0.4267,-24.9,7.2,67.5,-88.2,36.3,-108.9,96.0,-109.2,-3260.4,212.7,-69.9,-21.9,166.8,-179.1,12.3,-195.9,-6.6,-4.5,126.3,-167.7,-1.2,99.9,-875.1,27.0,0,768,0,143,0,
0.4300,-26.1,11.1,71.4,-83.1,39.6,-105.6,98.1,-106.8,-3186.3,213.3,-61.8,-13.8,154.2,-180.6,5.4,-197.1,-6.3,-4.5,129.3,-166.2,-1.5,100.2,-875.1,30.9,0,774,0,144,0,
0.4333,-30.3,6.6,75.9,-78.9,42.0,-102.0,104.4,-105.3,-3112.2,212.1,-52.5,-6.0,160.5,-198.6,-8.1,-185.1,-6.3,-4.8,135.6,-161.1,-2.1,104.7,-869.1,33.3,0,780,0,145,0,
0.4367,-31.8,9.6,73.2,-80.1,40.5,-102.3,103.2,-105.9,-3186.3,207.6,-57.0,-15.6,155.1,-192.0,-4.8,-188.1,-6.3,-4.5,129.0,-162.6,-1.8,106.5,-868.2,35.7,0,786,0,146,0,
0.4400,-29.7,6.0,73.2,-78.6,41.7,-103.8,102.0,-102.6,-3038.1,210.9,-60.9,-17.1,145.5,-194.1,6.9,-188.4,-6.0,-4.5,125.7,-165.9,-2.1,102.3,-864.9,34.2,0,792,0,147,0,
0.4433,-30.9,6.9,71.7,-80.1,42.0,-100.5,103.8,-100.5,-3186.3,203.7,-62.1,-12.9,146.4,-189.6,7.8,-187.5,-5.7,-4.5,129.0,-165.3,-1.8,100.8,-863.4,34.2,0,798,0,148,0,
0.4467,-33.6,3.6,69.3,-80.1,39.3,-101.1,102.9,-104.4,-3112.2,206.1,-66.3,-14.7,151.2,-191.7,8.4,-186.9,-6.3,-4.5,130.5,-165.3,-1.8,99.3,-858.0,36.3,0,804,0,149,0,
0.4500,-30.9,5.4,74.4,-77.4,42.6,-99.9,105.3,-102.3,-3260.4,216.3,-55.8,-6.6,157.8,-193.8,-0.6,-202.2,-6.0,-4.5,131.4,-160.5,-1.5,104.4,-864.9,40.5,0,810,0,150,0,
0.4533,-35.7,1.8,71.1,-76.5,42.0,-96.6,103.5,-103.8,-3112.2,213.0,-62.1,-12.0,151.2,-196.2,1.2,-197.7,-6.6,-4.5,129.6,-165.3,-1.5,106.5,-869.1,37.8,0,816,0,151,0,
0.4567,-34.8,1.5,71.4,-81.0,40.8,-98.1,107.4,-107.1,-3186.3,210.0,-66.0,-20.7,149.4,-193.8,15.9,-182.1,-6.0,-4.2,124.2,-170.4,-1.8,97.5,-866.4,35.7,0,822,0,152,0,
0.4600,-33.9,0.9,68.4,-83.7,38.7,-102.3,105.3,-108.9,-3038.1,205.2,-65.1,-19.5,148.2,-198.3,10.2,-181.5,-6.0,-4.5,122.1,-170.1,-1.8,97.8,-859.8,27.6,0,828,0,153,0,
0.4633,-29.4,11.1,79.2,-76.5,42.3,-104.7,105.0,-104.4,-3112.2,217.2,-61.5,-14.7,166.2,-185.4,2.4,-206.7,-6.3,-4.8,137.4,-163.8,-1.2,104.1,-858.6,22.5,0,834,0,154,0,
0.4667,-30.6,7.2,70.2,-81.0,35.7,-106.5,99.9,-110.7,-3112.2,209.1,-65.7,-21.9,152.4,-188.7,4.2,-194.7,-6.3,-4.2,132.0,-177.0,-1.8,94.8,-862.5,29.7,0,840,0,155,0,
0.4700,-27.0,8.4,72.3,-83.1,36.6,-109.2,101.1,-111.0,-3112.2,212.4,-64.8,-22.5,159.6,-184.8,15.0,-186.3,-6.3,-4.5,128.1,-171.6,-1.8,98.4,-860.1,32.7,0,846,0,156,0,
0.4733,-26.4,12.9,70.2,-81.6,36.6,-110.7,98.4,-110.7,-3038.1,212.7,-62.7,-19.2,161.7,-180.6,13.8,-193.2,-6.3,-4.2,130.5,-170.1,-1.5,94.2,-857.4,30.0,0,852,0,157,0,
0.4767,-24.0,13.8,72.6,-85.5,33.9,-110.4,98.1,-108.6,-3260.4,216.6,-61.5,-12.6,163.2,-177.0,3.3,-206.4,-6.3,-4.8,129.9,-164.7,-1.8,102.9,-862.8,30.0,0,858,0,158,0,
0.4800,-27.6,12.9,67.2,-86.7,31.2,-115.2,95.7,-112.2,-3112.2,212.4,-66.9,-19.8,162.3,-180.9,-1.2,-199.2,-6.3,-4.5,128.7,-169.2,-1.8,101.1,-861.9,24.3,0,864,0,159,0,
0.4833,-25.5,9.3,66.3,-92.1,30.6,-115.8,96.3,-114.6,-3112.2,211.5,-68.7,-21.6,175.5,-173.7,6.6,-188.1,-6.0,-4.2,126.0,-172.8,-1.8,102.9,-856.2,23.1,0,870,0,160,0,
0.4867,-21.0,14.4,69.3,-86.7,30.6,-108.0,96.9,-111.9,-3112.2,216.0,-63.0,-22.5,175.8,-168.0,7.5,-197.4,-6.0,-4.8,129.9,-165.6,-1.2,99.0,-858.6,24.3,0,876,0,161,0,
0.4900,-24.0,10.2,67.8,-88.5,30.3,-111.6,91.2,-117.6,-3038.1,212.1,-67.5,-22.8,175.5,-179.7,-6.9,-209.7,-6.0,-4.8,127.8,-168.6,-2.1,102.6,-870.9,20.1,0,882,0,162,0,
0.4933,-21.9,11.4,65.1,-89.7,26.1,-112.5,91.8,-115.8,-3186.3,218.4,-74.1,-23.4,169.8,-177.0,0.0,-194.7,-6.6,-4.5,117.0,-171.3,-1.5,95.7,-863.1,34.5,0,888,0,163,0,
0.4967,-21.3,14.4,69.3,-87.3,25.2,-118.8,90.3,-116.1,-3112.2,214.5,-70.2,-28.2,172.5,-169.8,6.9,-199.8,-6.3,-4.5,124.5,-175.2,-2.1,99.3,-867.3,24.9,0,894,0,164,0,
0.5000,-19.8,9.6,65.4,-93.3,23.4,-118.5,89.7,-115.8,-3186.3,210.6,-77.4,-33.0,168.6,-173.7,8.7,-189.6,-6.0,-4.2,123.3,-175.8,-1.8,93.6,-865.5,23.7,0,900,0,165,0,
0.5033,-16.8,12.3,65.4,-90.6,26.4,-114.3,89.1,-113.4,-3112.2,216.0,-73.8,-26.4,176.1,-168.3,13.5,-196.2,-6.0,-4.5,125.4,-172.8,-1.8,99.6,-870.3,26.7,0,906,0,166,0,
0.5067,-15.9,15.3,68.4,-85.5,26.1,-114.0,91.8,-110.7,-3186.3,215.7,-67.2,-17.1,176.7,-171.6,10.2,-199.8,-6.0,-4.5,129.6,-171.9,-2.1,101.7,-877.2,25.8,0,912,0,167,0,
0.5100,-12.3,18.0,72.0,-80.1,30.0,-110.4,93.3,-105.3,-3186.3,212.4,-61.8,-13.2,162.3,-170.7,3.3,-207.9,-6.0,-4.8,131.1,-168.9,-1.8,104.7,-874.8,29.7,0,918,0,168,0,
0.5133,-13.8,15.6,73.8,-79.8,31.2,-112.8,93.6,-105.9,-3260.4,215.7,-61.2,-18.0,167.7,-169.5,8.4,-200.1,-6.3,-4.2,136.5,-172.5,-1.5,97.8,-866.7,34.2,0,924,0,169,0,
0.5167,-12.0,20.1,77.1,-77.4,35.1,-113.7,94.8,-105.3,-3038.1,216.3,-58.8,-19.5,176.7,-173.7,6.9,-203.1,-6.0,-4.5,138.6,-173.4,-1.5,100.2,-871.8,29.7,0,930,0,170,0,
0.5200,-14.1,16.8,72.6,-77.4,34.5,-110.7,95.7,-105.3,-3186.3,210.3,-62.4,-21.3,171.3,-178.8,0.6,-208.2,-5.7,-4.5,135.9,-173.4,-1.8,95.1,-868.8,30.6,0,936,0,171,0,
0.5233,-14.1,15.3,76.2,-78.0,32.7,-109.2,95.4,-105.9,-3186.3,219.9,-64.2,-24.3,169.8,-179.4,8.4,-203.4,-6.3,-4.2,136.2,-174.6,-1.8,93.6,-867.9,36.3,0,942,0,172,0,
0.5267,-18.9,15.6,75.6,-77.4,36.3,-113.1,96.9,-108.6,-3186.3,209.1,-64.2,-25.2,161.7,-183.3,8.1,-190.5,-6.3,-4.5,133.5,-176.7,-1.8,89.4,-867.6,28.5,0,948,0,173,0,
0.5300,-24.3,14.1,76.8,-76.5,36.0,-107.1,95.7,-108.9,-3038.1,205.5,-65.1,-27.0,162.6,-191.7,-6.6,-196.5,-6.6,-4.5,132.6,-171.6,-1.8,94.8,-863.7,34.8,0,954,0,174,0,
0.5333,-23.7,14.4,77.7,-76.5,38.1,-108.3,94.5,-107.7,-3038.1,204.9,-69.6,-21.9,165.9,-187.5,-4.2,-215.1,-6.3,-4.5,132.9,-171.6,-1.8,105.9,-868.8,29.1,0,960,0,175,0,
0.5367,-27.6,11.7,72.3,-82.5,31.5,-113.4,93.9,-107.7,-3038.1,208.5,-76.2,-32.7,160.5,-188.7,-2.4,-208.2,-6.3,-4.8,129.3,-178.5,-2.1,96.0,-870.0,28.5,0,966,0,176,0,
0.5400,-28.2,13.8,71.7,-79.2,33.9,-112.8,94.8,-107.7,-3260.4,205.8,-71.4,-27.0,153.9,-188.4,2.1,-202.5,-6.3,-4.8,127.5,-175.5,-1.5,96.3,-866.4,23.1,0,972,0,177,0,
0.5433,-26.7,10.2,75.9,-75.6,34.8,-110.7,99.0,-104.7,-3038.1,209.4,-68.4,-27.3,151.2,-189.3,-2.4,-196.8,-6.3,-4.2,126.9,-169.2,-1.8,91.8,-856.2,36.0,0,978,0,178,0,
0.5467,-28.8,9.3,78.3,-74.7,36.0,-114.9,95.4,-104.4,-3112.2,204.0,-63.9,-25.5,161.1,-186.9,3.0,-200.1,-6.0,-4.5,126.3,-172.2,-1.5,98.1,-858.6,34.5,0,984,0,179,0,
0.5500,-21.0,17.7,81.6,-72.0,38.4,-110.7,100.2,-101.7,-3186.3,212.4,-62.1,-20.1,169.2,-177.0,7.2,-201.0,-6.3,-4.8,138.6,-168.0,-1.8,95.1,-855.6,29.1,0,990,0,180,0,
0.5533,-24.9,11.7,77.1,-74.1,42.0,-111.0,94.8,-104.1,-3186.3,209.7,-63.3,-27.0,165.9,-186.0,-3.9,-216.0,-5.7,-4.8,132.3,-172.8,-1.8,99.9,-865.5,30.3,0,996,0,181,0,
0.5567,-23.4,11.4,75.9,-75.0,37.5,-109.5,99.0,-104.7,-3186.3,212.7,-60.9,-32.4,161.1,-180.9,9.9,-197.4,-6.0,-4.2,135.6,-171.3,-1.8,93.3,-856.2,32.4,0,1002,0,182,0,
0.5600,-26.1,15.6,77.4,-76.8,37.8,-108.0,99.9,-102.9,-3186.3,216.6,-55.5,-20.1,171.3,-183.3,6.9,-201.3,-6.0,-4.5,140.4,-168.3,-1.5,105.6,-860.7,35.4,0,1008,0,183,0,
0.5633,-29.1,12.9,72.6,-81.6,31.8,-109.2,100.2,-106.2,-3112.2,213.9,-64.8,-20.7,159.3,-182.4,9.3,-198.9,-6.3,-4.5,135.0,-173.4,-1.5,92.4,-863.1,36.9,0,1014,0,184,0,
0.5667,-23.4,15.3,74.7,-75.0,34.5,-105.3,104.1,-104.7,-3112.2,218.1,-61.5,-17.4,163.2,-176.7,16.2,-194.7,-6.3,-4.2,139.2,-168.6,-2.1,105.3,-857.7,39.6,0,1020,0,185,0,
0.5700,-23.7,10.2,71.7,-74.7,31.5,-105.9,104.4,-105.9,-3186.3,219.6,-57.3,-17.1,160.8,-174.0,25.5,-180.9,-6.3,-4.5,140.7,-170.7,-1.5,104.4,-853.5,37.8,0,1026,0,186,0,
0.5733,-27.9,5.4,68.7,-84.3,30.0,-105.0,100.2,-106.8,-3112.2,207.3,-60.9,-24.6,157.2,-179.4,27.9,-169.8,-6.6,-4.5,133.5,-170.7,-1.5,101.7,-848.1,40.2,0,1032,0,187,0,
0.5767,-25.2,9.0,73.8,-75.6,37.8,-102.0,102.3,-103.5,-3186.3,213.3,-54.6,-16.8,167.4,-174.3,17.7,-189.3,-6.0,-4.2,141.0,-162.6,-1.8,114.0,-850.5,50.7,0,1038,0,188,0,
0.5800,-23.7,15.6,76.8,-76.8,38.7,-99.0,100.2,-105.9,-3186.3,219.9,-50.7,-18.6,168.3,-174.9,6.0,-201.6,-6.0,-4.5,144.9,-159.3,-2.1,107.1,-858.0,51.6,0,1044,0,189,0,
0.5833,-23.7,12.6,75.9,-80.7,36.3,-104.4,98.4,-108.6,-3186.3,222.0,-52.2,-14.4,162.6,-172.8,7.8,-194.7,-6.0,-4.5,141.9,-164.1,-1.8,112.2,-850.8,46.2,0,1050,0,190,0,
0.5867,-19.2,15.0,74.1,-82.5,36.6,-105.0,97.8,-109.2,-3038.1,219.6,-54.9,-17.4,175.8,-160.5,20.1,-196.8,-6.6,-4.2,141.6,-161.7,-2.1,116.4,-850.8,42.6,0,1056,0,191,0,
0.5900,-23.7,9.3,67.8,-88.8,31.5,-109.5,94.8,-113.7,-3186.3,222.3,-57.6,-22.8,174.3,-175.8,15.9,-189.6,-6.0,-4.5,137.1,-170.7,-1.8,106.2,-849.0,36.0,0,1062,0,192,0,
0.5933,-27.3,7.2,60.3,-87.9,25.8,-111.9,94.2,-114.6,-3112.2,215.4,-63.9,-27.0,174.0,-176.4,9.0,-196.2,-6.3,-4.8,133.2,-173.7,-1.5,96.9,-849.0,35.4,0,1068,0,193,0,
0.5967,-19.2,15.3,66.0,-85.5,32.7,-106.8,94.2,-107.4,-3186.3,223.5,-55.2,-14.7,183.9,-163.5,14.4,-221.4,-6.6,-4.5,143.7,-170.1,-1.5,111.9,-867.3,37.5,0,1074,0,194,0,
0.6000,-27.3,9.3,62.7,-91.2,27.6,-111.6,85.5,-114.6,-3186.3,209.7,-63.6,-25.5,171.6,-164.7,22.5,-208.5,-6.3,-4.5,135.3,-179.1,-1.8,96.6,-871.5,34.2,0,1080,0,195,0,
0.6033,-27.0,13.8,69.3,-83.1,33.6,-106.8,92.4,-108.0,-3186.3,224.1,-59.1,-16.8,166.8,-179.1,1.2,-207.6,-6.3,-3.9,140.4,-166.5,-1.8,110.7,-864.6,32.1,0,1086,0,196,0,
0.6067,-25.8,13.2,65.7,-79.8,34.2,-104.4,93.6,-106.8,-3334.5,222.3,-58.2,-18.9,170.7,-168.9,14.1,-191.7,-6.3,-4.8,138.9,-166.5,-2.1,101.4,-861.0,33.3,0,1092,0,197,0,
0.6100,-21.9,16.2,74.1,-77.1,35.7,-107.4,94.5,-106.5,-3112.2,222.9,-54.6,-19.2,176.4,-168.3,9.9,-203.4,-6.0,-4.5,142.2,-166.5,-1.8,108.0,-860.4,42.9,0,1098,0,198,0,
0.6133,-24.9,12.9,75.0,-76.5,37.5,-108.9,92.4,-105.6,-3260.4,216.9,-54.6,-25.8,172.2,-174.9,-1.2,-207.9,-6.3,-4.8,140.7,-167.7,-1.5,108.6,-862.2,39.3,0,1104,0,199,0,
0.6167,-25.8,15.0,74.1,-77.1,40.2,-108.6,93.3,-104.7,-3186.3,219.6,-57.0,-23.1,168.9,-173.7,3.9,-200.1,-6.0,-4.5,139.5,-168.3,-1.8,111.3,-864.3,30.0,0,1110,0,200,0,
0.6200,-26.4,10.5,74.7,-74.4,41.1,-106.5,93.3,-105.6,-3260.4,216.9,-55.2,-16.5,170.4,-170.4,8.4,-194.4,-6.3,-4.5,138.6,-166.8,-1.8,102.3,-862.5,37.8,0,1116,0,201,0,
0.6233,-27.9,9.6,76.5,-76.2,41.7,-105.9,92.1,-107.4,-3186.3,216.0,-54.6,-18.0,166.5,-186.0,0.0,-202.2,-6.3,-4.2,133.5,-168.9,-1.8,108.3,-870.6,34.8,0,1122,0,202,0,
0.6267,-26.4,12.9,78.9,-71.1,44.7,-103.8,100.5,-101.1,-3334.5,210.6,-53.1,-18.0,172.5,-183.3,0.0,-185.4,-6.0,-4.5,138.9,-166.5,-2.1,99.3,-852.6,41.4,0,1128,0,203,0,
0.6300,-24.3,17.4,83.1,-68.1,42.0,-108.9,92.4,-101.7,-3260.4,224.1,-49.5,-15.0,172.2,-174.0,4.5,-218.7,-6.6,-4.5,144.6,-170.4,-1.8,107.1,-863.4,36.6,0,1134,0,204,0,
0.6333,-30.0,10.5,73.8,-74.4,32.4,-116.4,91.5,-106.5,-3186.3,205.8,-58.2,-24.9,156.3,-179.7,8.4,-202.8,-6.6,-4.5,136.5,-176.1,-1.8,93.9,-867.3,30.9,0,1140,0,205,0,
0.6367,-24.0,19.2,83.4,-67.2,42.3,-109.5,97.2,-100.5,-3186.3,223.5,-48.3,-16.8,162.9,-185.1,-2.4,-202.8,-6.3,-4.5,141.9,-169.5,-2.1,109.5,-856.5,33.6,0,1146,0,206,0,
0.6400,-21.9,18.3,84.0,-67.5,43.5,-110.4,98.1,-99.6,-3260.4,212.4,-47.7,-16.8,172.8,-186.3,-9.9,-206.1,-6.3,-4.5,142.2,-166.2,-1.5,106.5,-862.2,28.8,0,1152,0,207,0,
0.6433,-22.8,21.3,88.2,-63.9,47.4,-107.4,96.6,-98.4,-3334.5,225.3,-46.2,-12.6,174.0,-180.6,0.9,-204.6,-6.3,-4.5,144.6,-159.9,-2.1,113.7,-857.1,33.9,0,1158,0,208,0,
0.6467,-25.2,14.4,84.9,-68.7,39.0,-110.7,97.2,-102.9,-3334.5,216.6,-48.0,-12.9,164.1,-180.3,-2.4,-206.7,-6.3,-4.5,142.8,-165.6,-1.8,105.0,-851.7,33.9,0,1164,0,209,0,
0.6500,-22.2,14.1,83.4,-71.4,41.1,-112.8,99.9,-102.3,-3260.4,221.1,-43.2,-10.8,171.3,-176.4,11.1,-198.9,-6.3,-4.5,141.9,-163.8,-2.4,111.6,-844.2,36.0,0,1170,0,210,0,
0.6533,-25.8,11.4,83.4,-70.5,42.3,-110.1,98.4,-102.9,-3334.5,217.5,-40.8,-8.1,167.4,-177.9,12.0,-190.2,-6.0,-4.2,147.3,-158.4,-1.2,110.7,-846.0,45.6,0,1176,0,211,0,
0.6567,-23.4,10.5,81.3,-71.7,41.7,-111.0,99.3,-106.8,-3260.4,219.0,-46.5,-9.0,172.8,-179.1,18.3,-187.2,-6.0,-4.5,140.1,-160.5,-2.1,107.1,-848.7,40.5,0,1182,0,212,0,
0.6600,-27.0,10.5,80.4,-70.5,43.5,-109.2,92.4,-105.0,-3408.6,216.3,-47.1,-7.5,168.3,-174.0,12.0,-188.4,-6.0,-4.2,141.6,-160.8,-1.2,106.8,-848.4,42.9,0,1188,0,213,0,
0.6633,-22.8,15.0,87.3,-63.0,47.7,-107.4,98.7,-99.6,-3260.4,228.6,-38.7,-3.3,171.0,-168.0,12.3,-186.6,-6.0,-3.9,153.6,-155.1,-1.8,111.3,-841.5,36.0,0,1194,0,214,0,
0.6667,-21.0,16.5,90.0,-62.7,50.4,-105.6,98.7,-101.4,-3186.3,223.2,-39.6,-7.2,176.7,-168.6,7.8,-189.0,-6.0,-4.5,148.5,-160.5,-1.5,108.3,-843.6,48.3,0,1200,0,215,0,
0.6700,-22.5,18.0,90.9,-66.3,49.5,-108.3,93.9,-99.9,-3112.2,222.6,-42.0,-9.9,171.3,-175.8,8.7,-190.8,-6.3,-4.2,149.4,-166.2,-2.1,115.2,-847.2,39.0,0,1206,0,216,0,
0.6733,-27.0,14.7,85.5,-69.3,44.7,-111.3,93.0,-105.9,-3260.4,222.9,-41.4,-12.0,172.5,-170.4,16.8,-182.1,-6.6,-4.5,145.8,-165.9,-1.8,105.3,-838.2,39.3,0,1212,0,217,0,
0.6767,-25.5,13.5,83.4,-74.4,45.0,-109.5,96.0,-106.8,-3334.5,218.1,-45.0,-7.8,179.4,-175.8,13.2,-172.8,-6.3,-4.5,143.7,-163.5,-1.8,103.2,-839.1,39.6,0,1218,0,218,0,
0.6800,-28.2,6.9,80.4,-69.9,47.4,-108.9,95.1,-107.4,-3260.4,220.5,-51.0,-8.4,174.0,-176.1,7.2,-186.6,-6.3,-4.5,141.0,-160.2,-2.1,110.7,-835.5,48.0,0,1224,0,219,0,
0.6833,-24.9,9.9,81.9,-69.6,45.3,-111.9,90.6,-104.4,-3260.4,214.2,-47.4,-10.5,167.1,-168.9,19.2,-189.0,-5.7,-4.5,144.0,-158.4,-1.8,99.0,-850.2,41.1,0,1230,0,220,0,
0.6867,-19.5,15.3,89.4,-62.4,51.6,-104.1,92.4,-97.5,-3334.5,221.7,-39.3,-3.9,171.9,-172.8,7.2,-186.3,-5.7,-4.5,146.1,-153.9,-1.8,100.2,-843.0,37.5,0,1236,0,221,0,
0.6900,-16.8,19.2,91.5,-60.0,54.9,-100.5,90.9,-96.9,-3334.5,223.8,-35.1,-4.5,177.0,-166.8,13.8,-206.1,-6.3,-4.2,150.0,-151.2,-1.8,112.5,-858.9,40.5,0,1242,0,222,0,
0.6933,-20.1,18.6,90.6,-61.2,56.1,-100.8,89.4,-94.2,-3186.3,223.8,-42.9,-9.0,172.8,-174.0,3.0,-218.4,-6.3,-4.5,149.4,-153.0,-1.8,103.8,-864.3,39.3,0,1248,0,223,0,
0.6967,-18.9,13.5,83.7,-62.4,51.0,-103.2,88.5,-97.5,-3186.3,212.7,-42.9,-4.8,167.7,-173.4,13.8,-206.1,-6.0,-4.5,147.9,-157.8,-1.8,99.6,-867.6,39.0,0,1254,0,224,0,
0.7000,-24.0,16.2,85.5,-64.2,48.3,-106.5,85.5,-101.1,-3334.5,220.5,-36.6,-4.2,175.5,-179.7,1.8,-211.5,-6.0,-4.5,153.9,-159.3,-1.8,106.5,-861.0,32.7,0,1260,0,225,0,
0.7033,-21.6,18.6,88.2,-61.5,45.6,-104.1,88.5,-93.6,-3186.3,219.9,-38.1,-10.2,183.0,-183.0,-3.3,-208.8,-6.6,-4.5,152.7,-160.8,-1.8,102.9,-862.8,34.8,0,1266,0,226,0,
0.7067,-18.3,20.7,86.7,-61.5,45.3,-107.1,87.9,-94.5,-3260.4,216.6,-45.6,-17.4,176.1,-177.3,2.4,-206.7,-6.0,-4.2,146.4,-165.6,-1.8,93.6,-868.2,39.9,0,1272,0,227,0,
0.7100,-21.0,16.5,92.4,-61.8,49.5,-104.7,86.1,-97.2,-3186.3,219.3,-44.1,-8.7,171.3,-185.7,7.8,-199.5,-6.3,-4.8,150.9,-153.3,-1.8,105.0,-863.1,33.9,0,1278,0,228,0,
0.7133,-21.0,19.8,93.9,-60.3,57.0,-103.2,86.4,-100.8,-3186.3,221.1,-23.7,9.9,177.0,-183.3,13.2,-183.6,-6.0,-4.5,163.8,-141.0,-1.8,103.5,-861.6,32.1,0,1284,0,229,0,
0.7167,-21.3,20.7,97.8,-53.4,59.1,-104.1,84.6,-96.3,-3186.3,223.8,-21.6,16.2,180.9,-180.0,6.0,-207.9,-6.3,-4.2,163.8,-137.7,-1.8,115.2,-863.4,43.5,0,1290,0,230,0,
0.7200,-20.4,28.5,99.3,-51.3,62.7,-103.2,82.8,-88.8,-3260.4,229.2,-25.5,13.5,183.9,-177.0,-0.6,-231.9,-6.0,-4.8,163.2,-136.8,-1.8,111.9,-875.7,44.4,0,1296,0,231,0,
0.7233,-19.5,23.7,99.6,-50.7,61.5,-99.9,82.5,-88.5,-3186.3,224.7,-24.3,17.7,176.4,-180.3,10.5,-216.9,-6.0,-4.8,159.9,-134.7,-1.5,111.6,-870.3,47.7,0,1302,0,232,0,
0.7267,-21.0,27.0,98.4,-51.0,63.6,-97.5,88.2,-89.4,-3260.4,228.3,-21.3,18.3,186.6,-184.5,-3.9,-211.8,-6.0,-4.5,158.7,-133.5,-1.8,110.4,-869.7,44.7,0,1308,0,233,0,
0.7300,-21.9,26.4,93.3,-52.5,58.2,-93.9,87.3,-93.9,-3260.4,222.3,-22.2,17.4,186.9,-180.0,-2.4,-207.9,-6.0,-4.2,158.1,-135.9,-1.8,113.1,-863.1,45.6,0,1314,0,234,0,
0.7333,-19.8,32.7,99.3,-44.4,63.9,-88.8,88.8,-89.7,-3260.4,240.6,-12.6,22.8,182.4,-185.1,-14.7,-222.6,-6.3,-4.2,169.5,-129.3,-1.5,121.2,-862.2,49.8,0,1320,0,235,0,
0.7367,-21.3,22.8,86.4,-54.0,55.8,-96.3,88.5,-97.2,-3186.3,222.9,-25.8,9.9,183.6,-183.0,10.5,-202.2,-5.7,-4.5,158.4,-139.8,-1.5,111.6,-860.7,43.8,0,1326,0,236,0,
0.7400,-19.5,28.8,94.5,-52.8,57.6,-91.8,86.7,-92.7,-3186.3,233.1,-25.5,11.7,189.9,-174.0,-4.8,-216.6,-6.3,-4.5,160.2,-139.2,-1.8,109.5,-865.5,43.8,0,1332,0,237,0,
0.7433,-21.9,21.9,90.3,-61.2,52.2,-94.5,90.6,-95.4,-3038.1,224.4,-32.7,5.7,174.9,-178.8,-12.6,-207.0,-6.3,-4.2,151.2,-145.2,-2.1,108.6,-858.3,40.8,0,1338,0,238,0,
0.7467,-20.4,25.2,93.9,-59.4,48.9,-95.1,90.0,-95.7,-3260.4,225.3,-31.5,7.8,171.3,-181.2,-9.9,-216.3,-6.6,-4.5,153.9,-149.4,-2.1,107.1,-863.4,39.6,0,1344,0,239,0,
0.7500,-26.1,20.1,89.1,-62.7,50.1,-96.6,93.0,-97.2,-3112.2,216.9,-33.6,-1.2,176.1,-186.3,-3.0,-203.7,-6.0,-4.8,151.5,-148.2,-1.8,102.9,-855.3,48.0,0,1350,0,240,0,
0.7533,-22.8,28.2,95.1,-57.3,55.2,-93.9,93.6,-92.4,-3186.3,232.2,-22.5,3.3,184.5,-181.8,-9.3,-207.9,-6.3,-4.8,162.6,-144.9,-1.8,112.8,-855.0,44.1,0,1356,0,241,0,
0.7567,-25.5,25.8,96.9,-54.9,59.7,-93.3,94.5,-94.5,-3038.1,234.6,-22.8,9.3,171.3,-181.2,-6.3,-200.4,-6.3,-4.5,160.8,-138.0,-1.8,120.3,-844.2,53.7,0,1362,0,242,0,
0.7600,-30.0,22.5,95.1,-56.1,57.0,-96.6,92.7,-93.6,-3186.3,223.5,-24.9,10.5,172.8,-181.8,-5.4,-202.5,-6.3,-4.8,160.5,-141.0,-2.1,118.5,-848.4,51.6,0,1368,0,243,0,
0.7633,-26.7,24.0,93.3,-57.3,55.2,-90.0,91.5,-95.4,-3186.3,228.0,-25.8,5.7,178.8,-175.2,-2.7,-202.8,-5.7,-4.5,154.8,-145.8,-1.8,119.1,-846.6,41.7,0,1374,0,244,0,
0.7667,-22.5,25.5,96.3,-61.2,53.4,-91.5,92.7,-95.7,-3260.4,230.1,-25.5,8.7,182.1,-165.6,3.0,-204.3,-6.0,-4.5,156.6,-145.5,-2.1,119.7,-848.4,44.4,0,1380,0,245,0,
0.7700,-24.0,26.4,95.4,-65.1,49.8,-90.9,92.1,-93.9,-3038.1,231.3,-26.4,11.1,184.8,-165.6,2.4,-203.1,-6.0,-4.8,161.4,-144.6,-1.8,114.0,-848.1,45.9,0,1386,0,246,0,
0.7733,-22.8,26.7,92.7,-62.4,51.0,-91.5,91.8,-96.0,-3038.1,232.2,-28.8,5.1,182.7,-168.6,-0.3,-201.0,-6.3,-4.2,158.7,-143.4,-1.8,114.6,-845.1,48.0,0,1392,0,247,0,
0.7767,-20.1,33.3,98.4,-54.3,61.2,-83.4,96.0,-92.4,-3186.3,239.1,-20.4,9.9,184.5,-167.4,0.9,-209.1,-6.0,-4.2,165.9,-133.5,-2.1,121.2,-846.3,44.7,0,1398,0,248,0,
0.7800,-23.4,24.0,90.0,-62.1,51.0,-93.3,93.3,-98.4,-3186.3,233.7,-28.5,0.3,171.9,-172.2,3.3,-187.8,-6.0,-4.2,156.0,-142.2,-1.8,119.4,-843.0,43.2,0,1404,0,249,0,
0.7833,-27.3,18.9,87.0,-69.0,45.6,-99.0,92.7,-100.5,-3260.4,225.0,-40.2,-3.0,173.4,-177.6,-0.9,-185.1,-6.3,-4.5,153.6,-155.7,-1.8,109.2,-840.0,39.3,0,1410,0,250,0,
0.7867,-21.3,24.9,91.8,-65.1,47.7,-95.7,93.6,-94.8,-3038.1,236.1,-35.4,3.3,187.2,-168.0,6.0,-207.3,-6.3,-4.5,158.7,-149.4,-1.8,112.5,-859.2,41.1,0,1416,0,251,0,
0.7900,-22.2,24.0,91.2,-68.1,46.8,-99.3,90.6,-96.9,-3112.2,230.1,-33.0,0.3,186.3,-177.0,-2.7,-208.2,-6.3,-4.8,159.9,-152.4,-1.5,111.9,-856.2,38.7,0,1422,0,252,0,
0.7933,-23.1,18.0,89.4,-70.5,44.4,-101.7,86.7,-99.0,-3112.2,230.4,-27.3,3.0,192.0,-170.4,5.1,-209.7,-6.0,-4.2,159.9,-149.4,-2.1,104.7,-860.1,36.9,0,1428,0,253,0,
0.7967,-21.9,22.5,90.3,-68.1,51.0,-98.7,86.7,-98.1,-3186.3,231.3,-26.7,4.8,190.5,-175.2,-3.3,-210.0,-6.3,-4.5,160.5,-145.2,-1.8,117.3,-857.7,36.9,0,1434,0,254,0,
0.8000,-19.8,24.0,91.5,-66.0,52.8,-96.6,86.4,-99.9,-2964.0,231.3,-26.7,3.6,183.6,-171.9,-1.2,-222.6,-6.0,-4.8,161.7,-147.6,-2.1,111.0,-865.2,36.0,0,1440,0,255,0,
0.8033,-20.7,23.4,91.5,-67.2,47.7,-97.8,88.5,-98.1,-3038.1,227.1,-36.0,-9.6,187.8,-172.2,5.4,-210.9,-6.0,-4.5,156.6,-150.6,-2.4,107.4,-858.0,31.5,0,1446,0,0,0,
0.8067,-25.2,21.6,89.7,-67.8,45.9,-100.8,85.8,-99.3,-3038.1,222.3,-40.2,-6.3,190.2,-173.4,4.2,-210.3,-6.3,-4.5,153.9,-153.6,-1.5,101.4,-862.2,33.3,0,1452,0,1,0,
0.8100,-25.5,17.7,84.0,-73.2,40.5,-109.8,83.7,-105.9,-3260.4,216.3,-40.2,-11.7,181.2,-184.2,-0.6,-206.1,-6.6,-4.5,146.4,-158.7,-1.8,104.7,-862.5,27.3,0,1458,0,2,0,
0.8133,-24.3,16.5,81.0,-78.0,35.4,-112.2,82.8,-109.8,-3186.3,215.1,-43.2,-10.8,180.3,-177.6,4.5,-203.1,-6.0,-4.5,145.2,-166.2,-1.5,99.0,-863.4,27.3,0,1464,0,3,0,
0.8167,-27.9,14.1,79.8,-78.3,38.4,-114.6,83.7,-109.8,-3112.2,218.1,-45.6,-16.8,174.6,-182.7,4.8,-201.6,-6.3,-4.5,142.2,-164.4,-1.8,102.3,-864.3,33.0,0,1470,0,4,0,
0.8200,-27.9,17.1,84.6,-73.8,41.4,-112.8,82.5,-106.2,-3186.3,212.4,-42.3,-6.9,178.2,-183.9,-2.7,-213.0,-6.0,-4.5,148.5,-160.5,-1.5,100.8,-869.4,35.7,0,1476,0,5,0,
0.8233,-31.2,12.6,83.7,-76.5,35.1,-114.6,84.3,-106.8,-3112.2,214.8,-40.5,-7.5,172.5,-195.3,-14.1,-204.3,-6.3,-4.5,145.2,-160.2,-2.1,93.9,-858.3,27.3,0,1482,0,6,0,
0.8267,-27.9,15.9,88.8,-73.2,39.9,-111.9,86.7,-100.2,-3186.3,224.7,-36.0,-4.8,167.1,-193.8,-16.2,-220.8,-6.3,-4.8,144.3,-155.1,-1.5,106.5,-858.9,31.2,0,1488,0,7,0,
0.8300,-29.1,12.3,87.9,-72.3,38.7,-114.0,86.4,-103.5,-3038.1,213.6,-43.5,-11.4,151.8,-197.7,-13.2,-215.1,-6.3,-4.5,144.0,-162.3,-1.8,94.5,-860.4,30.9,0,1494,0,8,0,
0.8333,-33.3,6.9,84.6,-76.2,37.2,-117.9,84.0,-106.8,-3186.3,208.5,-47.7,-17.7,159.0,-196.8,2.1,-204.3,-6.0,-4.5,144.3,-168.6,-2.1,86.7,-864.3,18.6,0,1500,0,9,0,
0.8367,-32.1,9.3,87.3,-75.0,36.9,-112.5,90.6,-103.2,-3112.2,213.3,-43.2,-17.4,173.4,-190.5,1.8,-204.3,-6.0,-4.8,147.6,-165.9,-1.8,86.1,-860.1,18.6,0,1506,0,10,0,
0.8400,-33.9,12.3,93.3,-69.0,43.5,-107.4,90.6,-102.9,-3038.1,213.0,-39.6,-6.0,161.7,-195.0,-13.5,-209.1,-6.3,-4.2,152.7,-157.5,-1.8,100.2,-861.3,30.9,0,1512,0,11,0,
0.8433,-35.1,9.6,90.9,-71.7,43.5,-108.3,90.6,-102.0,-3038.1,215.1,-43.8,-12.0,165.3,-190.8,-7.2,-195.9,-6.0,-4.5,144.6,-162.9,-1.8,97.5,-858.3,18.9,0,1518,0,12,0,
0.8467,-31.8,6.9,85.2,-70.8,44.4,-106.2,87.3,-104.4,-3186.3,208.5,-40.5,-9.6,173.1,-186.6,-6.0,-211.8,-6.0,-4.2,144.3,-160.2,-1.8,94.2,-859.2,28.5,0,1524,0,13,0,
0.8500,-26.7,14.4,94.2,-61.5,53.7,-98.7,96.6,-95.7,-3112.2,223.2,-29.4,1.2,178.2,-184.5,-6.6,-203.4,-6.3,-4.5,154.5,-153.6,-1.8,105.6,-854.1,38.7,0,1530,0,14,0,
0.8533,-29.4,14.7,90.9,-66.0,48.3,-99.9,93.3,-102.6,-3186.3,214.8,-33.0,-9.9,166.5,-184.2,-3.9,-194.7,-6.0,-4.5,147.9,-155.7,-1.5,99.6,-852.0,36.9,0,1536,0,15,0,
0.8567,-28.8,14.4,93.0,-61.5,50.4,-100.2,93.6,-100.5,-3112.2,216.0,-28.8,1.5,169.2,-186.3,-2.4,-200.7,-6.0,-4.5,152.1,-148.2,-1.8,105.9,-856.5,38.4,0,1542,0,16,0,
0.8600,-23.7,22.8,96.9,-59.7,53.1,-102.0,93.9,-96.0,-3112.2,220.2,-27.3,-1.2,174.9,-185.7,-0.6,-205.5,-6.0,-4.5,156.0,-152.7,-1.5,101.1,-861.6,27.9,0,1548,0,17,0,
0.8633,-22.8,18.9,91.8,-63.0,54.6,-103.8,90.3,-96.0,-3260.4,218.4,-29.7,-5.1,162.3,-182.4,-4.2,-207.0,-6.3,-4.2,152.1,-149.7,-1.8,103.8,-859.5,40.5,0,1554,0,18,0,
0.8667,-26.1,21.9,96.9,-57.9,58.5,-103.5,91.2,-94.8,-3112.2,219.6,-26.4,0.0,172.8,-182.4,-7.5,-210.6,-6.3,-4.8,156.3,-147.9,-1.8,99.6,-863.7,41.4,0,1560,0,19,0,
0.8700,-25.8,21.3,94.2,-57.0,58.2,-99.9,92.7,-94.5,-3112.2,217.2,-29.1,3.0,180.0,-180.0,0.6,-202.2,-6.0,-4.5,153.0,-148.2,-1.8,99.3,-859.5,39.0,0,1566,0,20,0,
0.8733,-24.6,18.9,91.2,-62.1,56.1,-99.6,90.0,-98.1,-3038.1,217.2,-35.4,5.1,174.6,-179.7,2.1,-203.4,-6.0,-4.5,152.1,-144.9,-1.5,105.9,-858.6,38.7,0,1572,0,21,0,
0.8767,-25.8,11.4,88.2,-64.2,54.3,-105.3,87.6,-99.6,-3038.1,213.6,-33.0,4.5,166.5,-183.9,2.7,-194.1,-6.3,-4.2,148.8,-145.2,-1.8,99.3,-855.0,38.1,0,1578,0,22,0,
0.8800,-20.4,13.8,87.9,-63.3,51.9,-107.4,84.9,-100.5,-3038.1,222.6,-34.5,-4.5,165.9,-174.6,4.8,-216.0,-6.3,-4.8,148.5,-151.2,-1.8,100.5,-866.7,34.5,0,1584,0,23,0,
0.8833,-25.8,7.5,79.5,-72.3,44.4,-113.4,82.8,-109.2,-3186.3,202.5,-47.1,-18.0,152.1,-187.8,4.2,-201.9,-6.0,-4.2,136.8,-163.2,-1.8,87.0,-867.9,26.7,0,1590,0,24,0,
0.8867,-21.9,8.7,77.4,-69.9,46.2,-111.0,81.9,-106.2,-3112.2,212.1,-40.2,-13.5,160.5,-184.8,3.3,-199.8,-6.3,-4.8,142.2,-162.9,-2.1,88.8,-865.8,27.6,0,1596,0,25,0,
0.8900,-21.0,9.9,78.0,-68.4,45.3,-117.3,83.7,-103.8,-3038.1,212.4,-42.9,-15.3,163.2,-178.2,-3.3,-231.9,-6.3,-4.5,140.7,-161.4,-2.1,96.3,-870.9,21.3,0,1602,0,26,0,
0.8933,-24.3,11.1,77.4,-71.7,43.2,-114.0,83.4,-105.6,-3260.4,216.9,-41.7,-10.5,160.8,-177.3,-0.6,-222.6,-6.6,-4.5,141.6,-158.7,-1.8,93.9,-867.3,28.8,0,1608,0,27,0,
0.8967,-25.8,9.6,76.2,-71.4,40.2,-117.6,80.4,-103.2,-3186.3,212.1,-43.8,-7.5,163.8,-184.2,-3.0,-222.6,-6.3,-4.5,138.0,-159.0,-1.8,94.8,-870.0,19.8,0,1614,0,28,0,
0.9000,-27.9,7.8,76.5,-77.7,36.3,-118.2,83.7,-105.6,-3260.4,210.3,-54.6,-18.6,156.0,-183.3,3.3,-207.9,-6.6,-4.5,130.8,-165.3,-1.5,89.1,-866.7,25.5,0,1620,0,29,0,
0.9033,-30.6,6.9,78.6,-75.9,36.3,-115.2,83.7,-107.4,-3038.1,204.0,-51.3,-15.0,151.8,-187.2,0.3,-211.2,-6.3,-4.5,131.4,-163.5,-1.8,82.8,-872.1,27.0,0,1626,0,30,0,
0.9067,-30.0,8.1,78.6,-72.0,39.6,-115.2,83.1,-103.5,-3112.2,207.9,-50.4,-14.1,151.8,-188.1,-1.2,-213.6,-6.3,-4.8,137.4,-162.6,-2.1,86.7,-870.9,27.9,0,1632,0,31,0,
0.9100,-27.0,9.9,82.5,-70.8,46.2,-111.0,86.1,-100.8,-3038.1,204.3,-41.7,-9.9,150.0,-187.2,-9.3,-229.8,-6.3,-4.5,143.4,-159.9,-1.5,91.5,-874.8,28.8,0,1638,0,32,0,
0.9133,-26.7,9.3,73.5,-72.3,39.6,-114.6,87.6,-104.4,-3186.3,210.9,-49.8,-16.5,143.7,-190.8,-4.5,-216.0,-6.3,-4.5,134.4,-164.4,-1.5,83.4,-873.0,28.5,0,1644,0,33,0,
0.9167,-32.4,3.6,66.9,-78.3,37.8,-115.2,84.3,-106.8,-3038.1,196.8,-52.8,-18.0,138.0,-189.0,0.0,-216.3,-6.0,-4.5,129.3,-169.2,-1.8,82.2,-870.6,25.2,0,1650,0,34,0,
0.9200,-32.4,0.6,63.3,-82.2,36.9,-119.4,84.0,-109.5,-3260.4,195.0,-56.4,-24.9,129.0,-192.0,12.0,-207.9,-6.0,-4.8,127.2,-169.8,-1.8,78.3,-873.0,23.4,0,1656,0,35,0,
0.9233,-33.3,-2.4,61.8,-82.2,41.1,-115.2,85.2,-105.6,-3112.2,195.3,-59.1,-30.0,126.9,-193.8,3.9,-194.4,-6.3,-4.5,125.4,-172.5,-1.8,78.6,-864.9,26.7,0,1662,0,36,0,
0.9267,-30.6,6.3,75.6,-70.8,47.1,-108.0,85.2,-98.7,-3038.1,206.4,-48.0,-15.0,129.9,-192.6,-13.8,-216.3,-6.3,-4.5,139.2,-157.8,-1.5,87.9,-866.7,33.3,0,1668,0,37,0,
0.9300,-33.0,3.9,75.3,-68.7,48.6,-107.1,85.5,-100.8,-3186.3,210.0,-49.2,-12.9,132.6,-193.2,-17.4,-209.7,-6.3,-4.5,135.6,-162.3,-1.8,90.0,-861.6,24.3,0,1674,0,38,0,
0.9333,-27.9,9.0,80.7,-66.0,53.4,-105.6,83.7,-96.9,-3112.2,213.3,-47.4,-6.6,148.5,-186.6,-13.5,-217.2,-6.0,-4.2,136.8,-160.5,-1.8,94.5,-864.9,30.9,0,1680,0,39,0,
0.9367,-28.2,9.0,79.5,-64.5,57.6,-107.4,86.1,-96.6,-3112.2,213.6,-42.6,-9.0,152.7,-187.2,-10.8,-216.3,-6.6,-4.5,136.5,-157.2,-1.5,92.7,-865.5,32.4,0,1686,0,40,0,
0.9400,-23.7,12.6,83.7,-62.7,54.0,-104.4,87.9,-93.0,-3112.2,212.1,-51.0,-7.2,153.3,-186.0,-9.6,-210.6,-6.0,-4.2,135.3,-156.9,-1.8,96.3,-861.6,35.4,0,1692,0,41,0,
0.9433,-25.8,12.0,78.9,-66.9,47.7,-109.2,83.7,-96.6,-3186.3,208.5,-49.5,-2.1,154.8,-180.6,3.3,-207.0,-6.3,-4.5,137.7,-159.0,-1.5,90.9,-863.4,26.7,0,1698,0,42,0,
0.9467,-27.6,12.6,78.9,-67.8,48.9,-107.7,84.3,-101.7,-3038.1,210.3,-42.0,-7.8,156.9,-181.8,2.4,-201.9,-6.3,-4.8,135.3,-159.3,-1.8,91.5,-856.5,28.5,0,1704,0,43,0,
0.9500,-24.6,17.1,84.0,-66.9,55.2,-104.7,84.0,-98.7,-3112.2,209.1,-40.2,-11.7,156.6,-179.1,-4.5,-213.3,-6.0,-4.8,141.0,-162.6,-1.8,102.6,-873.6,21.9,0,1710,0,44,0,
0.9533,-24.6,15.6,82.8,-66.9,51.9,-101.4,81.6,-100.8,-2964.0,217.5,-37.2,-7.2,159.9,-180.0,-6.3,-211.5,-6.0,-4.5,147.6,-157.8,-1.5,90.3,-873.0,30.9,0,1716,0,45,0,
0.9567,-24.0,17.4,83.1,-69.9,48.9,-102.9,81.3,-101.7,-3038.1,218.7,-44.7,-11.1,159.3,-173.7,-1.5,-207.0,-6.3,-4.5,139.8,-157.8,-1.5,85.8,-873.0,22.2,0,1722,0,46,0,
0.9600,-26.1,14.1,78.9,-71.1,48.3,-104.4,81.9,-104.1,-3112.2,216.6,-40.5,-8.1,157.5,-178.8,-4.2,-210.3,-6.3,-4.2,143.1,-158.7,-1.5,91.5,-864.6,28.2,0,1728,0,47,0,
0.9633,-24.6,17.4,81.6,-69.9,49.2,-102.9,81.9,-102.0,-3186.3,224.7,-36.6,-4.8,163.5,-177.3,-7.5,-202.8,-6.0,-4.5,144.9,-156.0,-1.8,101.1,-858.9,35.4,0,1734,0,48,0,
0.9667,-24.6,18.0,76.8,-77.1,44.4,-104.4,80.1,-106.2,-3112.2,214.5,-42.0,-6.9,159.9,-172.5,-2.4,-209.4,-6.0,-4.5,141.3,-156.3,-1.8,100.8,-862.5,30.9,0,1740,0,49,0,
0.9700,-27.9,12.9,73.2,-84.0,38.1,-114.3,77.7,-112.8,-3038.1,216.3,-51.9,-10.5,159.9,-173.4,-0.3,-211.5,-6.3,-5.1,137.4,-162.3,-2.1,99.0,-869.4,24.3,0,1746,0,50,0,
0.9733,-29.1,6.6,64.2,-92.1,32.4,-120.9,77.4,-116.7,-2964.0,204.0,-60.0,-25.8,154.5,-176.7,6.6,-199.8,-6.3,-4.2,131.7,-173.7,-1.8,84.9,-867.6,18.3,0,1752,0,51,0,
0.9767,-31.8,6.9,60.3,-94.5,27.6,-122.1,79.2,-114.6,-3186.3,209.4,-57.6,-29.1,149.7,-180.9,-0.6,-192.0,-6.0,-4.2,130.5,-177.6,-1.8,89.7,-860.4,16.8,0,1758,0,52,0,
0.9800,-26.7,10.8,61.8,-90.3,31.8,-122.4,78.3,-113.7,-3186.3,212.1,-54.6,-27.9,153.9,-175.8,0.9,-206.4,-6.3,-4.5,132.6,-175.2,-1.8,91.8,-867.0,26.4,0,1764,0,53,0,
0.9833,-28.8,9.3,60.3,-90.0,27.9,-124.5,78.3,-117.0,-3186.3,210.9,-58.2,-29.7,153.9,-180.0,-9.9,-213.0,-6.3,-4.2,131.7,-176.7,-1.5,85.5,-865.8,27.9,0,1770,0,54,0,
0.9867,-29.4,9.0,58.8,-95.7,28.2,-122.1,79.8,-115.8,-3112.2,206.1,-66.3,-31.2,153.9,-181.8,-3.9,-200.7,-5.7,-4.2,128.7,-176.1,-1.8,87.3,-863.7,27.6,0,1776,0,55,0,
0.9900,-29.4,6.3,63.0,-92.7,30.6,-122.1,82.5,-112.2,-3112.2,206.7,-60.3,-32.1,155.4,-189.0,-18.3,-214.5,-6.3,-4.5,130.2,-171.9,-1.5,90.9,-866.4,30.0,0,1782,0,56,0,
0.9933,-27.6,7.5,63.0,-94.5,29.7,-122.1,79.8,-111.6,-3260.4,201.3,-61.8,-31.2,158.7,-183.9,-13.2,-218.4,-6.3,-4.5,127.5,-174.6,-1.5,85.8,-879.0,21.9,0,1788,0,57,0,
0.9967,-30.3,8.7,60.3,-95.1,27.0,-122.7,78.0,-116.7,-3260.4,197.1,-65.1,-29.7,152.7,-189.0,-11.4,-212.7,-6.6,-4.5,125.4,-174.9,-1.8,84.9,-875.7,13.5,0,1794,0,58,0,
1.0000,-28.5,7.2,61.5,-91.2,28.5,-125.1,82.5,-116.7,-3186.3,202.5,-63.3,-30.3,144.6,-183.0,-5.4,-211.5,-6.3,-4.2,129.9,-174.3,-1.8,80.7,-870.6,13.5,0,1800,0,59,0,
1.0033,-28.8,6.6,64.2,-87.9,30.9,-122.1,86.4,-115.2,-3112.2,201.6,-58.8,-29.4,141.9,-185.1,-9.3,-209.7,-6.3,-5.1,129.9,-172.8,-1.8,84.6,-864.9,29.1,0,1806,0,60,0,
1.0067,-31.5,-0.9,61.8,-94.8,25.2,-132.6,83.7,-118.8,-3112.2,188.4,-66.9,-38.7,141.9,-187.5,1.5,-190.2,-6.0,-4.2,117.6,-189.3,-1.8,74.1,-859.8,20.1,0,1812,0,61,0,
1.0100,-28.5,8.7,70.2,-82.8,36.6,-123.3,83.4,-110.7,-3112.2,197.1,-57.0,-23.7,155.4,-187.8,-9.0,-219.3,-6.0,-4.5,129.0,-174.3,-2.1,83.7,-873.6,21.9,0,1818,0,62,0,
1.0133,-28.5,10.5,69.9,-82.2,38.1,-123.6,83.4,-110.4,-3186.3,201.0,-55.2,-27.0,154.5,-185.7,-13.2,-214.8,-6.6,-4.8,131.4,-171.3,-1.8,85.2,-872.4,26.1,0,1824,0,63,0,
1.0167,-32.1,0.6,64.2,-87.3,33.3,-121.8,84.3,-116.7,-3112.2,194.4,-58.8,-31.8,143.7,-188.1,-9.9,-207.6,-6.0,-4.5,121.5,-176.1,-1.5,88.2,-866.7,19.8,0,1830,0,64,0,
1.0200,-33.9,-6.6,57.0,-93.6,30.6,-125.1,87.0,-119.4,-3038.1,181.2,-61.5,-30.9,135.9,-193.8,-6.6,-193.2,-6.3,-4.5,114.3,-181.8,-1.8,81.3,-861.3,22.2,0,1836,0,65,0,
1.0233,-31.5,-5.4,60.3,-89.7,33.0,-120.0,86.7,-115.8,-3112.2,191.7,-62.1,-29.1,141.6,-187.8,-1.2,-204.9,-6.0,-4.5,121.5,-176.1,-1.8,81.0,-867.0,22.8,0,1842,0,66,0,
1.0267,-30.9,-1.8,63.6,-83.4,39.6,-113.1,86.7,-111.3,-3112.2,188.1,-59.1,-25.5,142.5,-195.3,-9.6,-204.0,-6.3,-4.5,121.8,-168.6,-1.8,85.2,-871.5,24.0,0,1848,0,67,0,
1.0300,-24.0,4.5,71.4,-72.9,45.6,-105.0,90.9,-104.4,-3112.2,203.4,-47.1,-6.0,149.4,-187.2,-22.5,-230.1,-6.0,-4.8,128.7,-155.1,-1.5,97.2,-866.1,33.3,0,1854,0,68,0,
1.0333,-27.0,3.3,68.7,-74.1,45.6,-105.9,89.7,-106.5,-3038.1,196.2,-54.0,-9.9,141.6,-194.7,-15.0,-218.1,-6.0,-4.2,122.4,-159.9,-1.5,92.1,-865.8,36.6,0,1860,0,69,0,
1.0367,-28.2,4.5,66.0,-70.2,48.9,-102.3,94.2,-104.4,-3112.2,203.7,-50.1,-8.7,134.1,-190.5,-12.3,-218.1,-6.3,-4.5,127.5,-154.8,-1.8,91.5,-864.3,35.7,0,1866,0,70,0,
1.0400,-28.5,4.5,60.9,-75.9,43.8,-106.5,92.4,-107.7,-3186.3,196.8,-52.5,-15.9,122.4,-194.4,-12.9,-210.6,-6.0,-4.2,127.8,-158.4,-1.8,90.0,-866.7,29.4,0,1872,0,71,0,
1.0433,-33.0,2.7,63.6,-78.6,39.0,-109.8,90.0,-107.7,-3038.1,197.4,-51.6,-16.2,136.5,-191.7,-4.2,-202.8,-6.0,-4.5,129.0,-162.3,-1.8,90.6,-868.8,31.8,0,1878,0,72,0,
1.0467,-28.5,3.0,63.6,-72.0,45.0,-105.0,90.6,-105.9,-3186.3,201.9,-51.6,-12.0,156.3,-184.8,-7.8,-206.7,-6.0,-4.2,126.6,-159.3,-1.8,96.0,-867.3,44.4,0,1884,0,73,0,
1.0500,-29.4,10.5,71.1,-70.2,47.4,-107.1,88.5,-102.9,-3112.2,203.7,-43.8,-7.2,163.8,-182.1,-5.1,-215.4,-6.0,-4.5,133.2,-158.4,-2.1,95.4,-867.0,37.2,0,1890,0,74,0,
1.0533,-27.6,12.3,71.1,-67.5,49.2,-101.7,86.1,-99.6,-3038.1,202.5,-42.9,-10.8,163.5,-180.6,-4.2,-211.5,-6.3,-4.2,135.9,-156.9,-1.5,99.9,-859.2,45.3,0,1896,0,75,0,
1.0567,-31.2,11.1,68.1,-71.7,47.1,-103.5,89.7,-103.5,-3038.1,198.3,-42.9,-11.7,158.1,-186.9,-9.0,-201.0,-6.3,-4.5,132.3,-155.1,-1.5,93.3,-849.0,40.2,0,1902,0,76,0,
1.0600,-25.5,14.1,72.9,-74.1,46.8,-105.6,88.5,-103.2,-3112.2,211.5,-47.1,-10.8,149.4,-181.2,-4.8,-213.9,-6.6,-4.5,135.9,-153.3,-2.1,107.4,-857.7,30.9,0,1908,0,77,0,
1.0633,-27.0,9.6,68.7,-73.8,46.8,-104.4,89.1,-106.2,-3260.4,205.8,-47.1,-7.8,152.4,-174.9,3.3,-213.3,-6.3,-4.5,135.0,-149.7,-1.8,102.9,-861.6,45.6,0,1914,0,78,0,
1.0667,-23.7,12.0,69.0,-77.7,43.2,-108.6,90.9,-109.5,-3186.3,216.3,-50.7,-17.7,169.5,-177.9,4.2,-204.3,-6.3,-4.2,134.1,-157.2,-1.8,98.7,-863.4,43.2,0,1920,0,79,0,
1.0700,-27.3,12.0,64.8,-76.5,43.2,-105.0,91.2,-109.2,-3112.2,209.4,-47.1,-12.9,169.8,-179.4,2.4,-193.5,-6.3,-4.5,133.5,-155.4,-1.8,100.2,-855.6,48.9,0,1926,0,80,0,
1.0733,-27.0,9.0,68.1,-73.5,43.5,-106.8,90.6,-110.4,-3038.1,211.5,-42.3,0.0,158.7,-180.9,-1.8,-201.3,-6.0,-4.2,136.5,-150.3,-1.5,102.6,-856.5,43.5,0,1932,0,81,0,
1.0767,-31.8,6.3,58.2,-79.5,34.2,-109.8,89.7,-111.3,-3112.2,200.1,-52.5,-12.0,151.5,-186.0,-3.3,-200.4,-6.3,-4.5,128.4,-155.7,-2.1,102.9,-851.7,43.2,0,1938,0,82,0,
1.0800,-29.1,6.3,58.8,-85.5,38.1,-111.9,87.6,-110.4,-3186.3,208.8,-58.8,-21.3,154.8,-178.5,1.5,-210.9,-6.0,-3.9,123.9,-158.7,-2.1,94.5,-859.2,38.4,0,1944,0,83,0,
1.0833,-22.8,15.9,66.6,-72.6,42.6,-103.8,91.5,-101.1,-3112.2,220.8,-37.8,3.0,166.5,-178.8,-6.3,-219.0,-6.0,-4.5,143.7,-144.3,-1.5,112.2,-860.4,49.2,0,1950,0,84,0,
1.0867,-27.0,9.9,61.8,-81.0,38.7,-107.7,96.0,-108.9,-3038.1,211.5,-50.1,-6.6,152.7,-183.0,-2.4,-188.7,-6.0,-4.5,131.1,-149.1,-1.8,106.5,-847.8,46.2,0,1956,0,85,0,
1.0900,-24.9,14.1,64.8,-76.2,45.0,-102.6,90.6,-103.2,-3112.2,219.9,-49.2,-0.6,153.3,-173.7,3.3,-210.0,-6.3,-4.5,134.1,-146.1,-1.8,107.1,-856.5,52.2,0,1962,0,86,0,
1.0933,-26.7,11.7,63.3,-75.0,46.8,-99.9,88.5,-105.6,-2964.0,219.9,-45.3,-5.7,150.3,-174.3,-1.2,-213.3,-6.3,-4.5,134.7,-146.1,-1.8,105.6,-857.7,49.5,0,1968,0,87,0,
1.0967,-30.0,9.9,62.4,-78.9,45.3,-102.9,87.9,-107.4,-3112.2,213.6,-51.0,-11.7,157.5,-179.1,2.1,-202.5,-6.6,-4.5,131.7,-150.0,-1.5,103.8,-855.9,45.0,0,1974,0,88,0,
1.1000,-30.6,5.4,54.9,-84.0,39.6,-106.8,84.9,-111.0,-3112.2,212.7,-56.4,-13.8,156.0,-179.7,2.4,-208.2,-6.0,-4.8,122.4,-154.8,-1.8,100.8,-860.1,44.4,0,1980,0,89,0,
1.1033,-32.1,6.9,63.3,-79.5,47.1,-105.3,90.6,-107.4,-3112.2,210.6,-48.6,-5.1,155.4,-189.9,-9.0,-200.1,-6.3,-4.5,126.3,-149.4,-1.8,109.5,-857.1,38.7,0,1986,0,90,0,
1.1067,-31.2,3.6,60.9,-75.0,49.2,-101.4,92.4,-104.7,-2964.0,207.3,-46.8,-2.4,161.4,-186.0,-4.8,-202.2,-6.0,-4.5,126.6,-147.0,-1.8,102.9,-853.5,43.2,0,1992,0,91,0,
1.1100,-33.0,9.6,68.1,-75.6,47.1,-104.1,87.3,-106.2,-3186.3,205.2,-51.3,-9.3,162.6,-182.7,-2.1,-209.4,-6.0,-4.5,130.8,-155.4,-1.8,105.0,-862.5,36.3,0,1998,0,92,0,
1.1133,-30.3,8.4,69.3,-74.4,52.2,-102.0,91.8,-104.4,-3112.2,209.4,-46.2,-0.9,154.2,-185.1,-6.6,-202.8,-6.0,-4.2,128.1,-150.6,-2.1,108.6,-852.6,51.3,0,2004,0,93,0,
1.1167,-34.2,8.4,67.8,-75.9,51.6,-99.9,95.1,-105.9,-3186.3,212.7,-48.0,0.6,158.7,-189.6,-15.0,-207.3,-6.3,-3.9,128.7,-146.4,-1.8,112.8,-850.2,45.9,0,2010,0,94,0,
1.1200,-32.7,8.7,64.8,-76.8,51.0,-103.5,95.1,-108.9,-3112.2,212.7,-48.0,-3.6,160.2,-186.6,-8.1,-209.1,-5.7,-4.8,130.8,-147.6,-1.8,104.4,-853.8,52.2,0,2016,0,95,0,
1.1233,-30.3,8.7,64.2,-76.2,49.2,-103.5,98.4,-106.5,-3112.2,205.5,-50.1,-9.3,152.7,-180.9,-2.7,-206.7,-6.3,-4.5,125.7,-149.4,-1.2,98.7,-855.9,54.6,0,2022,0,96,0,
1.1267,-32.1,2.4,56.7,-81.3,47.4,-104.7,93.0,-108.6,-3038.1,200.7,-56.4,-12.9,136.8,-188.4,-2.7,-207.3,-6.3,-4.5,122.1,-151.8,-1.8,95.4,-856.8,51.9,0,2028,0,97,0,
1.1300,-33.9,-1.8,55.2,-87.6,40.2,-107.4,93.0,-114.3,-3112.2,200.4,-60.6,-14.4,130.2,-190.2,6.3,-195.0,-6.3,-4.2,120.0,-156.9,-1.8,93.9,-852.9,42.9,0,2034,0,98,0,
1.1333,-27.9,12.6,71.7,-68.1,55.5,-95.4,97.5,-101.4,-2964.0,221.1,-39.6,1.5,156.3,-183.0,-21.6,-221.4,-6.3,-4.5,140.4,-145.2,-2.1,113.4,-846.9,46.8,0,2040,0,99,0,
1.1367,-29.7,7.8,67.2,-73.5,54.0,-95.4,96.9,-105.0,-3112.2,209.1,-50.1,-4.8,158.4,-177.9,5.1,-207.3,-6.3,-4.2,132.6,-151.5,-1.8,105.9,-849.0,48.9,0,2046,0,100,0,
1.1400,-29.7,11.7,69.9,-72.3,58.2,-91.5,94.8,-107.1,-2964.0,213.9,-47.7,3.0,173.4,-181.2,-0.3,-211.5,-6.3,-4.5,134.1,-147.9,-1.8,106.2,-847.2,63.3,0,2052,0,101,0,
1.1433,-29.7,16.5,74.7,-65.4,58.5,-91.2,94.2,-102.0,-3038.1,217.5,-31.5,8.1,176.1,-186.6,-4.8,-209.1,-6.3,-4.2,141.9,-140.7,-2.1,105.6,-852.0,56.7,0,2058,0,102,0,
1.1467,-33.3,19.2,80.7,-59.7,62.1,-92.1,93.0,-99.3,-3186.3,225.9,-28.2,15.9,177.3,-190.2,-15.3,-216.9,-6.0,-4.5,145.5,-132.3,-1.8,115.8,-853.8,54.9,0,2064,0,103,0,
1.1500,-30.6,18.9,84.3,-60.3,62.1,-90.3,93.9,-98.1,-3186.3,228.3,-27.9,13.5,170.7,-187.2,-6.3,-202.5,-6.3,-4.2,147.0,-131.7,-1.5,110.1,-850.8,59.1,0,2070,0,104,0,
1.1533,-27.6,21.3,86.1,-57.3,67.8,-84.6,99.9,-96.3,-3112.2,218.4,-27.9,13.8,171.9,-182.1,-7.2,-202.5,-6.3,-4.8,146.1,-130.8,-1.5,120.9,-842.4,66.6,0,2076,0,105,0,
1.1567,-29.4,11.1,79.2,-63.6,59.1,-93.6,94.2,-103.8,-3112.2,214.2,-32.7,0.6,163.2,-183.9,1.5,-195.3,-6.3,-4.5,141.0,-140.1,-1.8,108.3,-848.1,53.4,0,2082,0,106,0,
1.1600,-25.5,18.0,79.8,-62.7,60.0,-92.4,94.8,-103.8,-2964.0,222.0,-32.4,5.4,168.9,-178.2,-0.3,-201.6,-6.0,-4.5,142.8,-137.7,-1.5,114.6,-846.9,54.9,0,2088,0,107,0,
1.1633,-24.0,19.5,84.9,-60.9,63.0,-92.7,95.4,-101.1,-3186.3,219.9,-32.7,9.3,168.0,-182.4,-7.5,-194.4,-6.6,-3.9,150.0,-135.0,-1.5,113.7,-839.7,58.5,0,2094,0,108,0,
1.1667,-21.3,22.2,81.0,-62.7,60.0,-99.6,93.6,-102.3,-3186.3,218.4,-36.9,3.3,171.3,-176.7,-1.2,-195.9,-6.0,-4.8,149.4,-141.0,-2.1,109.2,-845.7,54.0,0,2100,0,109,0,
1.1700,-21.6,24.3,79.8,-69.3,49.5,-104.7,84.6,-107.1,-2964.0,224.7,-38.4,-3.0,166.5,-171.6,-2.7,-209.1,-6.0,-4.5,144.3,-148.2,-2.1,106.2,-861.9,39.9,0,2106,0,110,0,
1.1733,-15.3,19.8,75.6,-72.9,48.6,-104.1,91.8,-108.6,-2964.0,211.8,-38.4,-5.4,171.0,-171.6,12.3,-176.4,-6.3,-4.5,141.6,-150.9,-1.8,102.9,-849.6,43.2,0,2112,0,111,0,
1.1767,-15.3,26.7,81.6,-68.1,51.9,-99.3,90.3,-104.1,-3038.1,229.2,-38.1,3.9,180.0,-171.9,1.2,-211.8,-6.6,-4.2,148.5,-144.0,-1.5,116.4,-855.6,44.1,0,2118,0,112,0,
1.1800,-19.5,23.7,75.3,-72.6,48.6,-99.0,89.4,-106.5,-3038.1,219.0,-43.2,-0.3,180.3,-170.7,2.7,-208.5,-6.3,-4.8,138.3,-148.2,-2.1,109.8,-857.1,45.6,0,2124,0,113,0,
1.1833,-15.9,27.0,81.0,-68.4,54.9,-97.2,96.0,-102.3,-3038.1,221.1,-32.7,0.0,167.1,-169.2,0.3,-197.7,-6.3,-4.5,146.7,-144.9,-1.5,105.9,-849.0,53.7,0,2130,0,114,0,
1.1867,-22.2,20.7,76.2,-72.6,52.2,-106.5,87.9,-109.5,-2889.9,226.5,-38.4,-5.7,170.4,-168.6,4.5,-197.1,-6.3,-4.2,146.4,-153.0,-1.8,108.0,-849.0,40.5,0,2136,0,115,0,
1.1900,-18.0,26.1,83.1,-67.5,54.6,-98.7,92.7,-107.1,-3038.1,234.9,-28.2,7.2,182.7,-164.7,5.1,-213.6,-6.3,-4.8,150.6,-143.7,-1.5,119.7,-858.0,53.4,0,2142,0,116,0,
1.1933,-23.1,19.2,75.3,-72.0,47.4,-104.1,88.5,-110.1,-3112.2,222.6,-39.6,-0.9,168.9,-168.9,3.3,-201.9,-6.3,-4.2,143.1,-152.4,-1.8,104.4,-854.4,51.3,0,2148,0,117,0,
1.1967,-20.7,21.0,79.2,-71.1,52.5,-100.8,88.5,-105.9,-3112.2,218.4,-53.1,-8.4,169.2,-175.8,1.2,-203.4,-5.7,-4.5,137.1,-150.3,-1.5,106.5,-856.2,48.3,0,2154,0,118,0,
1.2000,-25.5,15.3,72.6,-71.4,46.2,-106.8,87.6,-111.9,-3112.2,210.3,-54.9,-12.0,163.2,-171.9,3.9,-202.2,-6.3,-4.8,126.6,-156.0,-1.8,105.0,-861.0,41.7,0,2160,0,119,0,
1.2033,-26.1,16.8,76.5,-72.0,45.9,-106.5,89.7,-109.2,-3038.1,215.7,-46.8,-3.9,166.5,-177.0,7.2,-199.5,-6.3,-4.5,135.9,-151.5,-1.8,104.1,-855.9,49.2,0,2166,0,120,0,
1.2067,-26.1,15.3,76.2,-68.4,48.0,-110.7,84.9,-114.3,-3112.2,228.6,-33.3,4.5,169.8,-172.5,7.2,-189.0,-6.3,-4.2,147.6,-155.1,-1.8,108.3,-856.5,45.3,0,2172,0,121,0,
1.2100,-19.5,28.2,85.8,-61.5,55.5,-101.1,90.0,-105.6,-3038.1,237.0,-23.1,6.9,181.8,-163.2,-6.0,-222.0,-6.0,-4.8,160.5,-143.7,-1.8,116.7,-861.9,57.0,0,2178,0,122,0,
1.2133,-16.2,28.2,88.5,-62.1,51.0,-104.4,91.2,-108.9,-3186.3,231.9,-24.9,7.5,190.2,-157.5,5.4,-210.9,-6.3,-4.2,158.4,-147.3,-1.8,120.9,-855.9,47.4,0,2184,0,123,0,
1.2167,-13.8,31.2,90.3,-65.7,52.8,-98.7,92.7,-106.5,-3186.3,234.0,-20.4,13.5,178.5,-156.3,5.1,-204.3,-6.0,-4.8,159.9,-139.5,-1.8,119.1,-854.7,49.8,0,2190,0,124,0,
1.2200,-17.4,28.2,82.2,-69.9,44.7,-104.4,88.5,-108.9,-3112.2,233.7,-27.0,7.8,168.6,-165.0,-4.2,-204.9,-6.0,-4.5,153.6,-147.0,-1.8,109.8,-858.0,44.4,0,2196,0,125,0,
1.2233,-17.1,26.7,79.5,-70.2,46.8,-103.5,87.6,-107.7,-3038.1,229.8,-29.4,5.7,172.5,-156.3,5.1,-212.4,-6.0,-4.2,150.0,-147.0,-1.5,114.9,-860.1,54.0,0,2202,0,126,0,
1.2267,-18.3,24.3,80.1,-66.0,47.7,-107.7,93.0,-105.6,-3112.2,224.4,-27.3,5.4,166.2,-167.1,-6.0,-207.6,-6.0,-4.5,154.8,-150.3,-2.1,110.4,-854.1,53.4,0,2208,0,127,0,
1.2300,-15.6,26.1,80.4,-64.2,53.7,-103.5,96.9,-103.5,-3186.3,236.4,-27.6,5.7,176.4,-163.8,-0.9,-194.1,-6.0,-4.2,153.9,-144.0,-1.8,123.6,-856.5,56.7,0,2214,0,128,0,
1.2333,-19.2,25.2,75.9,-66.6,50.1,-104.1,96.6,-103.5,-3112.2,228.0,-39.6,-1.2,174.3,-167.4,-3.3,-187.2,-6.6,-4.2,145.8,-144.0,-1.8,116.4,-850.2,54.9,0,2220,0,129,0,
1.2367,-18.3,28.8,81.0,-63.0,53.4,-101.4,93.6,-102.0,-3038.1,223.2,-35.1,4.8,180.9,-162.6,1.5,-213.6,-6.0,-5.1,151.8,-143.7,-1.8,119.7,-858.9,60.0,0,2226,0,130,0,
1.2400,-16.2,31.8,86.7,-56.4,58.8,-99.3,92.4,-99.6,-2964.0,240.0,-22.2,12.3,178.8,-156.6,4.2,-214.2,-6.3,-4.5,157.2,-137.7,-1.8,123.9,-860.7,57.3,0,2232,0,131,0,
1.2433,-20.1,28.5,81.0,-60.6,54.3,-105.3,88.5,-104.7,-3112.2,231.6,-31.2,1.8,180.9,-158.1,6.6,-211.5,-6.3,-4.8,150.0,-143.1,-1.8,118.8,-866.7,53.7,0,2238,0,132,0,
1.2467,-18.0,26.7,79.5,-62.7,55.2,-101.1,90.9,-99.9,-3038.1,230.7,-32.4,9.0,178.8,-171.0,-6.0,-205.5,-6.6,-4.2,150.0,-140.1,-1.8,120.0,-857.1,51.6,0,2244,0,133,0,
1.2500,-21.6,22.5,75.0,-66.3,49.5,-105.3,89.4,-103.5,-3038.1,218.7,-35.4,-0.9,172.5,-173.4,3.6,-193.8,-6.3,-4.5,145.5,-147.3,-1.8,114.6,-859.5,50.1,0,2250,0,134,0,
1.2533,-21.0,24.0,80.1,-68.1,49.2,-104.4,93.3,-100.5,-2964.0,223.2,-35.7,-1.2,169.5,-171.9,3.9,-200.7,-6.3,-4.2,150.3,-150.6,-1.8,108.6,-862.5,57.0,0,2256,0,135,0,
1.2567,-20.7,26.4,79.2,-67.8,50.7,-106.5,90.9,-101.4,-3038.1,222.3,-37.8,-5.4,164.7,-173.1,-3.0,-209.7,-6.3,-4.5,146.7,-151.8,-1.8,105.9,-866.4,42.3,0,2262,0,136,0,
1.2600,-24.0,21.3,78.9,-69.9,52.5,-105.6,94.2,-101.4,-3038.1,216.3,-41.4,-5.7,156.9,-180.6,-4.2,-213.9,-6.3,-4.5,137.7,-153.9,-1.8,105.6,-873.3,45.0,0,2268,0,137,0,
1.2633,-24.6,21.0,74.1,-68.7,48.0,-101.4,93.6,-99.9,-3112.2,208.5,-40.5,-2.1,163.8,-168.0,4.8,-205.8,-6.3,-4.2,140.1,-153.0,-2.1,106.2,-868.8,43.8,0,2274,0,138,0,
1.2667,-26.4,23.1,78.6,-64.8,48.6,-102.6,96.3,-96.9,-3038.1,219.6,-40.2,3.3,172.2,-184.2,-4.2,-203.4,-6.3,-4.2,142.5,-151.8,-1.8,102.9,-865.5,48.3,0,2280,0,139,0,
1.2700,-24.6,25.5,81.0,-63.6,54.6,-101.7,97.2,-93.9,-2889.9,213.9,-35.1,0.9,166.2,-180.0,-6.9,-219.3,-6.0,-4.5,146.1,-149.4,-1.8,105.3,-870.9,50.1,0,2286,0,140,0,
1.2733,-22.5,26.4,80.4,-66.0,52.8,-98.4,98.1,-92.1,-3038.1,215.1,-36.0,4.8,162.6,-183.9,-9.0,-212.4,-6.3,-4.5,145.5,-146.1,-1.8,99.9,-863.7,54.0,0,2292,0,141,0,
1.2767,-29.1,18.9,74.7,-70.5,46.2,-105.9,92.7,-98.7,-2964.0,210.0,-37.5,2.7,155.4,-186.3,-12.3,-206.4,-6.6,-4.2,142.8,-151.5,-2.1,94.2,-861.6,47.7,0,2298,0,142,0,
1.2800,-27.6,17.1,71.4,-72.9,42.0,-108.6,89.4,-103.2,-3038.1,208.5,-42.0,-6.3,156.9,-181.8,-10.2,-219.0,-6.3,-4.5,135.6,-156.6,-1.8,99.9,-867.0,47.4,0,2304,0,143,0,
1.2833,-29.1,17.4,68.4,-73.5,39.3,-113.1,87.9,-105.0,-3112.2,204.0,-44.4,-11.1,156.3,-188.1,-7.5,-217.2,-6.0,-4.2,136.2,-157.5,-1.8,93.6,-868.2,42.0,0,2310,0,144,0,
1.2867,-24.3,20.4,70.8,-71.4,46.2,-111.3,88.5,-103.2,-3038.1,202.8,-40.2,-7.2,155.7,-182.1,0.0,-214.5,-6.3,-4.5,136.2,-156.0,-1.8,100.2,-858.9,41.1,0,2316,0,145,0,
1.2900,-28.5,19.8,69.0,-70.2,43.2,-107.4,90.6,-100.5,-2964.0,206.4,-46.8,-11.4,157.5,-183.6,-11.4,-213.3,-6.3,-4.5,133.2,-158.1,-2.1,94.2,-857.1,43.5,0,2322,0,146,0,
1.2933,-26.7,17.4,66.3,-72.0,45.0,-108.0,91.2,-100.8,-3038.1,204.3,-49.2,-12.3,154.5,-188.7,-12.9,-217.5,-6.3,-4.5,134.7,-158.7,-1.8,99.9,-859.2,43.2,0,2328,0,147,0,
1.2967,-28.5,18.3,70.8,-72.9,47.4,-106.2,91.2,-101.7,-3038.1,212.4,-45.3,-0.3,159.3,-185.1,-8.1,-223.2,-6.0,-4.5,138.9,-151.8,-1.8,108.0,-866.7,42.3,0,2334,0,148,0,
1.3000,-29.1,20.1,68.7,-70.2,48.9,-103.5,88.5,-102.3,-3186.3,208.2,-43.5,1.5,165.0,-185.1,-8.4,-214.8,-6.3,-4.5,141.3,-149.1,-2.1,105.3,-862.5,40.8,0,2340,0,149,0,
1.3033,-28.5,20.1,70.2,-68.4,52.5,-96.3,94.2,-102.3,-2964.0,221.1,-41.1,-0.9,156.9,-179.1,-6.9,-211.8,-6.3,-4.5,140.1,-151.5,-1.8,114.6,-855.3,54.0,0,2346,0,150,0,
1.3067,-28.5,16.5,69.0,-72.3,49.2,-102.6,94.8,-105.9,-2964.0,212.1,-42.9,-8.1,157.5,-186.0,-4.8,-201.3,-6.6,-4.5,142.2,-151.5,-1.5,102.0,-855.6,57.9,0,2352,0,151,0,
1.3100,-32.1,16.2,66.6,-73.8,49.2,-102.6,97.5,-105.9,-2964.0,209.1,-45.9,-4.2,164.7,-178.2,3.6,-195.9,-6.0,-4.5,139.2,-153.6,-1.8,107.1,-849.0,62.7,0,2358,0,152,0,
1.3133,-35.4,16.8,72.0,-70.2,51.3,-98.1,96.3,-102.9,-3112.2,214.8,-41.7,0.9,161.1,-177.0,0.0,-204.3,-6.0,-4.5,139.5,-150.9,-1.8,100.8,-857.1,57.6,0,2364,0,153,0,
1.3167,-36.6,13.2,71.4,-66.9,56.1,-94.5,96.0,-104.1,-2964.0,214.2,-40.2,-1.2,159.9,-185.4,-3.3,-190.2,-6.0,-4.2,140.7,-148.8,-2.1,105.0,-851.1,54.3,0,2370,0,154,0,
1.3200,-36.9,12.0,68.7,-66.3,56.7,-96.9,94.5,-103.2,-2964.0,212.4,-41.4,-4.8,164.1,-188.1,-10.2,-204.0,-6.3,-4.8,142.2,-148.2,-1.8,105.3,-856.5,54.0,0,2376,0,155,0,
1.3233,-42.6,5.7,63.0,-73.5,52.8,-96.9,92.4,-107.4,-2964.0,206.1,-50.7,-9.6,149.7,-193.8,-8.4,-203.1,-6.3,-4.5,133.2,-151.8,-2.1,100.5,-859.5,56.1,0,2382,0,156,0,
1.3267,-38.7,8.1,65.1,-69.3,52.8,-96.6,94.8,-102.0,-2964.0,202.8,-48.0,-6.0,145.2,-191.4,-12.3,-206.4,-6.0,-4.5,134.1,-156.9,-1.5,102.0,-858.9,52.5,0,2388,0,157,0,
1.3300,-40.5,5.1,67.2,-74.7,51.3,-101.1,88.8,-107.4,-3112.2,198.6,-49.2,-8.7,148.2,-188.1,-7.5,-219.6,-6.3,-4.5,131.4,-158.4,-2.1,99.9,-860.4,51.0,0,2394,0,158,0,
1.3333,-37.2,9.0,72.0,-69.9,54.6,-94.8,91.5,-103.8,-3112.2,210.3,-42.9,1.5,153.0,-189.9,-13.5,-225.9,-6.0,-4.5,141.3,-155.7,-1.5,103.5,-860.7,49.2,0,2400,0,159,0,
1.3367,-39.9,7.2,67.2,-75.3,51.9,-96.9,93.6,-106.8,-2889.9,204.9,-45.3,-1.5,151.8,-194.4,-11.1,-213.9,-6.3,-4.5,137.4,-158.1,-1.8,102.3,-858.9,45.9,0,2406,0,160,0,
1.3400,-36.6,8.4,68.7,-73.5,53.4,-96.0,96.6,-103.8,-3038.1,209.1,-38.7,0.0,149.7,-190.5,-9.6,-214.2,-6.0,-4.2,141.9,-152.7,-2.1,102.6,-858.9,49.5,0,2412,0,161,0,
1.3433,-38.4,9.3,66.9,-74.1,50.7,-101.7,93.6,-108.6,-2964.0,210.6,-36.9,-0.3,150.3,-190.2,-14.7,-222.0,-6.3,-5.1,138.9,-150.0,-1.8,102.3,-860.7,53.1,0,2418,0,162,0,
1.3467,-36.3,7.2,66.3,-72.0,50.4,-98.4,92.1,-106.5,-3112.2,203.4,-42.6,-9.0,139.8,-187.8,-0.3,-217.2,-6.0,-4.5,137.7,-152.4,-1.5,99.9,-858.9,56.7,0,2424,0,163,0,
1.3500,-35.7,9.9,70.5,-69.0,52.8,-101.4,92.1,-101.4,-3038.1,209.4,-40.8,-3.9,141.9,-188.4,3.9,-220.8,-6.3,-4.8,140.4,-151.8,-1.5,97.8,-861.9,50.7,0,2430,0,164,0,
1.3533,-38.1,7.5,73.5,-64.5,54.6,-98.7,95.1,-100.5,-3038.1,211.5,-34.2,7.8,153.3,-194.7,-8.1,-210.9,-6.0,-4.2,146.7,-143.7,-1.8,102.9,-855.9,54.3,0,2436,0,165,0,
1.3567,-38.1,11.7,73.5,-63.9,57.6,-101.7,99.3,-103.2,-2815.8,205.8,-35.4,7.2,155.7,-198.0,-12.0,-208.2,-6.3,-4.2,144.0,-143.7,-1.5,101.1,-849.6,51.9,0,2442,0,166,0,
1.3600,-40.5,10.8,73.5,-65.4,58.5,-99.6,95.7,-100.8,-2964.0,208.2,-31.8,3.3,153.0,-190.8,-16.8,-217.8,-6.0,-4.2,141.9,-146.4,-1.8,104.4,-850.2,61.2,0,2448,0,167,0,
1.3633,-40.8,5.7,66.0,-68.4,50.4,-105.0,91.8,-106.2,-3186.3,204.6,-40.5,0.3,155.4,-190.2,-3.6,-207.9,-6.3,-4.5,135.3,-149.4,-1.8,101.1,-851.4,52.5,0,2454,0,168,0,
1.3667,-40.8,11.7,70.8,-69.6,54.9,-102.3,94.8,-104.1,-3038.1,208.8,-42.3,-0.6,159.3,-186.0,-3.3,-202.5,-6.3,-4.5,139.5,-149.7,-1.8,104.1,-849.9,59.1,0,2460,0,169,0,
1.3700,-38.7,14.7,77.1,-65.4,57.6,-99.3,90.9,-102.6,-2964.0,213.0,-38.7,-1.8,159.3,-184.2,-6.6,-217.8,-6.3,-4.2,142.8,-148.2,-1.8,105.3,-856.5,61.2,0,2466,0,170,0,
1.3733,-39.6,10.8,79.5,-63.6,60.9,-99.3,91.2,-100.8,-2964.0,211.2,-35.7,-4.2,162.0,-190.8,-11.4,-196.8,-6.3,-4.2,147.0,-149.7,-1.5,107.7,-849.9,59.4,0,2472,0,171,0,
1.3767,-36.0,15.9,84.3,-62.1,63.6,-94.2,92.7,-99.0,-2964.0,219.3,-32.7,1.2,167.7,-185.4,-17.7,-208.5,-6.3,-4.5,150.3,-144.0,-1.5,109.2,-851.4,55.5,0,2478,0,172,0,
1.3800,-34.5,17.4,81.3,-61.5,61.2,-91.8,96.6,-98.4,-2964.0,212.4,-34.5,3.3,165.9,-182.1,-11.7,-204.3,-6.0,-4.8,146.4,-147.3,-1.8,111.3,-846.6,58.2,0,2484,0,173,0,
1.3833,-34.8,20.1,83.7,-56.7,65.1,-88.2,96.6,-96.9,-3038.1,219.6,-30.3,11.4,161.1,-184.8,-8.1,-207.3,-6.3,-4.5,145.8,-138.3,-1.8,119.1,-847.2,68.7,0,2490,0,174,0,
1.3867,-35.7,17.1,81.9,-60.6,61.5,-90.0,93.9,-101.7,-2964.0,220.8,-26.7,9.9,167.4,-181.5,-8.7,-213.0,-6.6,-4.8,148.8,-146.1,-1.8,109.8,-852.6,68.1,0,2496,0,175,0,
1.3900,-36.3,18.0,84.6,-59.1,62.4,-90.9,96.6,-97.8,-2889.9,215.7,-29.4,7.2,173.4,-184.8,-12.9,-206.4,-6.3,-4.5,147.0,-145.5,-1.5,115.5,-848.1,70.2,0,2502,0,176,0,
1.3933,-34.8,17.4,85.5,-59.4,61.5,-89.7,100.5,-100.8,-2889.9,214.8,-35.1,0.9,162.9,-181.2,-6.6,-205.2,-6.0,-4.8,146.1,-141.9,-1.8,104.7,-849.0,65.1,0,2508,0,177,0,
1.3967,-33.9,14.4,81.0,-63.6,63.9,-94.5,99.3,-96.6,-2964.0,208.5,-39.0,0.0,153.0,-181.2,-4.5,-201.3,-6.0,-4.2,149.7,-146.1,-1.5,108.9,-843.6,59.7,0,2514,0,178,0,
1.4000,-34.8,13.2,77.4,-63.3,58.5,-95.4,100.5,-97.8,-2889.9,214.2,-38.4,3.6,150.6,-180.3,-5.4,-183.0,-6.0,-4.2,149.7,-143.4,-2.1,95.4,-837.0,60.3,0,2520,0,179,0,
1.4033,-33.9,11.1,78.0,-63.3,57.0,-93.6,103.8,-98.4,-2889.9,207.9,-36.6,0.6,156.0,-177.3,0.9,-189.3,-6.0,-4.5,147.6,-147.0,-1.5,103.8,-839.1,64.8,0,2526,0,180,0,
1.4067,-30.0,15.0,81.3,-63.9,60.0,-90.6,98.4,-100.5,-2889.9,216.3,-31.5,4.5,171.0,-167.1,6.6,-205.8,-6.0,-4.2,154.8,-143.7,-1.8,101.7,-850.5,62.4,0,2532,0,181,0,
1.4100,-24.9,18.6,85.8,-58.8,65.7,-87.0,99.0,-92.7,-3038.1,221.7,-26.4,14.4,171.9,-171.9,-9.9,-225.3,-6.6,-4.8,159.3,-139.2,-1.8,119.4,-853.8,65.4,0,2538,0,182,0,
1.4133,-23.1,16.2,81.6,-63.9,59.1,-92.7,94.2,-94.5,-3038.1,225.6,-27.9,5.4,167.7,-173.4,-11.7,-217.2,-6.3,-4.2,157.2,-144.9,-2.1,106.2,-849.6,65.7,0,2544,0,183,0,
1.4167,-26.7,15.6,83.4,-65.4,63.3,-100.2,93.3,-96.6,-3112.2,217.5,-31.5,6.3,168.0,-169.2,-7.2,-213.3,-6.6,-4.5,150.0,-146.1,-1.8,108.6,-849.0,60.0,0,2550,0,184,0,
1.4200,-29.7,17.4,79.8,-67.5,57.9,-105.6,89.4,-99.6,-2889.9,213.9,-33.9,-6.9,168.9,-165.9,-0.3,-209.7,-6.0,-4.5,149.7,-155.7,-1.8,99.9,-853.8,57.3,0,2556,0,185,0,
1.4233,-26.7,23.4,84.0,-60.6,62.1,-103.5,91.2,-96.0,-2964.0,222.6,-31.5,3.3,174.3,-165.0,-8.7,-231.0,-6.3,-3.9,151.8,-149.1,-1.8,103.2,-860.1,59.1,0,2562,0,186,0,
1.4267,-28.5,18.0,80.1,-64.2,54.3,-105.0,87.9,-96.9,-3038.1,218.1,-30.3,6.0,170.7,-168.3,-8.1,-219.9,-6.3,-4.2,150.6,-150.3,-1.8,104.7,-858.0,56.4,0,2568,0,187,0,
1.4300,-27.6,18.6,83.1,-67.5,54.9,-105.9,87.0,-96.3,-3038.1,225.9,-31.5,12.6,171.9,-176.1,-5.1,-204.6,-6.0,-4.5,149.1,-145.5,-2.4,101.4,-858.9,58.2,0,2574,0,188,0,
1.4333,-28.5,19.2,81.9,-66.0,57.9,-104.4,90.6,-95.7,-3112.2,221.4,-29.1,9.6,165.9,-176.4,-14.1,-214.2,-6.0,-4.8,155.4,-147.0,-1.5,108.3,-857.7,57.6,0,2580,0,189,0,
1.4367,-26.4,17.4,76.8,-65.4,54.6,-104.4,86.4,-98.7,-3112.2,218.4,-35.1,2.7,166.8,-171.0,0.9,-208.2,-6.0,-4.5,150.3,-147.3,-1.8,105.0,-864.3,54.6,0,2586,0,190,0,
1.4400,-26.4,15.0,78.0,-65.4,55.5,-107.7,88.8,-101.4,-2964.0,217.5,-32.1,4.2,162.3,-171.6,0.0,-213.9,-6.3,-4.5,152.4,-148.2,-2.1,109.8,-863.1,55.5,0,2592,0,191,0,
1.4433,-30.6,14.4,76.5,-65.1,57.6,-99.9,89.4,-102.0,-3112.2,215.1,-26.1,10.2,163.5,-180.3,-1.8,-204.0,-6.0,-4.8,155.1,-144.6,-1.8,111.6,-859.5,58.5,0,2598,0,192,0,
1.4467,-31.8,9.9,72.0,-68.1,55.2,-96.3,91.8,-103.5,-3260.4,211.2,-32.7,4.5,156.9,-180.3,-5.1,-207.6,-6.0,-4.2,146.7,-147.0,-1.8,111.3,-851.4,64.8,0,2604,0,193,0,
1.4500,-34.2,14.4,77.7,-66.0,57.9,-94.8,89.7,-99.6,-3038.1,223.2,-28.5,4.5,166.2,-180.9,-14.1,-220.5,-6.3,-4.5,151.2,-140.7,-2.1,111.6,-860.7,65.7,0,2610,0,194,0,
1.4533,-35.7,10.2,69.3,-70.5,51.9,-97.8,90.0,-106.2,-3112.2,211.8,-45.6,-3.9,157.5,-181.5,-1.5,-207.9,-6.0,-4.5,138.3,-152.7,-1.8,104.7,-860.4,59.4,0,2616,0,195,0,
1.4567,-36.3,9.6,70.8,-70.8,49.8,-101.4,89.1,-105.6,-3112.2,219.6,-43.5,1.8,157.5,-178.2,-3.0,-202.5,-6.0,-4.5,139.8,-151.2,-1.8,105.0,-860.4,58.5,0,2622,0,196,0,
1.4600,-39.0,5.1,71.1,-74.7,51.6,-102.6,92.4,-106.5,-3112.2,213.6,-39.6,4.8,156.3,-179.4,-2.1,-194.1,-6.3,-5.1,143.1,-148.2,-1.8,104.1,-853.5,58.5,0,2628,0,197,0,
1.4633,-38.1,8.7,75.3,-74.7,51.0,-104.1,92.4,-108.6,-3112.2,220.8,-27.3,6.9,160.2,-178.8,-5.4,-190.2,-6.3,-4.2,155.4,-151.8,-1.8,108.9,-852.0,60.9,0,2634,0,198,0,
1.4667,-39.3,8.7,78.3,-73.2,50.7,-100.5,95.4,-105.9,-3186.3,215.7,-26.4,3.3,159.6,-179.7,5.4,-192.0,-6.3,-4.5,157.5,-150.6,-1.8,106.2,-853.5,56.7,0,2640,0,199,0,
1.4700,-39.3,10.8,78.3,-75.0,51.6,-95.4,96.6,-104.1,-3186.3,209.4,-29.7,-1.5,156.6,-184.8,-3.3,-192.6,-6.3,-4.8,159.3,-151.8,-1.8,99.3,-850.5,54.0,0,2646,0,200,0,
1.4733,-39.6,11.7,81.3,-74.1,55.5,-97.8,96.3,-103.5,-3112.2,213.0,-29.7,3.6,149.4,-189.9,-4.5,-209.1,-6.0,-4.8,157.8,-150.9,-1.5,101.1,-857.7,52.5,0,2652,0,201,0,
1.4767,-33.6,18.3,86.7,-70.2,59.4,-94.8,100.2,-99.9,-3112.2,216.3,-14.4,10.8,156.9,-185.7,-8.1,-207.9,-5.7,-4.8,167.1,-141.3,-1.8,107.4,-852.9,55.5,0,2658,0,202,0,
1.4800,-39.9,7.5,76.8,-75.9,56.7,-98.4,98.1,-105.6,-3186.3,214.8,-22.8,3.6,155.7,-187.2,-0.9,-197.4,-5.7,-4.8,156.3,-144.9,-1.5,103.2,-856.8,58.2,0,2664,0,203,0,
1.4833,-39.0,7.8,75.6,-78.0,56.1,-98.7,101.4,-108.0,-3186.3,212.7,-30.9,3.0,161.1,-187.8,-5.7,-201.0,-6.3,-3.9,153.9,-147.6,-1.8,104.1,-857.1,61.2,0,2670,0,204,0,
1.4867,-37.2,5.1,76.5,-79.5,51.9,-101.1,102.0,-108.3,-3038.1,204.9,-33.6,0.9,159.9,-189.0,-7.8,-198.0,-6.3,-4.2,143.7,-148.5,-1.8,99.3,-851.1,53.4,0,2676,0,205,0,
1.4900,-39.3,7.2,76.5,-78.3,53.7,-95.4,101.1,-103.8,-3112.2,215.4,-31.2,-3.9,162.9,-192.6,-9.9,-203.1,-6.0,-4.2,154.2,-150.3,-2.1,99.9,-853.5,56.1,0,2682,0,206,0,
1.4933,-39.6,7.2,80.4,-72.6,56.7,-92.7,99.9,-100.2,-3186.3,216.6,-25.2,9.9,163.5,-192.6,-11.4,-196.2,-6.3,-4.5,156.3,-145.2,-1.8,106.5,-848.1,57.0,0,2688,0,207,0,
1.4967,-41.1,4.5,75.6,-75.0,54.3,-97.5,96.9,-101.7,-3186.3,211.2,-30.3,7.5,159.6,-196.5,-12.3,-194.1,-6.0,-4.8,153.9,-147.6,-1.8,100.5,-846.3,45.0,0,2694,0,208,0,
1.5000,-38.7,7.2,76.5,-76.2,56.1,-98.7,93.0,-104.1,-3186.3,210.6,-30.3,1.8,162.9,-191.4,-9.3,-204.6,-6.3,-4.2,156.9,-147.3,-1.5,102.6,-849.3,46.5,0,2700,0,209,0,
1.5033,-33.6,13.2,80.7,-74.1,56.1,-96.3,96.3,-99.9,-3112.2,216.6,-29.7,-0.3,170.7,-190.5,-13.5,-198.9,-6.6,-5.1,159.3,-145.5,-1.8,93.6,-845.7,53.4,0,2706,0,210,0,
1.5067,-35.4,10.2,75.6,-77.7,52.8,-105.0,96.9,-104.1,-3186.3,208.5,-39.0,-2.4,161.7,-191.7,-6.0,-184.8,-6.3,-4.2,150.6,-153.6,-1.5,100.2,-843.3,55.2,0,2712,0,211,0,
1.5100,-27.9,16.2,85.8,-68.1,58.5,-94.5,96.6,-98.1,-3112.2,220.8,-27.0,10.8,165.9,-183.0,-7.2,-195.9,-6.3,-4.5,161.4,-143.7,-2.1,108.0,-841.5,60.3,0,2718,0,212,0,
1.5133,-31.8,17.4,77.4,-71.1,55.8,-99.6,92.1,-102.6,-3260.4,226.2,-28.8,8.1,164.1,-181.5,-3.0,-197.4,-6.3,-4.8,160.5,-146.7,-1.5,110.1,-842.7,58.2,0,2724,0,213,0,
1.5167,-27.9,21.3,82.8,-69.3,59.7,-93.9,92.4,-99.6,-3260.4,225.6,-19.5,6.3,166.8,-175.2,-3.6,-207.0,-6.3,-4.8,165.0,-145.2,-1.5,113.1,-841.8,62.4,0,2730,0,214,0,
1.5200,-28.2,23.4,84.6,-65.7,65.4,-91.2,97.8,-99.6,-3260.4,226.8,-18.0,13.2,173.7,-173.7,-3.6,-206.7,-6.6,-4.5,167.7,-139.8,-1.5,108.0,-847.8,71.4,0,2736,0,215,0,
1.5233,-28.5,19.5,84.3,-67.8,64.5,-91.5,94.8,-97.2,-2964.0,224.4,-19.5,12.6,173.4,-176.7,-6.9,-199.5,-6.3,-4.5,163.8,-144.3,-1.5,114.0,-843.6,67.5,0,2742,0,216,0,
1.5267,-29.4,22.5,81.9,-66.6,65.1,-87.9,94.5,-97.8,-3186.3,232.5,-18.6,15.6,167.7,-172.8,-0.6,-204.3,-6.3,-4.5,165.9,-138.0,-1.8,114.0,-850.2,57.6,0,2748,0,217,0,
1.5300,-32.7,17.4,79.2,-73.8,61.5,-93.0,93.3,-100.8,-3186.3,224.1,-27.0,1.5,163.8,-176.4,-1.8,-196.5,-6.3,-4.5,158.4,-152.1,-1.8,108.9,-852.9,53.4,0,2754,0,218,0,
1.5333,-30.0,14.4,75.3,-74.1,57.3,-96.6,92.7,-101.1,-3260.4,225.3,-32.4,-1.8,164.4,-173.7,6.9,-185.7,-6.3,-4.5,155.4,-151.2,-2.1,105.0,-852.0,51.9,0,2760,0,219,0,
1.5367,-26.4,15.6,82.2,-69.9,57.9,-95.4,93.3,-101.7,-3112.2,231.6,-23.7,6.9,167.7,-168.9,5.1,-200.7,-6.6,-4.5,159.3,-146.4,-1.8,106.5,-854.7,58.2,0,2766,0,220,0,
1.5400,-29.1,19.5,84.0,-70.8,59.7,-92.4,93.6,-101.4,-3038.1,238.8,-21.0,15.0,174.3,-167.7,4.8,-204.6,-6.0,-4.8,162.6,-138.3,-2.1,113.4,-857.4,54.0,0,2772,0,221,0,
1.5433,-35.7,16.8,80.1,-76.8,53.1,-100.2,92.7,-108.9,-3186.3,228.6,-30.9,1.8,168.6,-168.6,8.7,-194.4,-6.3,-4.5,155.7,-147.3,-1.2,112.2,-852.3,46.5,0,2778,0,222,0,
1.5467,-34.2,16.8,80.4,-73.2,52.2,-98.4,92.7,-108.0,-3186.3,226.8,-25.2,2.4,159.9,-173.7,7.5,-196.5,-6.3,-4.5,156.3,-150.3,-1.5,106.2,-856.8,52.5,0,2784,0,223,0,
1.5500,-36.3,17.4,80.1,-74.4,52.5,-101.1,92.7,-107.1,-3186.3,225.6,-24.9,3.3,166.2,-174.9,13.5,-188.4,-6.3,-4.5,159.3,-147.9,-1.5,113.1,-849.0,54.6,0,2790,0,224,0,
1.5533,-33.0,18.9,83.7,-72.9,53.4,-100.8,96.6,-106.5,-3260.4,229.5,-24.9,7.2,168.6,-174.0,10.2,-181.5,-6.6,-4.5,158.7,-143.1,-2.1,115.8,-848.4,55.2,0,2796,0,225,0,
1.5567,-35.1,18.9,83.1,-72.0,53.7,-98.7,96.0,-105.9,-3112.2,223.2,-26.1,0.9,173.4,-166.5,4.8,-181.2,-6.0,-4.5,156.9,-144.3,-2.1,112.2,-851.1,55.8,0,2802,0,226,0,
1.5600,-33.9,17.4,81.6,-69.6,58.5,-96.3,98.7,-103.8,-3260.4,217.5,-27.3,3.3,177.0,-172.5,-0.6,-191.7,-6.6,-4.5,155.7,-142.5,-1.5,113.1,-850.8,52.8,0,2808,0,227,0,
1.5633,-31.8,20.4,84.9,-68.7,58.8,-96.3,95.4,-103.5,-3260.4,230.4,-24.9,3.9,177.3,-166.8,6.3,-193.5,-6.3,-4.8,161.4,-145.2,-2.4,111.9,-856.5,52.8,0,2814,0,228,0,
1.5667,-33.9,16.8,79.5,-72.6,53.7,-98.7,99.9,-109.2,-3334.5,224.1,-33.0,-2.7,166.2,-170.4,4.2,-180.3,-6.0,-4.2,153.6,-151.5,-1.8,102.6,-842.1,55.8,0,2820,0,229,0,
1.5700,-29.7,24.6,86.7,-65.4,66.0,-91.2,96.6,-101.7,-3260.4,239.1,-23.7,12.6,174.6,-164.1,-3.3,-214.5,-6.3,-4.5,162.0,-137.1,-1.5,118.8,-858.6,60.0,0,2826,0,230,0,
1.5733,-30.0,17.7,81.9,-72.3,57.9,-93.0,95.4,-103.8,-3186.3,226.5,-28.8,5.1,173.4,-164.4,10.8,-189.0,-6.0,-4.5,150.6,-143.4,-1.8,98.1,-853.5,39.9,0,2832,0,231,0,
1.5767,-35.7,12.6,72.0,-80.1,51.9,-97.8,93.0,-108.9,-3186.3,217.2,-38.4,-9.3,181.5,-173.1,3.3,-187.5,-6.0,-4.8,145.5,-154.8,-2.1,99.9,-858.3,41.7,0,2838,0,232,0,
1.5800,-30.6,19.5,77.7,-75.9,57.3,-99.0,94.5,-104.4,-3334.5,214.5,-31.2,0.9,173.7,-167.7,-3.6,-203.1,-6.0,-4.2,151.2,-146.7,-1.8,102.3,-852.6,50.7,0,2844,0,233,0,
1.5833,-30.3,21.0,78.3,-71.7,56.1,-99.0,94.2,-105.0,-3260.4,228.0,-25.2,10.2,166.8,-170.4,-8.7,-200.1,-6.3,-4.5,158.4,-147.9,-1.8,113.7,-853.5,51.0,0,2850,0,234,0,
1.5867,-32.7,15.6,71.7,-77.7,50.4,-106.2,95.1,-107.1,-3186.3,224.4,-34.2,-1.5,165.9,-169.5,1.5,-185.7,-6.0,-4.2,152.1,-155.4,-2.1,102.3,-849.9,48.0,0,2856,0,235,0,
1.5900,-32.1,11.4,71.7,-78.3,56.4,-99.9,94.5,-109.2,-3112.2,216.0,-30.3,1.8,167.7,-167.1,3.9,-192.3,-6.0,-4.8,150.6,-150.3,-1.8,106.2,-853.8,40.8,0,2862,0,236,0,
1.5933,-28.2,15.6,71.4,-76.8,54.6,-100.5,93.0,-108.3,-3186.3,217.2,-32.4,0.3,169.2,-174.6,-6.0,-192.6,-6.3,-4.5,148.5,-150.3,-2.1,96.9,-854.7,47.4,0,2868,0,237,0,
1.5967,-30.3,11.4,67.5,-77.1,48.3,-103.2,97.2,-105.9,-3260.4,207.3,-35.1,-2.7,170.7,-173.7,-0.9,-189.0,-6.3,-4.5,148.8,-153.6,-2.1,96.3,-851.1,49.2,0,2874,0,238,0,
1.6000,-31.5,7.2,63.3,-81.9,42.3,-107.1,94.5,-114.6,-3334.5,209.7,-36.9,-4.2,159.9,-177.3,0.0,-194.7,-6.0,-4.8,148.2,-160.2,-2.1,97.5,-855.3,43.2,0,2880,0,239,0,
1.6033,-32.7,7.5,61.2,-83.7,44.1,-104.7,91.8,-112.2,-3186.3,203.1,-43.8,-10.2,150.6,-181.2,-8.4,-198.6,-6.6,-4.8,143.7,-158.1,-1.8,90.3,-857.1,47.7,0,2886,0,240,0,
1.6067,-33.9,5.4,63.9,-79.8,45.9,-103.5,90.0,-109.8,-3186.3,206.4,-44.7,-11.1,150.3,-184.2,-11.7,-204.6,-5.7,-4.5,143.1,-155.1,-1.5,94.5,-856.2,35.7,0,2892,0,241,0,
1.6100,-35.1,5.7,62.1,-84.3,40.8,-105.0,92.1,-112.2,-3260.4,206.1,-39.6,-9.6,157.2,-174.0,6.6,-194.7,-6.6,-4.5,144.9,-157.5,-1.8,90.9,-855.6,32.1,0,2898,0,242,0,
1.6133,-31.2,6.6,68.1,-79.2,50.1,-105.6,90.3,-109.2,-3260.4,216.0,-33.9,-2.1,156.3,-180.6,-7.8,-200.7,-6.3,-4.2,149.7,-150.6,-1.5,104.7,-849.3,53.1,0,2904,0,243,0,
1.6167,-37.8,3.0,60.6,-83.1,42.6,-108.9,91.5,-114.9,-3334.5,210.0,-42.3,-12.3,146.7,-184.8,-6.3,-182.7,-6.3,-4.8,144.0,-158.7,-1.8,99.0,-840.6,49.5,0,2910,0,244,0,
1.6200,-37.2,6.3,67.2,-79.2,48.0,-101.7,86.7,-114.3,-3260.4,213.3,-40.2,-6.9,159.0,-184.8,-5.4,-187.5,-6.0,-4.5,148.5,-152.1,-1.8,107.1,-840.0,54.3,0,2916,0,245,0,
1.6233,-34.5,7.2,70.5,-78.0,49.8,-102.9,87.0,-109.8,-3112.2,213.6,-32.7,0.3,176.7,-177.6,0.3,-208.8,-6.3,-4.5,147.9,-148.2,-2.4,99.9,-851.7,58.8,0,2922,0,246,0,
1.6267,-32.4,9.9,73.5,-76.5,55.8,-98.1,90.9,-106.8,-3260.4,217.2,-33.9,1.5,161.4,-181.2,-8.1,-204.9,-6.0,-4.5,151.8,-143.4,-1.8,108.9,-847.2,55.5,0,2928,0,247,0,
1.6300,-39.3,5.4,69.6,-76.5,53.7,-97.8,89.1,-110.4,-3334.5,220.8,-34.8,-0.3,153.9,-181.8,-8.1,-195.6,-6.0,-4.8,149.7,-145.2,-1.8,105.6,-846.3,54.6,0,2934,0,248,0,
1.6333,-38.7,5.1,71.1,-79.2,54.3,-95.1,93.3,-108.3,-3260.4,216.0,-37.8,-5.7,159.0,-183.3,-7.8,-194.4,-6.0,-4.5,151.8,-146.4,-1.5,101.1,-848.1,58.8,0,2940,0,249,0,
1.6367,-34.8,7.5,75.0,-76.5,53.4,-95.1,94.8,-106.8,-3260.4,214.8,-35.4,3.9,162.3,-174.3,0.0,-200.1,-6.3,-4.8,152.4,-146.7,-1.5,98.4,-847.5,51.6,0,2946,0,250,0,
1.6400,-39.3,7.8,76.5,-72.6,58.8,-92.7,87.9,-106.8,-3260.4,218.7,-34.2,5.1,164.4,-184.5,-13.2,-211.8,-6.0,-4.5,153.9,-140.1,-1.5,108.3,-849.6,51.9,0,2952,0,251,0,
1.6433,-36.0,9.3,76.8,-70.5,59.1,-90.3,93.6,-106.5,-3260.4,216.0,-30.6,0.9,162.3,-183.9,-7.5,-198.9,-6.3,-4.5,154.8,-141.3,-2.1,107.1,-849.3,62.7,0,2958,0,252,0,
1.6467,-39.6,12.0,78.3,-73.5,60.3,-85.8,92.1,-107.4,-3408.6,212.4,-25.2,-3.6,164.1,-186.6,-5.7,-189.3,-6.0,-4.8,159.9,-141.0,-1.8,103.2,-857.1,58.2,0,2964,0,253,0,
1.6500,-38.7,14.4,81.6,-70.8,63.6,-87.3,96.6,-107.4,-3260.4,216.9,-21.6,4.2,168.9,-185.7,-18.0,-209.1,-6.3,-4.5,162.9,-144.3,-1.8,105.9,-854.1,56.4,0,2970,0,254,0,
1.6533,-38.1,12.9,82.2,-64.5,63.9,-87.6,93.3,-103.8,-3186.3,217.5,-22.5,8.1,164.4,-184.2,-14.1,-212.4,-6.0,-4.8,162.3,-141.0,-1.8,107.1,-849.3,60.6,0,2976,0,255,0,
1.6567,-32.7,14.7,81.9,-65.1,62.1,-89.4,97.8,-103.5,-3186.3,218.7,-23.1,10.5,166.2,-181.8,-5.1,-198.3,-6.3,-4.5,162.6,-134.7,-1.5,115.2,-843.9,46.2,0,2982,0,0,0,
1.6600,-39.0,9.6,74.4,-70.8,58.2,-88.2,90.3,-110.7,-3334.5,213.0,-29.1,6.6,151.8,-181.8,-2.7,-205.2,-6.3,-4.8,156.3,-140.7,-2.1,101.7,-853.8,52.5,0,2988,0,1,0,
1.6633,-33.9,14.4,75.6,-72.6,55.8,-91.2,96.9,-108.3,-3334.5,212.4,-30.3,3.0,155.1,-176.7,1.5,-193.8,-6.3,-4.2,155.1,-142.5,-1.8,103.5,-844.5,63.9,0,2994,0,2,0,
1.6667,-30.9,14.7,76.2,-65.7,62.7,-85.2,94.5,-102.0,-3408.6,217.5,-31.2,12.0,167.4,-177.6,-7.5,-209.1,-6.0,-4.5,154.8,-134.4,-2.1,104.4,-844.8,67.5,0,3000,0,3,0,
1.6700,-35.7,9.0,71.1,-71.4,59.4,-88.5,97.8,-107.1,-3186.3,212.4,-38.1,-1.8,174.6,-182.1,0.3,-201.3,-6.3,-4.8,149.7,-139.5,-2.1,105.3,-846.3,65.7,0,3006,0,4,0,
1.6733,-38.1,9.0,69.6,-74.7,58.2,-90.3,93.6,-108.9,-3260.4,213.6,-38.4,5.1,166.8,-182.1,-10.5,-209.7,-6.0,-4.5,154.5,-140.1,-1.8,105.0,-849.9,58.8,0,3012,0,5,0,
1.6767,-36.9,8.1,70.2,-72.0,59.1,-88.5,96.9,-107.4,-3334.5,212.1,-34.5,3.3,163.5,-181.8,-1.2,-201.0,-6.3,-4.2,148.2,-139.2,-1.8,110.1,-849.0,54.6,0,3018,0,6,0,
1.6800,-36.9,8.7,65.4,-74.1,62.1,-88.5,97.2,-105.9,-3260.4,214.5,-30.9,1.8,166.8,-179.1,-0.3,-206.7,-6.3,-4.5,148.2,-139.8,-1.8,103.5,-847.2,59.7,0,3024,0,7,0,
1.6833,-39.6,3.9,58.2,-81.3,51.0,-97.8,93.9,-115.5,-3482.7,202.5,-41.7,-13.8,156.0,-185.7,3.6,-199.5,-6.3,-4.8,140.7,-151.2,-1.8,94.5,-842.1,57.3,0,3030,0,8,0,
1.6867,-39.0,5.4,63.9,-77.4,52.2,-93.6,95.4,-110.4,-3186.3,208.2,-41.1,-6.0,160.8,-187.5,-17.4,-206.7,-6.0,-4.5,140.7,-147.9,-1.5,93.9,-833.1,60.6,0,3036,0,9,0,
1.6900,-38.1,2.1,60.6,-81.3,50.4,-93.3,99.3,-115.2,-3186.3,200.1,-47.1,-7.8,158.4,-184.8,-4.8,-187.8,-6.0,-4.5,131.1,-154.5,-1.8,97.2,-825.0,56.1,0,3042,0,10,0,
1.6933,-41.4,6.0,61.5,-79.8,51.6,-99.9,90.0,-116.1,-3408.6,204.0,-43.2,-9.9,160.5,-181.8,-12.0,-224.1,-6.3,-4.5,138.0,-154.2,-1.8,91.8,-852.3,46.2,0,3048,0,11,0,
1.6967,-41.4,3.3,56.7,-82.2,49.5,-106.8,84.3,-117.3,-3408.6,201.3,-52.2,-17.7,151.5,-185.1,-14.7,-213.3,-6.3,-4.5,134.4,-161.1,-1.8,82.5,-848.1,44.4,0,3054,0,12,0,
1.7000,-40.2,0.9,57.9,-81.0,48.9,-101.4,90.6,-115.5,-3334.5,206.7,-50.7,-12.9,154.8,-185.1,-13.5,-220.2,-6.3,-4.8,134.4,-157.5,-1.5,88.8,-851.1,44.7,0,3060,0,13,0,
1.7033,-42.0,-6.6,57.0,-81.6,45.0,-102.3,87.9,-115.2,-3186.3,195.9,-52.8,-17.7,150.0,-180.6,-6.3,-209.4,-6.3,-4.2,131.4,-159.6,-1.8,90.9,-848.1,36.6,0,3066,0,14,0,
1.7067,-37.5,2.7,63.0,-74.4,51.6,-96.9,90.3,-113.7,-3260.4,211.8,-41.7,-4.5,161.7,-179.1,-6.9,-202.5,-6.0,-4.5,144.3,-153.0,-1.8,103.5,-842.7,41.7,0,3072,0,15,0,
1.7100,-38.7,1.2,62.7,-77.1,51.6,-97.2,88.2,-113.1,-3260.4,203.1,-43.5,-9.9,156.3,-178.8,6.3,-196.8,-6.3,-4.5,141.9,-148.5,-1.8,94.2,-843.0,48.0,0,3078,0,16,0,
1.7133,-31.2,10.2,72.0,-68.4,62.7,-86.4,91.2,-106.8,-3408.6,223.8,-27.0,4.8,165.6,-172.2,-8.7,-220.5,-6.3,-4.5,156.9,-138.9,-1.5,107.1,-847.5,62.4,0,3084,0,17,0,
1.7167,-33.3,8.4,69.3,-73.5,59.4,-90.6,90.3,-108.0,-3260.4,219.0,-32.7,-2.4,162.3,-168.0,-2.1,-210.9,-6.3,-4.2,149.1,-141.3,-1.5,102.3,-840.3,60.9,0,3090,0,18,0,
1.7200,-38.1,8.1,67.8,-73.5,58.2,-92.7,85.5,-107.4,-3334.5,211.8,-37.2,0.9,168.9,-168.9,-3.3,-208.5,-6.3,-4.5,148.5,-146.7,-1.5,102.6,-840.3,57.6,0,3096,0,19,0,
1.7233,-41.7,2.7,58.8,-80.7,50.7,-98.1,89.1,-113.7,-3186.3,207.6,-48.6,-10.2,153.6,-174.6,3.6,-183.9,-6.0,-4.5,136.8,-158.1,-2.1,90.9,-837.0,54.0,0,3102,0,20,0,
1.7267,-33.9,13.5,69.6,-72.6,61.5,-89.4,92.7,-105.9,-3408.6,217.2,-36.6,-4.2,159.9,-168.0,-8.4,-205.8,-6.0,-4.5,149.1,-150.0,-1.5,104.7,-840.6,65.1,0,3108,0,21,0,
1.7300,-34.8,18.6,73.5,-69.6,64.8,-91.8,89.4,-105.6,-3334.5,224.1,-38.1,-2.1,158.7,-165.6,-9.6,-219.3,-6.3,-4.5,151.8,-144.6,-1.8,105.0,-845.7,63.6,0,3114,0,22,0,
1.7333,-35.7,11.1,66.3,-73.2,57.9,-96.0,90.6,-109.8,-3334.5,216.3,-44.4,-5.4,164.1,-165.6,4.2,-190.8,-6.3,-4.5,144.3,-149.7,-1.5,100.2,-841.8,56.1,0,3120,0,23,0,
1.7367,-38.7,12.3,70.2,-68.7,61.8,-91.2,90.6,-108.3,-3408.6,221.7,-36.9,-2.1,167.7,-172.2,-5.7,-204.0,-6.3,-4.2,152.1,-145.5,-1.8,108.0,-845.1,49.2,0,3126,0,24,0,
1.7400,-40.5,12.6,66.0,-73.8,56.4,-91.8,88.5,-113.7,-3260.4,215.7,-36.0,-7.8,173.7,-178.8,1.2,-203.7,-6.0,-4.5,147.9,-150.3,-1.8,103.5,-844.5,48.3,0,3132,0,25,0,
1.7433,-39.0,16.8,69.6,-66.6,59.4,-93.3,94.8,-109.8,-3186.3,213.6,-30.9,1.2,174.6,-175.2,0.9,-188.4,-6.3,-4.5,153.9,-142.8,-1.5,96.0,-839.4,59.7,0,3138,0,26,0,
1.7467,-43.5,14.4,73.5,-64.5,60.0,-93.0,92.7,-106.8,-3408.6,223.8,-24.3,5.4,161.7,-182.1,-16.2,-201.0,-6.0,-4.5,157.2,-138.6,-1.5,112.5,-835.8,61.2,0,3144,0,27,0,
1.7500,-40.2,17.4,76.2,-64.5,60.6,-97.2,91.2,-104.7,-3334.5,223.5,-25.5,4.2,162.0,-177.3,-6.0,-211.5,-6.0,-4.5,156.3,-145.2,-1.8,106.8,-841.2,63.3,0,3150,0,28,0,
1.7533,-35.4,18.0,74.7,-64.5,56.7,-96.0,91.8,-101.1,-3186.3,225.3,-33.9,-9.0,169.8,-177.9,-12.3,-211.8,-6.0,-4.5,153.3,-150.6,-1.5,105.0,-843.0,54.6,0,3156,0,29,0,
1.7567,-38.7,12.3,64.8,-75.0,51.9,-98.1,93.6,-108.0,-3186.3,216.6,-45.0,-27.0,165.0,-178.2,-2.1,-198.6,-6.0,-4.5,139.8,-163.5,-2.1,93.0,-844.5,46.5,0,3162,0,30,0,
1.7600,-43.2,10.5,65.1,-74.1,52.8,-96.9,94.2,-109.5,-3186.3,215.7,-40.2,-15.9,158.7,-177.6,-5.1,-195.6,-6.3,-4.5,144.6,-156.6,-1.8,99.9,-844.2,49.8,0,3168,0,31,0,
1.7633,-41.1,13.2,69.9,-67.5,58.5,-96.3,97.2,-104.4,-3408.6,221.1,-28.5,6.0,153.9,-183.9,-8.7,-199.8,-6.3,-4.5,150.9,-143.4,-1.8,104.4,-842.7,56.7,0,3174,0,32,0,
1.7667,-36.3,16.8,72.9,-61.2,63.0,-86.4,101.7,-101.1,-3260.4,225.3,-22.2,10.2,163.8,-178.5,-8.7,-200.1,-6.0,-4.2,158.1,-136.8,-1.5,110.4,-835.8,72.3,0,3180,0,33,0,
1.7700,-37.8,15.0,70.2,-65.4,59.4,-90.0,95.7,-102.3,-3260.4,222.3,-32.1,1.5,153.9,-179.1,-3.3,-202.2,-6.0,-4.8,144.6,-141.0,-1.8,109.2,-842.4,70.5,0,3186,0,34,0,
1.7733,-41.1,12.6,67.5,-69.6,52.5,-92.1,97.8,-106.8,-3186.3,213.3,-26.1,6.6,149.7,-182.7,-2.4,-197.7,-6.3,-4.5,147.0,-135.9,-1.8,107.7,-843.3,59.7,0,3192,0,35,0,
1.7767,-38.4,13.5,70.2,-69.9,58.5,-91.2,93.6,-105.0,-3334.5,216.6,-21.0,10.5,154.2,-181.2,-9.6,-209.7,-6.3,-4.5,148.8,-127.5,-1.5,117.9,-842.1,69.0,0,3198,0,36,0,
1.7800,-42.3,5.1,65.4,-73.2,53.1,-90.6,89.7,-109.5,-3334.5,212.7,-28.8,7.5,138.9,-186.3,-5.4,-202.2,-6.0,-4.2,139.2,-136.5,-1.8,108.6,-841.5,60.9,0,3204,0,37,0,
1.7833,-39.9,4.2,59.7,-78.6,51.3,-96.6,90.0,-110.4,-3408.6,207.9,-36.0,5.7,137.1,-185.1,-4.5,-201.6,-6.6,-4.5,133.2,-136.5,-1.5,103.2,-837.9,56.7,0,3210,0,38,0,
1.7867,-44.7,-1.5,57.0,-82.2,47.4,-102.9,91.8,-114.3,-3260.4,200.4,-40.5,-1.2,137.7,-188.7,0.9,-203.4,-6.0,-4.8,126.9,-142.5,-1.8,96.3,-836.7,54.9,0,3216,0,39,0,
1.7900,-44.1,-0.3,59.7,-79.8,48.6,-100.8,94.2,-112.8,-3112.2,202.5,-35.4,-2.1,141.0,-192.9,-3.3,-201.3,-6.6,-4.8,127.5,-141.6,-1.5,104.7,-834.6,58.2,0,3222,0,40,0,
1.7933,-47.4,-2.4,57.0,-78.9,47.1,-98.1,95.4,-111.0,-3260.4,206.1,-35.4,3.3,136.2,-191.1,-6.3,-199.2,-6.0,-4.5,130.5,-140.7,-1.5,102.0,-835.2,56.4,0,3228,0,41,0,
1.7967,-46.5,-1.8,55.2,-79.8,47.7,-97.5,98.1,-110.4,-3408.6,202.2,-46.2,1.2,135.3,-192.9,-15.9,-202.5,-6.3,-4.8,125.1,-142.2,-1.8,104.1,-836.7,53.7,0,3234,0,42,0,
1.8000,-50.1,0.6,59.1,-81.3,45.3,-101.7,93.3,-112.8,-3260.4,213.9,-38.4,-2.7,136.8,-189.3,-7.8,-192.9,-6.3,-4.8,132.9,-143.7,-1.8,99.9,-841.8,55.8,0,3240,0,43,0,
1.8033,-43.8,5.7,62.1,-73.8,55.8,-99.3,95.4,-108.6,-3334.5,214.2,-28.8,-0.9,150.6,-181.8,-1.8,-208.5,-6.9,-4.5,144.0,-138.0,-2.1,111.0,-843.3,60.3,0,3246,0,44,0,
1.8067,-46.8,0.6,56.7,-82.5,47.7,-100.5,91.8,-113.1,-3260.4,214.2,-37.8,-5.7,146.7,-184.2,-1.5,-200.1,-6.3,-4.5,130.2,-145.2,-1.8,103.2,-839.4,49.5,0,3252,0,45,0,
1.8100,-41.7,4.2,60.9,-77.7,51.3,-94.8,96.0,-105.3,-3186.3,210.6,-31.5,5.7,145.2,-181.2,-9.6,-204.6,-6.3,-4.5,136.8,-141.9,-1.8,103.5,-841.2,57.6,0,3258,0,46,0,
1.8133,-43.8,9.0,69.3,-68.4,57.9,-90.6,96.0,-101.1,-3334.5,220.5,-26.1,13.2,153.3,-183.9,-14.7,-209.4,-6.3,-4.2,144.0,-135.0,-1.8,116.1,-841.5,58.5,0,3264,0,47,0,
1.8167,-42.9,8.1,70.8,-66.9,60.9,-89.7,90.6,-100.2,-3260.4,214.2,-24.3,9.0,153.6,-186.3,-17.1,-211.2,-6.3,-4.8,145.8,-133.8,-1.8,117.0,-855.6,57.0,0,3270,0,48,0,
1.8200,-36.0,8.7,71.7,-64.5,65.4,-88.5,92.4,-94.8,-3186.3,216.9,-18.3,11.4,160.8,-176.1,-1.5,-202.8,-5.7,-4.2,146.4,-132.6,-1.5,119.4,-847.8,57.6,0,3276,0,49,0,
1.8233,-40.2,4.5,64.2,-66.6,64.8,-88.8,93.6,-101.1,-3186.3,212.4,-27.6,14.4,147.9,-179.1,0.0,-197.4,-6.6,-4.8,137.7,-135.3,-1.8,106.2,-841.5,57.9,0,3282,0,50,0,
1.8267,-42.3,4.8,62.7,-69.9,58.5,-91.8,93.6,-99.3,-3186.3,214.5,-32.4,8.4,138.9,-180.6,-8.1,-205.8,-6.0,-4.2,134.7,-135.6,-1.5,114.9,-848.4,63.6,0,3288,0,51,0,
1.8300,-39.6,10.5,65.4,-65.4,63.3,-90.0,93.0,-97.2,-3334.5,217.5,-29.1,12.6,146.7,-174.3,-3.6,-211.5,-6.3,-4.5,140.1,-129.6,-1.8,119.7,-852.3,63.6,0,3294,0,52,0,
1.8333,-39.9,9.9,64.8,-67.2,57.0,-91.2,94.2,-99.0,-3186.3,214.5,-32.4,5.4,143.4,-175.5,-1.2,-210.3,-6.0,-3.6,138.6,-130.5,-1.8,114.0,-857.7,60.6,0,3300,0,53,0,
1.8367,-41.1,12.6,67.2,-63.9,59.1,-91.8,92.4,-100.5,-3112.2,212.7,-27.3,11.7,146.1,-181.8,-1.8,-213.6,-6.3,-4.8,146.1,-130.5,-2.1,108.3,-853.8,68.4,0,3306,0,54,0,
1.8400,-37.2,13.8,68.7,-63.6,55.5,-94.5,94.8,-98.4,-3186.3,216.0,-28.2,11.4,144.3,-176.4,-4.8,-210.9,-6.3,-4.2,143.1,-132.6,-1.8,110.4,-853.5,61.5,0,3312,0,55,0,
1.8433,-34.8,15.0,72.9,-59.4,62.4,-90.6,95.4,-95.7,-3112.2,216.6,-25.8,17.4,144.9,-178.8,-0.9,-207.9,-6.3,-4.5,140.1,-128.1,-2.1,110.7,-849.9,65.7,0,3318,0,56,0,
1.8467,-38.1,8.4,74.7,-62.4,61.5,-89.7,98.1,-93.9,-3260.4,213.9,-25.2,12.3,147.3,-182.1,-7.2,-207.6,-6.3,-4.2,141.3,-128.4,-1.8,102.6,-847.2,61.8,0,3324,0,57,0,
1.8500,-36.0,11.1,72.0,-58.8,62.4,-82.8,97.2,-94.5,-3112.2,210.9,-31.5,7.2,149.4,-178.8,-7.8,-209.4,-6.3,-4.5,143.7,-129.0,-1.2,110.1,-839.1,66.0,0,3330,0,58,0,
1.8533,-35.1,7.5,66.3,-66.0,58.2,-89.4,95.7,-100.2,-3112.2,198.9,-28.8,2.7,153.9,-180.6,-1.2,-212.4,-6.0,-4.5,134.1,-137.1,-2.1,99.0,-849.3,59.4,0,3336,0,59,0,
1.8567,-37.5,9.9,70.5,-61.5,65.1,-85.5,97.8,-95.7,-3186.3,210.6,-27.9,9.3,155.4,-183.9,-10.2,-219.3,-6.0,-4.5,141.0,-133.5,-1.5,108.0,-840.9,68.7,0,3342,0,60,0,
1.8600,-40.2,4.8,63.6,-69.6,58.2,-93.6,95.7,-102.9,-3112.2,203.1,-33.3,0.0,149.4,-181.2,2.1,-197.7,-6.0,-4.2,136.8,-142.2,-2.1,104.7,-838.8,61.2,0,3348,0,61,0,
1.8633,-44.7,1.5,66.0,-65.7,60.6,-93.6,93.6,-99.3,-3186.3,212.1,-29.7,10.2,141.6,-194.1,-24.0,-210.9,-6.3,-4.2,135.0,-136.5,-1.8,116.1,-835.8,68.7,0,3354,0,62,0,
1.8667,-43.2,3.3,61.5,-70.2,57.6,-96.0,91.8,-100.2,-3186.3,207.9,-37.8,3.6,144.6,-183.0,-3.9,-214.2,-6.0,-4.5,131.4,-138.9,-1.5,103.8,-850.8,63.3,0,3360,0,63,0,
1.8700,-41.7,4.5,63.3,-68.4,60.3,-93.0,99.9,-98.1,-3186.3,207.6,-34.5,3.6,148.8,-185.1,-6.6,-210.9,-6.3,-4.8,130.8,-133.2,-1.5,103.5,-845.7,71.4,0,3366,0,64,0,
1.8733,-42.3,-1.8,57.0,-75.9,50.4,-98.4,93.3,-103.5,-3112.2,201.6,-42.3,-0.9,152.1,-184.2,9.3,-197.4,-6.0,-4.5,122.4,-143.7,-1.8,103.5,-843.9,50.4,0,3372,0,65,0,
1.8767,-37.5,1.5,60.6,-75.3,53.4,-96.3,93.3,-99.6,-3186.3,205.2,-41.1,-1.5,152.7,-176.4,9.9,-198.6,-6.0,-4.5,125.7,-142.8,-1.5,96.6,-846.0,52.2,0,3378,0,66,0,
1.8800,-39.3,3.0,63.0,-70.8,57.0,-93.6,90.0,-100.2,-3038.1,204.9,-36.3,-1.8,146.1,-180.9,-9.6,-218.1,-6.0,-3.9,127.8,-142.8,-2.1,101.7,-846.6,71.1,0,3384,0,67,0,
1.8833,-37.2,1.8,58.5,-70.5,58.2,-92.4,99.3,-95.1,-3260.4,204.9,-41.1,5.4,141.6,-182.4,-7.2,-204.9,-6.3,-4.8,121.5,-134.7,-1.8,106.2,-836.1,60.3,0,3390,0,68,0,
1.8867,-38.7,-0.6,57.0,-72.9,53.1,-99.6,96.9,-102.6,-3186.3,198.0,-40.5,-0.9,132.9,-192.6,-11.1,-200.7,-6.3,-4.5,122.1,-139.8,-2.1,102.9,-841.5,53.4,0,3396,0,69,0,
1.8900,-42.0,0.3,54.3,-78.9,50.7,-98.7,97.5,-104.4,-3112.2,191.7,-40.5,-2.7,135.9,-186.0,-13.5,-207.0,-6.3,-4.5,126.3,-142.8,-1.8,102.3,-841.2,60.9,0,3402,0,70,0,
1.8933,-42.9,-1.8,50.1,-82.8,48.0,-101.4,94.2,-108.0,-3186.3,196.2,-49.2,-5.4,139.5,-187.5,-7.8,-200.7,-6.3,-4.5,116.1,-147.0,-1.5,95.7,-843.3,62.4,0,3408,0,71,0,
1.8967,-44.7,-1.2,51.3,-82.5,48.0,-97.5,96.0,-108.0,-3112.2,195.9,-46.8,-3.6,139.5,-185.4,-4.2,-201.9,-6.3,-4.5,119.1,-149.1,-1.8,96.3,-841.5,49.8,0,3414,0,72,0,
1.9000,-39.6,-3.9,53.1,-81.9,46.2,-97.8,96.3,-106.5,-3260.4,190.8,-48.3,-4.8,139.8,-191.4,-11.7,-204.6,-6.3,-4.5,117.3,-149.4,-1.8,86.7,-846.6,53.1,0,3420,0,73,0,
1.9033,-38.1,2.1,56.4,-80.4,48.6,-95.4,97.2,-105.0,-3186.3,192.9,-42.9,-8.7,144.6,-185.1,-0.9,-203.4,-6.3,-4.2,119.4,-151.2,-1.8,91.8,-843.0,48.3,0,3426,0,74,0,
1.9067,-33.6,7.8,59.1,-72.3,51.9,-92.4,99.6,-98.7,-3038.1,202.8,-37.5,-5.4,144.0,-186.0,-16.5,-215.1,-6.6,-4.5,126.6,-143.4,-1.5,102.0,-849.3,66.0,0,3432,0,75,0,
1.9100,-36.3,3.3,56.7,-75.6,49.2,-99.0,91.5,-103.8,-3112.2,197.4,-40.5,-11.1,141.6,-194.4,-17.7,-216.6,-6.0,-4.5,122.4,-149.4,-1.8,98.7,-851.1,51.3,0,3438,0,76,0,
1.9133,-34.8,5.4,60.6,-76.2,45.6,-100.5,90.9,-99.3,-3334.5,187.8,-43.5,-15.6,142.2,-191.1,-8.7,-204.6,-6.3,-4.8,120.9,-151.8,-1.5,100.5,-850.5,46.2,0,3444,0,77,0,
1.9167,-34.5,9.3,61.5,-76.5,47.4,-104.1,92.4,-99.6,-3186.3,196.5,-43.8,-11.4,136.8,-185.7,-3.6,-204.9,-6.0,-4.8,121.5,-152.4,-2.1,92.1,-856.2,57.6,0,3450,0,78,0,
1.9200,-36.3,8.7,68.7,-69.6,55.2,-97.8,91.5,-97.2,-3186.3,193.2,-34.8,-1.5,134.7,-193.2,-13.2,-215.1,-6.3,-4.2,131.4,-145.2,-1.8,96.3,-850.5,57.0,0,3456,0,79,0,
1.9233,-36.9,9.9,65.7,-72.6,53.7,-92.7,90.9,-93.6,-3112.2,204.0,-38.4,-6.9,140.4,-195.3,-10.2,-208.8,-6.0,-4.5,132.0,-143.4,-2.1,97.8,-847.2,60.9,0,3462,0,80,0,
1.9267,-33.9,9.3,68.7,-70.5,53.7,-92.4,92.7,-93.6,-3186.3,199.8,-36.9,-0.6,139.5,-190.8,-12.6,-211.8,-6.3,-4.5,126.9,-144.6,-1.5,101.4,-846.0,60.9,0,3468,0,81,0,
1.9300,-40.2,6.9,65.1,-70.8,55.2,-92.7,90.9,-93.9,-3112.2,200.4,-36.6,-3.6,143.1,-198.6,-8.1,-206.7,-6.3,-4.5,127.8,-143.7,-2.1,99.6,-850.5,62.1,0,3474,0,82,0,
1.9333,-36.9,5.1,62.4,-71.1,51.3,-97.5,90.6,-95.4,-3186.3,189.3,-43.5,-3.0,149.1,-201.0,-8.7,-209.1,-6.0,-4.8,123.6,-149.1,-1.8,91.8,-854.1,57.9,0,3480,0,83,0,
1.9367,-42.3,1.2,61.5,-74.1,47.7,-95.4,91.8,-96.9,-3112.2,193.8,-45.6,-13.5,135.6,-203.7,-3.3,-195.0,-6.0,-4.5,121.8,-154.8,-1.8,85.8,-853.8,49.8,0,3486,0,84,0,
1.9400,-38.4,5.7,63.0,-68.4,60.3,-88.8,91.8,-94.8,-3038.1,192.9,-34.2,-9.6,129.9,-201.9,-17.1,-205.5,-6.0,-4.8,126.3,-146.1,-1.8,96.3,-849.6,58.2,0,3492,0,85,0,
1.9433,-32.7,18.6,71.1,-58.8,65.7,-80.4,92.7,-87.3,-3186.3,201.0,-25.2,1.2,145.2,-193.8,-6.9,-223.8,-6.3,-4.2,135.6,-135.0,-1.8,102.3,-856.5,60.3,0,3498,0,86,0,
1.9467,-29.1,15.9,75.0,-56.1,72.0,-76.8,92.7,-86.4,-3260.4,197.1,-27.9,9.3,153.0,-191.7,-6.9,-213.9,-6.0,-4.5,136.5,-129.3,-1.5,104.4,-854.1,57.0,0,3504,0,87,0,
1.9500,-31.2,18.9,79.8,-51.3,72.6,-69.3,99.3,-86.1,-3260.4,211.2,-22.2,17.4,163.8,-195.6,-18.6,-210.9,-6.6,-4.5,146.7,-123.0,-1.8,111.0,-849.6,76.8,0,3510,0,88,0,
1.9533,-31.8,15.3,81.0,-56.1,68.1,-78.9,96.3,-91.2,-2964.0,213.3,-19.5,17.1,160.2,-188.1,-13.2,-214.8,-6.3,-4.5,144.9,-128.1,-1.8,112.5,-846.6,61.5,0,3516,0,89,0,
1.9567,-36.6,11.1,76.2,-60.9,60.3,-83.4,93.3,-97.5,-2964.0,201.0,-21.9,14.1,145.2,-191.7,-12.0,-213.3,-6.3,-4.8,139.2,-132.3,-1.5,114.9,-844.2,64.2,0,3522,0,90,0,
1.9600,-35.4,14.4,77.4,-64.8,62.1,-88.8,93.9,-99.3,-3038.1,213.9,-17.7,12.0,145.2,-184.2,-9.6,-207.0,-6.3,-4.8,145.5,-132.9,-2.1,114.9,-844.5,71.1,0,3528,0,91,0,
1.9633,-34.2,14.1,76.5,-62.4,61.5,-90.3,93.9,-96.9,-3112.2,213.9,-21.0,10.5,148.8,-178.8,-3.3,-208.2,-6.0,-4.5,143.7,-133.5,-1.8,111.0,-846.6,69.6,0,3534,0,92,0,
1.9667,-32.4,10.8,72.0,-63.3,56.1,-97.5,92.7,-102.6,-3038.1,211.5,-29.1,3.3,146.7,-179.1,-0.3,-207.0,-6.3,-3.9,137.1,-139.2,-2.1,111.0,-848.1,64.8,0,3540,0,93,0,
1.9700,-30.9,10.2,73.2,-65.7,55.2,-97.2,94.5,-98.7,-3186.3,208.8,-25.5,8.1,151.2,-176.7,-0.3,-201.3,-6.6,-4.5,138.6,-138.6,-1.8,109.2,-837.6,69.3,0,3546,0,94,0,
1.9733,-35.7,9.0,67.8,-68.7,54.3,-97.8,97.2,-106.5,-3112.2,210.0,-29.4,-4.5,150.3,-179.4,-2.7,-197.4,-6.3,-4.2,135.3,-145.2,-1.8,113.1,-833.7,68.4,0,3552,0,95,0,
1.9767,-33.3,9.0,68.1,-69.6,51.3,-99.6,96.0,-106.2,-3186.3,204.3,-30.6,-2.4,155.7,-176.1,5.4,-198.0,-6.3,-4.2,134.7,-140.4,-1.8,105.3,-836.4,72.0,0,3558,0,96,0,
1.9800,-34.5,9.6,63.3,-72.6,53.7,-98.1,93.6,-107.1,-3334.5,202.2,-37.5,-0.9,141.0,-175.2,9.0,-201.0,-6.0,-4.5,129.9,-146.7,-1.5,114.0,-848.4,68.4,0,3564,0,97,0,
1.9833,-33.9,7.8,63.0,-71.7,56.1,-96.0,98.4,-103.2,-3112.2,203.7,-38.7,3.3,138.0,-186.3,-19.2,-201.3,-6.0,-4.5,128.1,-141.0,-1.8,111.3,-843.6,64.5,0,3570,0,98,0,
1.9867,-35.1,6.9,61.8,-70.2,55.5,-93.9,100.5,-102.0,-3038.1,201.9,-37.2,1.8,144.0,-185.4,-15.9,-203.1,-6.0,-4.5,127.2,-143.1,-1.8,102.6,-843.0,60.0,0,3576,0,99,0,
1.9900,-30.6,11.1,65.1,-72.9,51.6,-99.9,95.7,-105.3,-3038.1,210.3,-28.5,9.0,145.2,-172.5,0.3,-199.8,-6.3,-4.5,131.7,-140.7,-1.8,103.2,-852.9,60.6,0,3582,0,100,0,
1.9933,-32.1,9.6,68.7,-73.5,54.9,-95.7,101.4,-101.7,-3112.2,207.6,-31.8,2.4,151.2,-182.7,-12.9,-198.9,-6.3,-4.2,127.5,-140.7,-1.8,108.0,-845.4,72.3,0,3588,0,101,0,
1.9967,-36.3,4.2,60.3,-79.8,48.3,-102.6,98.4,-110.4,-3260.4,196.8,-45.0,-7.2,148.2,-186.9,-13.8,-191.1,-6.6,-4.8,120.9,-150.3,-1.5,86.7,-848.1,58.2,0,3594,0,102,0,
2.0000,-34.5,4.5,64.2,-75.6,54.0,-96.3,98.7,-107.4,-3186.3,200.4,-37.5,-3.9,154.5,-181.5,-14.4,-207.6,-5.7,-4.5,128.7,-144.6,-1.8,100.5,-848.4,62.7,0,3600,0,103,0,
2.0033,-36.6,-3.9,56.1,-84.9,40.5,-104.1,94.2,-119.4,-3112.2,185.4,-51.3,-18.6,142.8,-180.6,6.3,-190.2,-6.3,-4.5,112.8,-157.2,-1.8,87.6,-848.1,60.9,0,3606,0,104,0,
2.0067,-31.5,10.8,63.6,-75.0,55.5,-91.5,96.6,-106.2,-3038.1,207.3,-41.4,-4.5,144.9,-175.5,-12.3,-207.9,-6.0,-4.5,127.5,-145.2,-1.8,98.1,-852.6,68.1,0,3612,0,105,0,
2.0100,-33.3,12.6,66.0,-75.6,51.9,-96.0,93.9,-108.3,-3112.2,205.2,-39.0,-0.9,152.7,-171.6,-5.7,-215.4,-6.3,-4.5,133.2,-154.2,-2.1,104.7,-858.0,51.3,0,3618,0,106,0,
2.0133,-34.5,9.0,63.6,-74.4,53.4,-97.2,94.2,-105.9,-3260.4,202.2,-40.5,4.2,150.6,-174.3,-3.9,-209.1,-6.0,-4.5,126.6,-145.8,-2.1,108.9,-850.8,65.1,0,3624,0,107,0,
2.0167,-37.2,3.3,56.4,-78.0,46.8,-102.6,95.7,-108.6,-3186.3,198.3,-41.7,-0.9,140.1,-181.2,-6.6,-199.2,-6.6,-4.2,121.2,-147.3,-1.5,97.2,-849.9,64.2,0,3630,0,108,0,
2.0200,-33.9,5.1,58.5,-74.1,52.2,-97.2,93.9,-105.0,-3186.3,198.9,-37.8,0.6,147.9,-181.5,-2.1,-208.5,-6.3,-4.5,125.4,-141.6,-1.8,100.8,-858.6,64.2,0,3636,0,109,0,
2.0233,-37.2,4.2,57.9,-77.7,43.5,-104.7,94.2,-107.1,-3038.1,191.4,-40.8,-6.3,147.6,-188.1,-6.6,-197.1,-6.0,-4.5,119.4,-151.5,-1.5,91.8,-855.6,52.5,0,3642,0,110,0,
2.0267,-36.9,9.0,62.1,-70.5,53.7,-95.7,96.3,-103.2,-3112.2,195.3,-41.4,-1.5,147.0,-186.3,-8.4,-206.7,-6.0,-4.5,124.2,-142.8,-1.8,97.5,-859.8,64.2,0,3648,0,111,0,
2.0300,-33.0,11.1,68.4,-66.6,54.9,-94.8,93.6,-100.2,-3334.5,200.4,-31.8,3.9,150.6,-183.9,-19.2,-225.9,-6.0,-4.2,132.3,-141.3,-1.8,97.8,-865.2,61.8,0,3654,0,112,0,
2.0333,-35.7,10.2,63.0,-66.9,53.1,-96.3,94.2,-102.6,-3186.3,195.9,-37.8,-1.5,147.0,-186.3,-11.7,-204.0,-6.6,-4.5,128.4,-144.6,-1.5,101.1,-853.5,62.7,0,3660,0,113,0,
2.0367,-35.7,10.2,66.3,-67.8,57.9,-100.5,97.8,-101.1,-3186.3,196.5,-37.2,-6.0,147.3,-185.7,-8.7,-179.7,-6.0,-4.8,125.7,-143.1,-1.2,90.6,-847.2,63.9,0,3666,0,114,0,
2.0400,-36.6,10.5,66.0,-62.7,62.7,-95.7,93.9,-102.3,-3112.2,199.5,-31.5,7.2,145.2,-189.9,-13.5,-207.9,-6.6,-4.5,127.2,-138.3,-1.8,102.6,-858.3,70.5,0,3672,0,115,0,
2.0433,-34.8,14.4,74.7,-56.4,68.1,-92.1,97.2,-96.0,-3186.3,205.5,-23.4,15.0,143.1,-183.9,-26.1,-237.3,-6.3,-4.2,135.9,-131.4,-1.8,114.3,-858.9,73.5,0,3678,0,116,0,
2.0467,-38.4,4.5,61.8,-64.8,59.4,-95.7,94.5,-104.4,-3112.2,197.1,-45.0,5.1,144.3,-184.5,-16.5,-229.2,-6.0,-4.8,116.1,-141.3,-1.8,99.3,-856.2,62.7,0,3684,0,117,0,
2.0500,-44.1,-1.5,51.0,-77.4,48.0,-101.1,93.0,-109.2,-3260.4,183.0,-66.6,-13.2,137.1,-192.9,-13.2,-211.5,-6.0,-4.2,94.5,-156.9,-1.5,93.3,-852.6,58.5,0,3690,0,118,0,
2.0533,-37.8,3.6,62.1,-70.8,51.6,-97.8,92.1,-103.5,-3112.2,195.6,-58.5,-8.4,148.2,-186.9,-9.9,-217.8,-6.3,-4.5,104.1,-152.4,-2.1,102.3,-861.6,67.5,0,3696,0,119,0,
2.0567,-39.0,7.8,65.7,-68.4,56.4,-99.0,90.3,-103.5,-3038.1,202.5,-41.4,4.2,150.0,-183.0,-8.4,-210.3,-6.0,-4.5,125.4,-141.6,-1.8,100.2,-857.7,66.3,0,3702,0,120,0,
2.0600,-37.2,11.1,69.6,-62.7,58.2,-100.5,90.3,-105.0,-3038.1,213.0,-18.0,14.1,153.9,-188.7,-15.6,-211.5,-6.0,-4.8,147.6,-135.0,-1.8,104.1,-856.8,56.7,0,3708,0,121,0,
2.0633,-41.4,6.3,61.2,-71.4,49.8,-102.0,86.1,-110.1,-3186.3,206.7,-27.0,2.7,149.7,-190.5,-16.8,-212.1,-6.0,-4.5,140.4,-145.5,-1.8,95.4,-859.5,61.8,0,3714,0,122,0,
2.0667,-40.8,5.7,57.3,-77.1,41.4,-111.6,85.2,-110.7,-3186.3,197.7,-36.3,-8.7,152.4,-188.4,-8.4,-205.2,-6.3,-4.8,134.7,-156.9,-1.5,89.4,-858.6,57.3,0,3720,0,123,0,
2.0700,-35.7,14.1,64.2,-76.2,42.0,-110.4,84.6,-107.7,-3112.2,200.7,-32.1,-7.2,160.5,-181.5,-2.1,-207.9,-6.3,-4.8,141.0,-153.9,-1.8,98.1,-857.7,60.6,0,3726,0,124,0,
2.0733,-33.0,14.7,69.3,-70.8,48.3,-103.8,85.5,-107.4,-3112.2,205.2,-29.7,-3.3,156.0,-184.5,-6.0,-205.5,-6.3,-4.8,144.6,-151.5,-1.5,91.8,-855.6,64.5,0,3732,0,125,0,
2.0767,-38.1,12.0,69.6,-73.5,49.8,-105.0,91.2,-104.7,-3112.2,205.5,-28.8,-3.0,154.8,-187.5,-17.7,-198.6,-6.3,-3.9,149.7,-153.0,-2.1,95.4,-849.0,57.3,0,3738,0,126,0,
2.0800,-35.7,15.3,74.7,-70.2,50.4,-106.8,90.0,-102.0,-3260.4,208.2,-22.2,6.3,153.3,-192.0,-28.8,-214.5,-6.3,-4.5,153.6,-149.1,-1.8,100.5,-851.4,61.2,0,3744,0,127,0,
2.0833,-38.7,10.8,68.7,-78.0,40.8,-109.5,90.3,-105.9,-3334.5,204.0,-29.4,-7.8,150.6,-190.5,-18.0,-202.2,-6.0,-4.5,148.8,-159.3,-1.8,99.0,-850.5,52.8,0,3750,0,128,0,
2.0867,-37.5,11.1,68.7,-78.0,41.1,-110.4,88.2,-108.3,-3186.3,196.8,-35.1,-13.5,148.2,-186.9,-12.3,-219.3,-6.3,-4.5,143.1,-162.9,-1.8,94.5,-859.2,62.7,0,3756,0,129,0,
2.0900,-38.4,9.6,67.2,-81.3,39.6,-109.5,94.2,-108.0,-3112.2,203.4,-41.4,-12.3,147.9,-187.2,-12.6,-201.6,-6.0,-4.5,136.2,-161.1,-1.5,91.2,-849.3,60.6,0,3762,0,130,0,
2.0933,-34.8,8.4,64.5,-79.5,42.0,-102.0,92.7,-109.5,-3186.3,197.1,-45.3,-7.8,144.6,-182.4,-13.2,-218.4,-6.0,-4.5,135.6,-159.0,-1.8,91.5,-852.6,61.8,0,3768,0,131,0,
2.0967,-37.5,5.7,61.2,-82.8,34.5,-105.3,88.5,-109.5,-3038.1,199.2,-50.1,-11.1,134.1,-192.6,-19.2,-222.3,-6.0,-4.5,133.5,-160.8,-1.8,90.0,-858.3,56.7,0,3774,0,132,0,
2.1000,-37.2,3.9,57.9,-86.1,31.5,-109.5,90.3,-111.6,-3186.3,199.8,-46.8,-19.5,141.0,-189.3,-8.1,-205.2,-6.0,-4.5,134.7,-168.0,-1.8,89.7,-855.3,46.5,0,3780,0,133,0,
2.1033,-37.8,3.6,59.7,-84.6,30.3,-110.1,88.8,-111.0,-3038.1,200.1,-40.8,-13.2,149.1,-195.9,-12.3,-196.8,-6.0,-4.5,135.0,-163.2,-2.1,84.9,-853.5,50.4,0,3786,0,134,0,
2.1067,-33.6,11.4,72.0,-72.6,45.3,-99.6,93.9,-104.1,-3038.1,205.8,-32.1,-5.4,167.7,-185.4,-23.1,-228.6,-6.3,-4.5,141.9,-153.6,-1.5,97.5,-858.0,63.0,0,3792,0,135,0,
2.1100,-34.8,10.2,72.0,-72.3,44.4,-95.7,91.5,-104.4,-3112.2,209.1,-31.8,-3.6,142.5,-187.5,-16.2,-210.6,-6.3,-4.5,142.5,-155.1,-1.8,105.6,-851.1,69.3,0,3798,0,136,0,
2.1133,-37.2,5.1,66.9,-76.2,39.0,-101.4,86.1,-110.4,-3186.3,206.4,-41.7,-7.2,143.4,-183.3,-10.8,-213.6,-6.0,-4.5,139.5,-161.4,-2.1,93.6,-860.4,58.8,0,3804,0,137,0,
2.1167,-36.3,7.5,61.8,-78.3,38.4,-107.4,87.6,-110.4,-3260.4,212.1,-42.6,-8.1,153.6,-182.1,-7.2,-204.0,-6.3,-4.5,138.3,-164.4,-1.5,91.5,-856.2,49.2,0,3810,0,138,0,
2.1200,-38.7,9.9,63.9,-78.9,40.2,-108.3,86.7,-111.3,-3038.1,200.7,-32.7,-7.2,158.1,-179.7,-3.6,-206.4,-6.3,-4.8,144.6,-157.2,-1.8,93.6,-856.8,53.1,0,3816,0,139,0,
2.1233,-33.9,13.8,69.3,-73.2,45.6,-102.6,85.2,-106.8,-3186.3,213.6,-30.3,1.5,161.7,-178.2,-7.8,-212.4,-6.0,-4.2,148.2,-151.2,-1.8,98.1,-857.7,59.1,0,3822,0,140,0,
2.1267,-40.2,9.9,62.4,-78.0,41.7,-110.4,83.7,-110.7,-3112.2,207.9,-36.9,-7.5,157.5,-185.1,-9.3,-209.1,-6.0,-4.5,144.3,-154.2,-1.8,88.8,-858.3,52.8,0,3828,0,141,0,
2.1300,-38.1,11.7,63.6,-79.8,41.7,-106.8,82.5,-110.1,-3186.3,215.4,-39.0,-5.7,154.5,-178.8,3.3,-204.9,-6.3,-4.5,139.2,-153.6,-1.5,103.2,-854.7,53.4,0,3834,0,142,0,
2.1333,-40.5,7.5,59.4,-84.3,38.1,-110.7,83.7,-114.6,-3112.2,208.5,-41.4,-9.3,145.8,-177.0,8.1,-189.9,-6.3,-4.5,137.7,-157.5,-2.1,97.2,-849.6,52.8,0,3840,0,143,0,
2.1367,-35.4,12.6,68.1,-78.0,44.4,-103.5,84.0,-107.4,-3112.2,216.6,-33.9,2.4,159.6,-183.0,-5.4,-215.1,-6.3,-4.2,146.7,-149.7,-1.8,105.6,-858.6,60.0,0,3846,0,144,0,
2.1400,-40.2,10.5,65.7,-79.8,39.0,-111.9,82.2,-113.7,-3038.1,209.7,-45.0,-4.8,161.1,-183.6,-6.6,-213.0,-6.0,-4.8,142.2,-156.6,-2.1,95.1,-864.0,57.6,0,3852,0,145,0,
2.1433,-38.4,12.9,62.4,-77.7,38.7,-113.7,78.0,-113.7,-3186.3,209.7,-43.5,-1.2,153.0,-184.5,-8.7,-209.7,-6.3,-4.2,143.4,-154.5,-1.5,96.9,-859.5,55.8,0,3858,0,146,0,
2.1467,-36.0,17.4,66.3,-75.9,41.7,-113.4,84.9,-112.5,-3112.2,211.5,-37.5,1.5,141.0,-191.4,-17.1,-207.6,-6.0,-4.2,145.8,-153.0,-1.8,104.1,-860.1,47.4,0,3864,0,147,0,
2.1500,-36.6,9.9,60.0,-80.4,36.3,-116.4,81.0,-115.8,-3186.3,209.1,-46.8,-2.7,144.0,-188.4,-12.3,-209.1,-6.0,-4.5,134.4,-158.7,-1.5,99.9,-862.5,52.8,0,3870,0,148,0,
2.1533,-37.8,10.8,60.3,-81.3,36.9,-112.5,82.5,-114.9,-3038.1,205.5,-43.5,-1.2,150.0,-191.4,-11.4,-204.3,-6.3,-4.8,141.3,-154.2,-1.8,95.4,-861.3,49.5,0,3876,0,149,0,
2.1567,-39.9,2.4,54.0,-87.6,33.6,-114.6,80.1,-118.2,-3038.1,204.0,-50.1,-10.5,149.4,-194.1,-10.2,-203.4,-6.3,-4.2,135.3,-160.8,-1.8,90.9,-867.9,43.8,0,3882,0,150,0,
2.1600,-39.3,3.3,52.2,-86.7,33.3,-115.2,81.0,-114.9,-3112.2,200.7,-52.8,-14.4,146.7,-192.0,-9.9,-202.2,-6.0,-4.5,132.3,-163.5,-1.8,94.5,-859.5,40.8,0,3888,0,151,0,
2.1633,-36.3,4.2,55.5,-86.1,34.5,-109.8,81.3,-111.0,-3260.4,197.1,-55.8,-16.8,144.6,-191.1,-13.8,-206.1,-6.0,-4.8,129.9,-160.8,-1.8,93.6,-858.9,55.2,0,3894,0,152,0,
2.1667,-40.2,-0.6,51.6,-86.4,34.2,-111.0,83.7,-110.1,-3112.2,199.2,-48.3,-16.8,141.0,-200.4,-15.0,-191.7,-6.0,-4.8,128.4,-161.7,-1.8,90.3,-858.0,45.9,0,3900,0,153,0,
2.1700,-36.3,9.6,55.8,-81.9,38.7,-112.8,82.2,-109.2,-3112.2,196.5,-53.4,-17.1,153.3,-191.7,-15.3,-213.0,-6.3,-4.8,133.8,-162.0,-1.5,81.9,-865.2,46.8,0,3906,0,154,0,
2.1733,-36.3,7.5,61.2,-79.2,42.3,-109.8,86.7,-106.5,-3112.2,207.6,-42.9,-10.2,159.6,-189.6,-15.6,-222.3,-6.3,-4.5,139.8,-157.5,-1.8,95.7,-864.9,52.2,0,3912,0,155,0,
2.1767,-38.7,3.9,54.9,-85.5,39.0,-109.5,87.0,-108.9,-3038.1,194.7,-49.2,-13.5,139.2,-196.5,-14.1,-201.0,-6.3,-4.5,131.4,-159.0,-1.8,88.5,-852.9,55.2,0,3918,0,156,0,
2.1800,-42.3,0.6,47.7,-90.9,30.9,-118.5,83.1,-112.8,-3260.4,192.3,-58.5,-21.3,135.3,-189.9,-10.5,-200.1,-6.0,-4.2,129.0,-174.0,-2.1,72.6,-858.9,47.1,0,3924,0,157,0,
2.1833,-42.0,2.4,50.1,-93.0,25.8,-120.9,81.9,-110.7,-3260.4,192.0,-61.8,-23.4,142.2,-186.9,-5.1,-202.2,-6.0,-4.5,128.4,-174.6,-2.1,83.1,-858.9,41.7,0,3930,0,158,0,
2.1867,-40.8,4.8,53.7,-94.2,28.8,-121.2,82.2,-111.9,-3186.3,197.4,-53.1,-19.5,144.0,-193.2,-10.8,-208.5,-6.6,-4.5,129.3,-169.5,-1.5,88.5,-857.4,46.5,0,3936,0,159,0,
2.1900,-42.6,3.3,52.5,-94.8,23.7,-120.3,85.2,-113.7,-2889.9,193.2,-54.0,-24.0,144.0,-198.6,-14.1,-193.8,-6.0,-4.5,126.9,-171.9,-1.8,82.5,-850.5,42.6,0,3942,0,160,0,
2.1933,-42.6,2.4,48.6,-99.6,21.9,-116.1,81.0,-116.7,-3112.2,201.6,-55.8,-31.5,142.5,-187.8,-5.1,-200.7,-6.0,-4.2,128.4,-177.6,-1.5,83.1,-854.1,42.6,0,3948,0,161,0,
2.1967,-38.1,7.2,55.8,-93.3,27.6,-108.0,85.2,-110.4,-3260.4,207.0,-53.7,-20.1,139.8,-186.6,-9.6,-204.0,-6.3,-4.5,135.3,-165.0,-1.8,87.0,-853.5,56.1,0,3954,0,162,0,
2.2000,-37.2,10.2,60.3,-90.9,28.8,-108.9,87.9,-108.6,-3260.4,213.3,-47.4,-18.3,145.2,-182.7,-9.3,-195.9,-6.3,-4.2,138.0,-166.8,-1.8,89.4,-844.2,55.2,0,3960,0,163,0,
2.2033,-41.4,5.4,54.3,-94.8,25.5,-115.8,84.0,-112.8,-3112.2,203.1,-57.6,-28.2,151.8,-186.3,-7.2,-195.6,-6.3,-4.5,130.2,-173.1,-1.5,86.4,-849.6,51.9,0,3966,0,164,0,
2.2067,-41.1,6.9,52.5,-92.7,25.2,-114.9,84.9,-112.2,-3112.2,199.2,-52.2,-24.3,154.8,-181.5,-6.3,-198.6,-6.0,-4.2,132.6,-175.8,-1.8,86.7,-852.3,51.3,0,3972,0,165,0,
2.2100,-36.6,14.1,58.5,-87.3,32.4,-112.8,90.6,-108.6,-3038.1,205.5,-43.2,-14.1,159.9,-180.3,-2.1,-199.5,-6.3,-4.5,140.7,-165.0,-1.8,92.1,-852.6,55.2,0,3978,0,166,0,
2.2133,-35.7,12.6,61.2,-88.8,33.0,-108.3,93.0,-108.0,-3260.4,205.8,-46.2,-18.0,155.7,-183.0,-11.4,-198.3,-6.3,-4.5,141.0,-169.5,-1.8,90.9,-849.6,60.3,0,3984,0,167,0,
2.2167,-37.8,14.4,61.2,-87.0,35.7,-106.8,91.5,-105.9,-3260.4,217.5,-46.5,-15.6,153.6,-176.7,-2.4,-196.2,-6.6,-4.5,137.7,-161.7,-1.5,99.3,-849.0,63.9,0,3990,0,168,0,
2.2200,-32.4,16.2,63.6,-87.0,32.7,-107.4,90.0,-104.1,-3186.3,210.6,-52.8,-18.0,159.0,-172.5,3.9,-189.0,-6.3,-4.5,134.1,-161.4,-1.8,96.3,-848.4,59.7,0,3996,0,169,0,
2.2233,-35.1,18.3,61.5,-86.4,37.8,-106.5,93.3,-102.0,-2964.0,213.0,-48.3,-18.3,159.9,-179.7,-7.2,-203.7,-6.6,-4.5,134.1,-166.8,-1.8,101.1,-851.4,44.4,0,4002,0,170,0,
2.2267,-31.5,16.8,63.6,-85.8,35.4,-101.7,90.3,-99.6,-3260.4,203.4,-47.4,-13.5,153.9,-170.1,4.8,-199.5,-6.3,-4.5,137.4,-165.0,-1.8,95.4,-849.0,51.9,0,4008,0,171,0,
2.2300,-34.5,18.3,63.0,-84.3,36.6,-107.7,89.1,-103.2,-3186.3,215.4,-42.9,-13.8,156.0,-181.2,-2.1,-197.7,-6.6,-4.5,142.5,-163.2,-1.5,96.0,-848.4,63.6,0,4014,0,172,0,
2.2333,-36.0,14.4,59.7,-89.1,36.9,-106.2,91.8,-101.7,-3112.2,212.4,-47.4,-23.1,163.8,-182.7,-5.1,-194.4,-6.0,-4.5,140.4,-165.0,-1.8,98.1,-839.4,60.3,0,4020,0,173,0,
2.2367,-33.9,14.4,59.4,-88.2,30.6,-113.7,90.9,-104.4,-3038.1,218.4,-45.6,-24.6,163.8,-178.8,-6.0,-185.4,-6.6,-4.5,139.5,-164.1,-1.8,94.2,-834.9,63.3,0,4026,0,174,0,
2.2400,-36.9,7.2,58.2,-92.4,27.3,-120.3,86.4,-110.4,-3112.2,204.3,-48.9,-25.2,147.0,-182.7,-1.5,-181.8,-6.3,-4.8,135.0,-174.3,-2.1,84.3,-835.5,54.6,0,4032,0,175,0,
2.2433,-33.9,11.7,57.3,-87.9,30.9,-115.8,83.7,-108.3,-3112.2,216.9,-49.2,-17.4,155.7,-178.8,2.1,-203.4,-6.6,-4.5,136.2,-168.0,-1.5,95.1,-844.8,55.8,0,4038,0,176,0,
2.2467,-30.0,14.4,60.0,-84.0,34.2,-109.2,86.1,-104.1,-3112.2,214.5,-44.4,-12.6,152.7,-177.0,-0.3,-211.2,-6.3,-4.5,139.2,-160.5,-1.5,99.6,-845.1,54.9,0,4044,0,177,0,
2.2500,-33.3,12.3,60.6,-84.9,34.2,-109.5,85.8,-108.3,-3260.4,211.2,-42.9,-13.2,151.5,-176.7,-10.5,-190.2,-6.6,-4.8,140.1,-162.9,-1.8,96.6,-832.5,54.9,0,4050,0,178,0,
2.2533,-33.6,9.0,60.3,-86.1,35.7,-107.4,87.0,-109.2,-2964.0,211.5,-43.2,-14.1,156.6,-173.1,-8.1,-207.6,-6.3,-4.8,136.2,-163.2,-1.5,93.0,-842.4,64.5,0,4056,0,179,0,
2.2567,-35.7,7.5,61.8,-81.9,37.5,-104.7,85.8,-112.8,-3038.1,208.2,-48.0,-12.3,159.0,-182.1,-10.2,-205.5,-6.6,-4.5,135.9,-165.9,-1.8,96.6,-842.1,61.2,0,4062,0,180,0,
2.2600,-37.2,4.8,55.8,-89.7,31.8,-115.8,83.1,-114.9,-3112.2,199.5,-52.8,-21.3,154.8,-180.3,-3.9,-199.2,-6.3,-4.5,127.5,-169.2,-1.8,93.3,-847.2,48.0,0,4068,0,181,0,
2.2633,-36.3,6.6,58.2,-81.9,37.8,-107.7,86.1,-106.8,-2964.0,208.5,-52.8,-24.0,160.2,-189.6,-29.4,-213.0,-6.6,-4.8,130.8,-167.7,-1.8,91.5,-851.4,51.0,0,4074,0,182,0,
2.2667,-35.7,6.3,56.1,-90.9,37.2,-110.4,86.4,-108.0,-2964.0,199.5,-58.5,-31.2,151.8,-187.5,-9.3,-206.4,-6.3,-4.2,123.6,-173.4,-1.5,76.5,-858.9,52.8,0,4080,0,183,0,
2.2700,-36.6,7.5,51.0,-91.5,36.6,-109.5,86.7,-105.6,-3038.1,191.4,-56.7,-25.8,147.0,-181.8,-7.5,-204.6,-6.0,-4.5,123.9,-173.4,-1.8,79.8,-858.3,51.6,0,4086,0,184,0,
2.2733,-38.1,8.1,51.9,-93.3,33.0,-114.0,85.2,-110.7,-2964.0,192.3,-62.7,-30.6,144.6,-183.6,-12.0,-207.3,-6.0,-4.8,122.1,-174.6,-2.1,84.0,-858.9,42.0,0,4092,0,185,0,
2.2767,-41.1,4.8,51.3,-93.6,32.4,-114.9,81.3,-110.7,-2964.0,198.3,-65.4,-35.7,144.3,-189.0,-18.0,-216.3,-6.0,-4.5,116.7,-174.6,-1.8,76.2,-869.1,43.8,0,4098,0,186,0,
2.2800,-37.8,6.3,53.7,-89.7,35.7,-110.4,86.4,-109.5,-3112.2,191.4,-56.4,-24.0,146.7,-190.8,-10.8,-195.9,-6.3,-4.5,121.2,-171.0,-2.1,78.0,-855.9,51.9,0,4104,0,187,0,
2.2833,-36.9,9.0,57.6,-87.3,37.8,-113.1,85.2,-106.8,-3112.2,197.4,-53.4,-19.8,149.1,-185.4,-21.0,-204.3,-6.0,-4.2,127.2,-170.7,-2.1,85.2,-856.8,51.6,0,4110,0,188,0,
2.2867,-42.6,6.0,52.8,-87.3,36.3,-109.5,87.0,-105.6,-2964.0,194.7,-55.5,-24.0,139.2,-189.3,-15.9,-191.1,-6.6,-4.5,122.1,-172.8,-1.5,81.3,-846.6,50.1,0,4116,0,189,0,
2.2900,-39.6,9.9,63.0,-81.0,42.9,-105.6,83.4,-104.1,-2964.0,200.7,-51.3,-21.9,150.0,-186.6,-18.3,-210.6,-6.3,-4.5,126.9,-166.8,-1.5,84.3,-858.0,50.7,0,4122,0,190,0,
2.2933,-37.2,9.6,58.8,-81.9,42.0,-105.6,84.9,-104.4,-2964.0,192.3,-53.1,-21.6,148.5,-180.9,-7.8,-202.2,-6.3,-4.5,125.4,-167.7,-1.8,79.5,-855.9,55.8,0,4128,0,191,0,
2.2967,-37.2,12.0,61.8,-75.6,45.3,-96.9,86.1,-99.6,-3112.2,197.4,-54.0,-26.7,146.4,-184.8,-15.9,-203.7,-6.0,-4.8,127.2,-165.0,-1.5,81.6,-853.2,51.3,0,4134,0,192,0,
2.3000,-34.8,12.6,62.4,-75.0,48.6,-94.2,87.0,-100.5,-3112.2,203.1,-51.9,-16.5,150.3,-183.6,-24.9,-226.8,-6.0,-4.5,127.8,-158.7,-1.8,87.9,-852.6,53.1,0,4140,0,193,0,
2.3033,-36.6,8.7,60.9,-78.0,41.4,-102.3,84.9,-100.5,-3038.1,192.3,-53.7,-19.8,139.8,-183.6,-10.8,-210.9,-6.3,-4.5,124.5,-166.8,-1.8,84.0,-856.8,52.2,0,4146,0,194,0,
2.3067,-36.3,4.2,57.3,-79.2,41.1,-108.3,84.9,-104.7,-2964.0,198.0,-51.0,-19.2,141.3,-181.5,-13.2,-206.4,-6.3,-4.5,120.3,-171.0,-1.8,78.6,-856.8,52.2,0,4152,0,195,0,
2.3100,-30.0,18.0,68.4,-70.2,53.7,-98.1,89.4,-96.9,-3112.2,207.3,-41.7,-7.2,150.3,-184.8,-11.1,-202.8,-6.0,-4.8,128.4,-159.9,-1.5,94.2,-850.5,57.0,0,4158,0,196,0,
2.3133,-29.7,18.6,68.4,-68.1,54.9,-100.2,89.1,-95.4,-3038.1,202.2,-39.6,-9.0,150.9,-185.4,-17.7,-206.1,-6.3,-4.5,130.2,-154.2,-1.8,92.4,-846.0,65.1,0,4164,0,197,0,
2.3167,-33.0,16.5,66.9,-65.1,50.4,-101.1,88.5,-95.1,-3112.2,198.9,-45.3,-13.5,154.2,-183.3,-11.4,-201.0,-6.3,-4.5,129.9,-157.5,-2.1,93.0,-849.3,45.0,0,4170,0,198,0,
2.3200,-35.4,15.6,64.8,-70.5,44.7,-103.2,84.0,-99.3,-3038.1,196.8,-46.5,-20.4,157.2,-187.5,-8.1,-198.0,-6.3,-4.5,130.8,-162.9,-1.5,84.3,-852.9,40.8,0,4176,0,199,0,
2.3233,-34.2,17.1,67.8,-68.4,48.3,-103.5,83.4,-98.7,-3038.1,207.0,-43.8,-11.4,146.7,-180.6,-10.8,-204.0,-6.6,-4.2,130.5,-159.3,-1.5,96.0,-855.6,57.6,0,4182,0,200,0,
2.3267,-36.0,16.5,69.6,-66.3,46.5,-102.9,86.7,-101.7,-3038.1,202.5,-47.7,-12.6,146.1,-185.4,-14.4,-204.0,-6.3,-4.2,128.7,-157.8,-1.2,100.5,-853.2,69.0,0,4188,0,201,0,
2.3300,-38.1,5.7,56.4,-77.7,39.0,-113.1,84.3,-104.7,-3186.3,193.8,-59.1,-25.8,146.7,-187.2,-6.0,-189.9,-6.6,-4.5,114.9,-170.1,-1.5,75.9,-851.7,53.1,0,4194,0,202,0,
2.3333,-38.4,9.6,54.6,-75.9,42.0,-111.6,82.5,-102.3,-3112.2,191.7,-66.6,-28.8,153.0,-180.3,-6.9,-213.3,-6.0,-4.8,105.0,-169.2,-1.8,82.8,-861.6,51.9,0,4200,0,203,0,
2.3367,-38.7,4.8,49.8,-78.9,36.0,-109.5,83.1,-105.9,-3038.1,184.8,-72.9,-34.5,139.2,-181.5,-9.9,-211.8,-6.3,-4.5,96.0,-174.9,-2.1,79.8,-861.9,51.3,0,4206,0,204,0,
2.3400,-41.1,5.4,54.0,-81.3,36.6,-109.5,80.4,-105.6,-3038.1,190.2,-61.5,-30.0,147.0,-183.0,-11.4,-206.4,-6.0,-4.5,107.7,-171.9,-1.8,82.5,-857.7,55.2,0,4212,0,205,0,
2.3433,-38.1,9.6,64.5,-76.8,36.3,-110.1,85.2,-105.6,-2964.0,198.6,-41.4,-16.8,150.9,-184.8,-15.0,-204.9,-6.3,-4.2,124.8,-166.8,-2.1,87.0,-849.0,59.1,0,4218,0,206,0,
2.3467,-39.3,11.7,59.4,-79.5,36.0,-110.1,84.0,-108.0,-3112.2,199.5,-46.8,-15.0,148.5,-186.3,-16.5,-207.0,-6.0,-4.5,128.1,-166.2,-1.5,87.3,-848.1,50.1,0,4224,0,207,0,
2.3500,-41.7,7.2,54.9,-83.1,32.4,-111.0,83.1,-111.0,-3038.1,194.1,-53.7,-26.7,134.4,-187.5,-14.7,-204.9,-6.3,-4.2,122.1,-175.5,-1.5,79.2,-843.9,50.1,0,4230,0,208,0,
2.3533,-42.0,14.1,59.7,-79.5,34.2,-107.4,82.2,-105.3,-3038.1,198.9,-53.4,-24.3,142.5,-189.6,-16.5,-205.2,-6.0,-4.5,127.2,-169.5,-1.8,85.2,-843.6,57.3,0,4236,0,209,0,
2.3567,-35.7,16.5,66.0,-73.5,41.4,-108.6,84.6,-102.6,-2815.8,196.8,-43.2,-16.8,154.5,-180.9,-3.9,-200.7,-6.3,-4.8,134.7,-167.1,-1.8,83.7,-845.7,53.4,0,4242,0,210,0,
2.3600,-34.8,7.8,61.5,-79.8,33.6,-112.5,86.1,-105.3,-2964.0,195.0,-51.3,-29.7,149.4,-180.3,5.7,-192.9,-6.3,-4.5,130.8,-174.6,-1.8,83.4,-842.7,51.0,0,4248,0,211,0,
2.3633,-33.0,14.4,67.8,-75.6,40.2,-105.9,85.2,-100.8,-3112.2,202.8,-46.5,-21.6,153.3,-177.9,-8.1,-206.4,-6.0,-4.5,135.0,-168.6,-2.1,85.8,-840.0,56.1,0,4254,0,212,0,
2.3667,-30.6,14.7,70.5,-74.4,41.4,-106.8,85.8,-98.4,-2964.0,201.9,-41.1,-18.3,153.3,-176.1,-7.2,-197.1,-6.3,-4.5,137.7,-169.2,-2.1,84.6,-838.5,61.2,0,4260,0,213,0,
2.3700,-30.6,17.4,72.0,-70.2,41.7,-102.3,85.5,-92.4,-2889.9,210.9,-42.9,-15.3,157.8,-170.7,-14.7,-209.4,-6.6,-4.8,137.4,-167.4,-1.8,87.6,-843.3,57.9,0,4266,0,214,0,
2.3733,-30.6,14.7,63.9,-74.7,36.0,-107.1,85.8,-97.8,-2964.0,199.8,-46.8,-21.3,155.7,-173.7,-6.9,-198.9,-6.0,-4.5,132.6,-170.1,-1.8,86.4,-843.9,52.2,0,4272,0,215,0,
2.3767,-37.2,10.5,57.9,-81.0,31.5,-108.6,86.4,-102.3,-2889.9,194.4,-52.8,-26.1,149.4,-182.1,-14.4,-196.8,-6.3,-4.2,126.0,-176.4,-1.8,79.8,-838.8,48.6,0,4278,0,216,0,
2.3800,-33.3,9.9,59.4,-85.5,28.2,-106.5,85.5,-104.7,-3112.2,201.6,-48.6,-28.8,160.2,-179.1,-9.0,-201.0,-6.0,-4.2,130.8,-179.1,-1.8,86.4,-841.8,51.9,0,4284,0,217,0,
2.3833,-36.9,14.1,57.3,-83.1,31.5,-105.9,82.5,-101.1,-2964.0,203.1,-53.4,-29.7,166.2,-177.0,-7.5,-207.6,-6.0,-4.5,132.0,-180.0,-1.8,82.8,-842.4,60.9,0,4290,0,218,0,
2.3867,-33.9,17.7,61.2,-79.5,35.7,-101.4,90.6,-96.3,-3112.2,210.0,-49.2,-19.2,164.4,-176.4,-15.0,-201.6,-6.0,-4.8,136.8,-171.9,-1.5,94.5,-839.1,63.9,0,4296,0,219,0,
2.3900,-33.6,15.9,60.6,-80.7,34.5,-103.5,89.1,-96.6,-2889.9,210.9,-50.7,-25.5,155.4,-179.7,-11.1,-193.8,-6.0,-4.2,134.4,-171.6,-1.5,87.9,-843.3,54.6,0,4302,0,220,0,
2.3933,-36.3,14.1,57.3,-89.7,29.1,-109.5,87.0,-102.3,-2964.0,204.0,-48.6,-29.4,146.7,-180.3,-14.7,-193.8,-6.0,-4.5,132.0,-176.4,-1.8,88.5,-840.0,52.2,0,4308,0,221,0,
2.3967,-30.0,18.9,61.5,-86.4,34.2,-105.0,89.4,-101.7,-3112.2,211.8,-47.4,-26.1,145.2,-174.9,-8.7,-196.8,-6.3,-4.5,135.0,-171.9,-2.1,94.2,-836.7,55.8,0,4314,0,222,0,
2.4000,-29.1,20.4,61.5,-80.7,39.6,-100.8,87.9,-99.3,-3038.1,212.1,-45.3,-22.8,163.2,-172.2,-8.1,-200.4,-6.3,-4.8,139.8,-166.8,-1.5,96.0,-837.6,61.5,0,4320,0,223,0,
2.4033,-28.2,20.4,66.0,-81.6,36.9,-105.0,88.2,-101.4,-3038.1,209.7,-42.6,-20.1,165.6,-167.4,4.2,-186.0,-6.0,-4.5,134.7,-171.6,-1.8,103.5,-829.5,51.6,0,4326,0,224,0,
2.4067,-27.3,20.7,67.5,-77.1,37.8,-102.3,90.3,-96.6,-2964.0,210.3,-41.7,-14.4,168.0,-167.1,1.8,-193.5,-6.3,-4.5,133.2,-167.7,-1.8,92.7,-831.9,48.3,0,4332,0,225,0,
2.4100,-29.4,17.4,69.3,-75.9,37.2,-99.9,90.9,-94.5,-3112.2,210.3,-45.9,-18.6,159.9,-175.5,-6.3,-205.5,-6.0,-4.5,133.2,-171.9,-1.8,90.9,-836.1,55.8,0,4338,0,226,0,
2.4133,-30.0,11.7,64.8,-78.3,36.0,-104.4,91.5,-95.4,-2964.0,205.8,-47.7,-23.4,156.0,-183.6,-2.7,-188.4,-6.3,-4.2,132.3,-178.2,-2.1,86.7,-833.1,53.1,0,4344,0,227,0,
2.4167,-34.8,9.6,60.9,-83.7,35.7,-104.4,94.5,-99.9,-3112.2,203.1,-50.4,-21.9,159.6,-182.7,-4.2,-186.3,-6.3,-4.5,129.9,-177.0,-1.8,87.3,-835.2,59.4,0,4350,0,228,0,
2.4200,-32.7,8.1,60.3,-83.4,33.3,-107.1,91.5,-101.1,-2889.9,203.4,-52.2,-24.6,162.9,-182.7,-5.1,-193.5,-6.0,-4.2,128.4,-169.5,-1.5,88.5,-836.4,60.0,0,4356,0,229,0,
2.4233,-35.7,9.0,58.5,-86.4,28.8,-111.0,89.4,-104.4,-3038.1,195.6,-53.4,-29.4,153.0,-182.4,-7.2,-198.3,-6.3,-4.5,125.4,-174.9,-1.5,80.4,-835.5,61.2,0,4362,0,230,0,
2.4267,-35.1,12.0,64.2,-81.6,35.7,-105.0,87.6,-101.4,-3112.2,200.1,-47.7,-26.7,143.7,-179.1,-0.6,-201.3,-6.3,-4.5,131.4,-168.0,-1.8,93.6,-837.6,58.8,0,4368,0,231,0,
