# Mains_Frequency_(Hz) =,60,,,,,,,,,,,,,,,,,,,,,,,,,,,
# Sample_Frequency_(Hz) =,300,,,,,,,,,,,,,,,,,,,,,,,,,,,
# Filter_Delay_(ms) =,43.3,,,,,,,,,,,,,,,,,,,,,,,,,,,
# Sensor_Data_Units =,uV,,,,,,,,,,,,,,,,,,,,,,,,,,,
# Headset_Name =,DSI-24 SN:1580,,,,,,,,,,,,,,,,,,,,,,,,,,,
# Data_Logger =,DSI-Streamer-v.1.08.31,,,,,,,,,,,,,,,,,,,,,,,,,,,
# Date =,4/20/2018,,,,,,,,,,,,,,,,,,,,,,,,,,,
# Time =,11:37:32,,,,,,,,,,,,,,,,,,,,,,,,,,,
# Patient_ID =,X F 01-MAY-1999 X,,,,,,,,,,,,,,,,,,,,,,,,,,,
# Record_ID =,Startdate 20-APR-2018 EEG_XX X X,,,,,,,,,,,,,,,,,,,,,,,,,,,
# Filter =,Non-Filtered,,,,,,,,,,,,,,,,,,,,,,,,,,,
# Comments =,,,,,,,,,,,,,,,,,,,,,,,,,,,,
# Reference location:,Pz,,,,,,,,,,,,,,,,,,,,,,,,,,,
# Trigger Source,Wireless,,,,,,,,,,,,,,,,,,,,,,,,,,,
# Channel_Number =,ch_1,ch_2,ch_3,ch_4,ch_5,ch_6,ch_7,ch_8,ch_9,ch_10,ch_11,ch_12,ch_13,ch_14,ch_15,ch_16,ch_17,ch_18,ch_19,ch_20,ch_21,ch_22,ch_23,ch_24,Trigger,Time_Offset,ADC_Status,ADC_Sequence,Event,Comments
Time,P3,C3,F3,Fz,F4,C4,P4,Cz,CM,A1,Fp1,Fp2,T3,T5,O1,O2,X3,X2,F7,F8,X1,A2,T6,T4,Trigger,Time_Offset,ADC_Status,ADC_Sequence,Event,Comments
0.0033,-32.1,64.5,90.0,-81.3,62.1,-58.8,114.0,-109.5,-3112.2,237.3,-46.8,145.8,134.7,-31.5,-21.3,-243.0,-6.3,-4.5,90.3,-108.6,-2.1,134.1,-44.4,109.5,0,6,0,123,0,Start Data Acquisition
0.0067,-28.5,64.2,86.1,-84.9,54.6,-63.3,114.0,-112.2,-3260.4,236.1,-49.8,142.8,135.0,-16.8,-19.5,-242.7,-6.3,-4.2,92.4,-108.0,-1.8,130.8,-50.7,108.3,0,12,0,124,0,
0.0100,-29.4,61.8,75.6,-89.1,48.3,-68.4,113.7,-114.9,-2964.0,230.1,-57.0,133.2,121.8,-18.6,-18.9,-237.3,-6.0,-4.5,81.9,-118.5,-1.5,116.4,-40.8,103.8,0,18,0,125,0,
0.0133,-29.1,62.4,78.9,-90.0,48.9,-67.5,111.9,-116.4,-3112.2,234.9,-48.0,141.6,122.1,-23.7,-23.1,-245.1,-6.3,-4.2,87.6,-111.3,-1.8,130.8,-45.6,114.0,0,24,0,126,0,
0.0167,-26.1,59.7,79.5,-85.2,58.2,-62.7,117.0,-111.9,-3186.3,239.4,-47.4,143.1,130.8,-18.6,-23.1,-245.4,-6.3,-4.5,89.4,-102.6,-1.8,135.0,-36.9,117.3,0,30,0,127,0,
0.0200,-29.7,59.7,75.6,-86.4,56.7,-63.9,122.1,-116.1,-3038.1,236.1,-53.1,147.6,129.0,-18.9,-13.8,-231.9,-6.3,-4.8,87.6,-102.3,-1.8,130.2,-23.7,120.3,0,36,0,128,0,
0.0233,-29.1,59.1,73.5,-89.4,59.7,-60.3,123.3,-116.1,-3038.1,235.2,-57.9,144.6,134.7,-17.1,-6.6,-225.6,-6.3,-4.2,85.2,-104.1,-1.5,132.0,-20.1,130.2,0,42,0,129,0,
0.0267,-33.0,57.9,74.4,-96.3,56.7,-61.8,118.8,-124.2,-3112.2,230.1,-56.4,140.4,132.9,-21.0,-3.0,-231.3,-6.3,-4.8,82.2,-109.5,-1.8,129.6,-21.6,126.6,0,48,0,130,0,
0.0300,-34.5,55.8,72.9,-94.5,57.9,-60.0,119.1,-120.3,-2964.0,233.4,-56.7,142.5,126.3,-23.7,-4.8,-221.1,-6.3,-4.8,78.6,-104.7,-1.8,133.5,-18.9,129.9,0,54,0,131,0,
0.0333,-35.4,57.3,75.6,-87.3,60.3,-57.3,123.3,-115.5,-3112.2,240.0,-50.7,148.8,133.8,-24.9,-14.4,-234.6,-6.0,-4.8,85.5,-96.9,-1.5,138.3,-22.2,136.2,0,60,0,132,0,
0.0367,-38.4,55.5,75.9,-91.5,59.1,-58.8,123.9,-118.8,-3112.2,231.3,-56.1,145.2,124.2,-18.3,-22.8,-244.5,-6.3,-4.5,82.2,-97.8,-2.1,135.6,-13.5,135.3,0,66,0,133,0,
0.0400,-35.4,59.4,81.0,-84.0,63.6,-51.6,122.7,-115.5,-3186.3,234.9,-50.4,153.3,127.8,-18.0,-27.6,-249.3,-6.3,-4.2,84.6,-90.0,-2.1,143.7,-21.9,145.5,0,72,0,134,0,
0.0433,-28.8,63.3,83.4,-84.6,63.9,-51.3,128.4,-114.0,-2964.0,241.8,-47.1,159.0,131.1,-9.0,-15.6,-246.9,-6.0,-4.5,89.4,-90.0,-2.1,146.1,-22.8,148.2,0,78,0,135,0,
0.0467,-35.1,61.8,82.5,-85.8,69.0,-54.0,126.0,-114.0,-3112.2,243.6,-41.7,153.3,125.1,-25.2,-28.2,-246.3,-6.6,-4.5,90.3,-95.1,-2.1,141.9,-23.1,133.8,0,84,0,136,0,
0.0500,-31.5,59.1,75.9,-89.1,63.9,-58.2,123.6,-115.5,-3038.1,234.9,-49.2,144.6,131.7,-14.4,-9.9,-234.3,-6.3,-4.5,85.5,-102.9,-1.8,134.1,-18.3,129.9,0,90,0,137,0,
0.0533,-28.2,61.8,83.4,-83.4,68.4,-53.4,124.5,-114.0,-3186.3,232.2,-42.9,153.6,140.7,-14.1,-7.8,-239.7,-6.6,-4.2,96.9,-99.6,-1.8,136.5,-25.5,134.1,0,96,0,138,0,
0.0567,-27.6,64.5,87.6,-79.8,63.6,-53.7,125.4,-111.9,-2964.0,236.1,-47.7,156.0,141.6,-16.5,-12.0,-243.0,-6.0,-4.8,97.5,-90.9,-1.8,130.2,-26.4,129.9,0,102,0,139,0,
0.0600,-25.2,69.0,94.8,-74.7,72.0,-51.0,128.1,-110.1,-2889.9,249.3,-39.0,162.6,142.2,-25.8,-27.0,-251.1,-6.3,-4.2,104.4,-80.4,-2.1,144.3,-34.2,138.3,0,108,0,140,0,
0.0633,-24.9,67.8,91.8,-76.2,72.6,-52.8,124.8,-110.1,-3038.1,245.7,-37.8,155.7,138.6,-14.4,-15.9,-244.8,-6.0,-4.8,96.6,-88.2,-1.5,143.7,-31.2,131.1,0,114,0,141,0,
0.0667,-27.9,70.2,96.0,-71.4,75.0,-47.7,127.8,-108.0,-3038.1,246.3,-33.0,164.4,142.2,-14.4,-21.0,-240.3,-6.3,-3.9,103.5,-85.5,-2.1,152.4,-32.4,134.7,0,120,0,142,0,
0.0700,-29.7,62.1,85.8,-78.6,69.6,-52.8,125.4,-110.4,-3038.1,239.1,-43.8,160.2,129.9,-14.7,-11.7,-229.5,-6.0,-4.5,93.9,-93.0,-1.5,141.0,-26.7,122.1,0,126,0,143,0,
0.0733,-34.5,60.3,82.2,-84.6,60.3,-57.3,123.3,-114.3,-3112.2,246.3,-50.1,154.8,129.0,-22.5,-16.8,-231.9,-6.0,-4.2,88.2,-95.4,-1.8,130.5,-23.1,122.4,0,132,0,144,0,
0.0767,-35.1,60.9,78.9,-87.0,59.7,-60.6,119.7,-117.3,-3112.2,237.9,-45.9,145.2,126.3,-20.7,-10.5,-228.9,-6.0,-4.2,87.0,-99.6,-1.5,134.7,-29.4,109.2,0,138,0,145,0,
0.0800,-35.7,57.3,77.7,-88.5,60.0,-61.8,117.3,-114.3,-2964.0,240.0,-46.5,146.1,128.4,-19.2,-7.8,-224.1,-6.0,-4.2,86.1,-102.6,-1.5,130.5,-29.1,120.3,0,144,0,146,0,
0.0833,-33.6,62.7,84.0,-84.0,65.7,-63.0,119.7,-112.8,-3038.1,243.0,-44.1,141.3,129.9,-24.3,-7.5,-235.5,-6.3,-4.8,87.0,-102.0,-2.1,138.3,-42.0,129.0,0,150,0,147,0,
0.0867,-35.7,60.0,85.8,-84.0,60.3,-64.5,117.3,-115.2,-3112.2,238.5,-52.8,140.4,128.1,-29.4,-23.4,-234.9,-6.3,-4.2,88.8,-101.7,-1.8,136.2,-32.7,121.2,0,156,0,148,0,
0.0900,-30.9,63.3,87.9,-79.8,64.5,-64.2,121.8,-113.7,-3038.1,244.2,-45.0,150.0,132.0,-26.4,-31.8,-226.2,-6.3,-4.5,92.4,-100.8,-1.8,138.6,-26.4,118.5,0,162,0,149,0,
0.0933,-34.2,57.3,77.4,-92.4,54.9,-65.7,118.2,-118.8,-3038.1,231.9,-54.0,145.8,126.9,-24.3,-11.7,-219.6,-6.0,-4.5,83.1,-116.1,-1.8,130.8,-26.1,116.4,0,168,0,150,0,
0.0967,-36.3,57.6,75.3,-94.8,49.8,-72.9,113.7,-120.9,-2964.0,232.5,-56.7,134.7,119.1,-28.8,-14.4,-229.2,-6.3,-4.5,78.9,-117.3,-1.5,129.9,-30.3,111.3,0,174,0,151,0,
0.1000,-27.6,64.8,83.4,-87.9,54.0,-63.3,120.9,-115.5,-3038.1,248.4,-49.2,142.5,134.4,-26.7,-10.5,-241.2,-6.3,-4.5,88.8,-105.3,-1.5,132.6,-33.3,117.9,0,180,0,152,0,
0.1033,-23.4,66.9,84.9,-90.0,52.5,-66.9,117.0,-116.1,-3112.2,237.9,-50.7,143.1,135.0,-5.4,2.7,-243.6,-6.3,-5.1,87.6,-106.8,-1.8,136.5,-44.7,115.2,0,186,0,153,0,
0.1067,-30.3,58.8,77.7,-94.8,47.7,-68.1,116.7,-119.1,-2964.0,234.6,-61.2,134.4,126.0,-6.9,5.1,-229.5,-6.6,-4.5,81.6,-113.7,-1.8,133.5,-38.4,104.1,0,192,0,154,0,
0.1100,-30.0,64.5,84.3,-86.1,59.4,-60.0,119.7,-114.9,-3038.1,246.0,-50.4,145.8,141.0,-12.0,-29.4,-247.2,-6.3,-4.5,86.7,-106.5,-2.1,141.3,-30.3,112.2,0,198,0,155,0,
0.1133,-35.1,64.8,88.5,-81.0,60.9,-58.5,122.1,-112.8,-3112.2,249.0,-45.3,151.8,136.8,-19.5,-30.9,-245.4,-6.3,-4.2,92.4,-104.1,-1.8,135.3,-24.6,118.2,0,204,0,156,0,
0.1167,-36.0,59.1,88.5,-83.7,56.1,-64.2,117.0,-117.9,-3038.1,246.0,-48.6,146.1,135.9,-22.5,-28.2,-240.0,-6.3,-4.8,83.4,-110.1,-1.8,134.7,-37.5,108.0,0,210,0,157,0,
0.1200,-34.2,60.3,83.1,-87.6,55.8,-62.4,116.1,-120.9,-3112.2,243.9,-53.4,140.4,131.4,-21.3,-22.8,-231.9,-6.3,-4.5,83.1,-109.8,-1.8,133.2,-40.5,116.1,0,216,0,158,0,
0.1233,-32.1,65.4,85.5,-81.6,62.7,-59.7,120.3,-116.1,-2889.9,241.2,-41.4,150.0,138.3,-14.7,-17.7,-242.7,-6.0,-4.5,94.5,-105.0,-2.1,133.5,-39.9,112.8,0,222,0,159,0,
0.1267,-35.1,62.4,86.1,-83.4,60.6,-57.6,122.1,-116.1,-3038.1,243.0,-40.5,149.7,141.6,-15.0,-12.9,-240.6,-6.0,-4.5,92.7,-98.7,-1.5,138.0,-34.2,116.7,0,228,0,160,0,
0.1300,-30.9,61.5,78.0,-87.6,58.8,-56.7,125.7,-116.7,-2964.0,241.2,-46.2,149.7,139.8,-13.8,-16.2,-226.8,-6.3,-4.5,84.9,-102.0,-1.8,132.6,-31.5,125.1,0,234,0,161,0,
0.1333,-32.7,64.2,86.4,-81.9,62.4,-54.0,126.0,-112.5,-3186.3,244.5,-37.5,158.7,142.5,-24.0,-24.0,-237.3,-6.0,-4.5,94.8,-97.2,-1.8,148.2,-31.8,125.7,0,240,0,162,0,
0.1367,-36.0,59.1,81.3,-88.5,55.8,-58.5,125.7,-116.1,-3038.1,235.8,-57.3,151.2,130.2,-18.3,-24.6,-233.1,-6.3,-4.5,86.7,-97.5,-1.5,129.3,-25.8,121.2,0,246,0,163,0,
0.1400,-31.2,61.8,81.3,-90.6,54.6,-58.8,123.9,-114.9,-3112.2,231.9,-54.9,144.0,126.3,-8.7,-15.6,-232.5,-6.3,-4.5,79.5,-98.7,-1.8,136.5,-26.7,125.4,0,252,0,164,0,
0.1433,-30.6,60.0,76.8,-92.4,51.0,-62.4,121.2,-117.6,-3112.2,232.5,-48.3,143.4,134.7,-9.6,-10.8,-232.8,-6.3,-4.8,81.6,-97.5,-1.8,126.6,-33.0,127.2,0,258,0,165,0,
0.1467,-34.5,56.4,74.7,-96.3,50.7,-63.0,121.8,-122.1,-3112.2,227.7,-53.7,139.2,131.4,-18.3,-13.2,-231.6,-6.0,-4.5,78.3,-100.8,-1.8,123.6,-27.9,128.7,0,264,0,166,0,
0.1500,-31.5,65.7,80.4,-86.4,58.8,-56.1,126.6,-116.7,-3186.3,238.2,-42.3,151.5,140.1,-18.9,-17.4,-231.3,-6.0,-4.2,88.2,-95.4,-1.8,142.8,-24.6,128.4,0,270,0,167,0,
0.1533,-27.6,68.7,84.0,-86.1,56.1,-56.7,125.1,-115.8,-3112.2,239.7,-43.5,153.9,138.3,-15.6,-12.0,-226.8,-6.0,-4.5,88.8,-92.7,-1.8,142.8,-27.3,131.4,0,276,0,168,0,
0.1567,-27.0,66.9,77.1,-90.3,51.6,-62.1,123.6,-115.8,-2964.0,231.0,-49.2,141.6,136.5,-13.5,-3.3,-220.8,-6.0,-4.5,83.7,-103.2,-1.8,129.0,-22.2,123.6,0,282,0,169,0,
0.1600,-28.2,66.6,78.9,-89.1,49.5,-62.7,119.7,-114.0,-3112.2,237.0,-45.6,147.0,135.6,-19.2,-9.9,-220.2,-6.3,-4.2,84.3,-99.6,-1.5,135.3,-24.6,122.7,0,288,0,170,0,
0.1633,-28.2,68.1,83.4,-82.2,54.9,-58.5,120.0,-112.2,-3038.1,242.4,-35.4,152.7,136.8,-22.2,-12.9,-221.7,-6.3,-4.5,94.5,-96.9,-1.8,132.0,-24.9,127.5,0,294,0,171,0,
0.1667,-25.8,70.8,83.4,-81.6,59.1,-57.0,123.0,-114.0,-3112.2,243.6,-37.8,150.9,136.2,-17.1,-17.7,-225.6,-6.0,-4.5,97.5,-98.7,-2.1,140.4,-26.7,134.4,0,300,0,172,0,
0.1700,-25.5,65.4,87.6,-87.0,59.4,-53.4,122.7,-112.5,-3038.1,241.2,-43.5,152.7,141.0,-24.0,-14.7,-225.3,-6.6,-4.2,90.3,-99.9,-1.8,147.6,-27.6,133.2,0,306,0,173,0,
0.1733,-24.0,63.6,80.4,-93.6,55.5,-59.7,125.4,-116.7,-2964.0,232.8,-52.8,145.2,130.8,-5.1,-1.8,-218.1,-6.3,-4.5,84.6,-105.0,-1.8,124.8,-18.3,117.3,0,312,0,174,0,
0.1767,-29.1,64.8,84.9,-88.2,60.0,-56.4,122.1,-116.7,-3112.2,236.7,-48.6,149.4,136.8,-9.0,-13.2,-237.6,-6.3,-4.5,87.6,-101.7,-2.1,131.7,-27.0,126.3,0,318,0,175,0,
0.1800,-24.9,72.0,94.8,-77.4,72.0,-49.5,126.3,-110.7,-3038.1,246.9,-31.8,160.2,145.5,-12.0,-15.3,-240.9,-6.3,-4.8,107.4,-90.3,-1.8,142.2,-20.7,131.1,0,324,0,176,0,
0.1833,-27.0,70.2,92.4,-78.6,70.2,-48.9,123.6,-108.3,-3038.1,251.7,-35.7,162.3,144.6,-17.4,-13.5,-238.5,-6.6,-4.2,101.4,-98.7,-1.8,143.1,-22.5,126.6,0,330,0,177,0,
0.1867,-25.8,71.4,90.9,-77.4,67.2,-47.4,121.8,-112.2,-3186.3,242.1,-34.2,161.7,134.4,-10.5,-10.5,-234.3,-6.3,-4.8,96.9,-90.6,-1.5,137.7,-25.8,127.2,0,336,0,178,0,
0.1900,-29.7,66.6,86.7,-84.0,66.3,-53.1,124.2,-114.3,-3112.2,231.9,-37.5,156.3,135.9,-14.4,-16.2,-221.1,-6.3,-4.2,92.4,-94.2,-1.5,129.0,-25.8,126.0,0,342,0,179,0,
0.1933,-26.1,74.1,93.0,-81.3,68.4,-51.0,124.2,-109.8,-2964.0,243.0,-38.4,159.3,142.2,-12.6,-10.5,-235.8,-6.0,-4.5,100.5,-91.8,-1.5,132.0,-21.3,120.0,0,348,0,180,0,
0.1967,-29.7,68.1,85.8,-86.4,59.7,-57.6,123.3,-115.5,-3112.2,242.7,-48.6,149.1,139.2,-16.5,-21.3,-241.8,-6.6,-4.5,89.7,-102.6,-1.8,133.2,-30.0,118.5,0,354,0,181,0,
0.2000,-23.4,67.2,84.9,-84.0,61.8,-55.8,120.3,-114.0,-3112.2,234.0,-47.4,151.2,140.1,-18.6,-23.1,-245.7,-6.3,-4.2,87.3,-105.3,-1.8,134.7,-34.5,121.2,0,360,0,182,0,
0.2033,-30.6,62.4,76.5,-92.1,53.7,-65.7,120.3,-119.7,-3186.3,236.1,-52.8,142.8,135.9,-27.0,-32.4,-245.1,-6.3,-4.8,81.3,-109.5,-2.1,122.4,-26.1,113.1,0,366,0,183,0,
0.2067,-28.2,66.0,75.3,-92.4,51.6,-61.5,119.7,-118.8,-3038.1,231.9,-49.8,144.0,141.6,-19.2,-24.9,-240.9,-6.3,-4.2,85.5,-109.8,-1.8,124.8,-27.6,109.2,0,372,0,184,0,
0.2100,-28.5,67.5,75.0,-93.6,49.8,-63.6,115.5,-118.8,-3038.1,234.3,-46.2,148.2,141.3,-21.9,-22.2,-245.1,-6.3,-4.5,84.3,-108.0,-2.1,124.2,-36.9,112.2,0,378,0,185,0,
0.2133,-28.8,64.8,77.1,-91.8,50.7,-64.5,117.9,-119.7,-3038.1,233.4,-50.1,147.0,132.9,-14.4,-5.4,-240.6,-6.0,-4.2,80.7,-109.5,-1.8,123.0,-35.1,111.0,0,384,0,186,0,
0.2167,-27.3,64.8,81.3,-86.7,56.4,-60.9,121.2,-117.9,-3038.1,231.6,-45.3,146.7,141.9,-18.9,-16.8,-238.5,-6.0,-5.1,84.3,-103.8,-1.5,125.4,-33.0,125.1,0,390,0,187,0,
0.2200,-25.2,65.4,81.0,-87.3,57.6,-60.3,119.7,-114.9,-3112.2,241.5,-45.9,148.8,143.4,-24.6,-21.9,-232.8,-6.6,-4.2,86.4,-110.4,-2.1,125.4,-25.5,117.6,0,396,0,188,0,
0.2233,-27.0,68.7,81.6,-86.4,63.6,-56.4,124.2,-116.4,-3112.2,236.4,-46.5,151.5,134.1,-15.3,-23.4,-240.9,-6.0,-4.5,82.5,-104.4,-1.5,129.0,-33.6,126.0,0,402,0,189,0,
0.2267,-31.2,66.6,81.3,-85.5,61.8,-60.3,119.4,-116.1,-3112.2,239.1,-44.4,153.3,142.5,-29.7,-31.2,-243.6,-6.3,-4.2,85.2,-96.6,-2.1,126.0,-36.0,129.0,0,408,0,190,0,
0.2300,-29.1,69.6,82.2,-81.6,66.3,-51.0,123.9,-113.1,-3112.2,239.4,-42.9,153.3,137.4,-22.8,-24.3,-239.7,-6.0,-4.5,89.4,-93.0,-1.8,132.6,-31.8,127.5,0,414,0,191,0,
0.2333,-26.4,70.8,81.9,-82.2,64.8,-56.4,122.1,-112.8,-3038.1,235.5,-46.8,152.7,139.5,-10.2,-5.7,-223.5,-6.3,-4.2,88.5,-102.0,-1.8,133.5,-21.0,128.4,0,420,0,192,0,
0.2367,-24.9,69.9,80.4,-81.3,61.5,-56.1,123.3,-116.4,-3112.2,237.3,-48.3,156.9,147.0,-16.2,-9.9,-220.8,-6.3,-4.8,87.0,-96.6,-1.8,133.2,-14.7,130.2,0,426,0,193,0,
0.2400,-29.4,65.4,75.3,-89.1,55.2,-63.3,118.5,-121.2,-3112.2,230.1,-52.5,150.0,142.5,-17.1,-9.3,-226.8,-6.3,-4.5,81.3,-104.7,-1.5,124.2,-19.2,125.1,0,432,0,194,0,
0.2433,-25.2,68.7,77.4,-86.7,57.0,-56.4,119.7,-121.5,-2964.0,239.4,-44.4,151.8,141.9,-13.5,-11.1,-237.3,-6.3,-4.2,86.7,-97.8,-1.8,140.4,-27.3,131.1,0,438,0,195,0,
0.2467,-27.6,70.8,86.4,-81.0,63.9,-53.1,119.7,-114.3,-3112.2,248.4,-39.9,156.0,147.9,-15.9,-18.9,-243.0,-6.3,-4.5,92.7,-90.0,-1.5,153.6,-20.7,133.8,0,444,0,196,0,
0.2500,-29.1,67.8,82.5,-79.2,63.0,-54.0,126.6,-116.1,-3112.2,238.2,-38.4,152.4,141.9,-20.1,-18.3,-228.3,-6.3,-4.5,86.7,-97.8,-1.8,139.5,-12.6,126.6,0,450,0,197,0,
0.2533,-29.7,64.2,81.0,-86.1,60.9,-55.5,126.3,-120.0,-3038.1,244.5,-42.9,146.4,144.6,-21.0,-6.0,-222.9,-6.3,-4.5,87.0,-101.7,-2.1,135.3,-17.4,116.4,0,456,0,198,0,
0.2567,-30.0,63.9,80.7,-82.5,58.2,-57.0,124.5,-117.0,-3112.2,243.9,-46.2,152.4,138.3,-25.2,-15.3,-226.5,-6.3,-4.2,88.2,-96.3,-2.1,132.6,-21.9,123.9,0,462,0,199,0,
0.2600,-26.7,63.0,77.4,-85.8,59.4,-57.9,122.4,-117.3,-3186.3,244.2,-45.0,147.3,135.0,-10.8,-12.9,-233.7,-6.3,-4.8,83.7,-99.0,-1.8,132.9,-23.4,124.5,0,468,0,200,0,
0.2633,-30.0,65.1,83.1,-84.9,57.6,-55.2,122.4,-116.7,-3112.2,243.0,-44.4,142.5,136.5,-25.8,-29.1,-234.3,-6.0,-4.5,83.4,-102.0,-1.8,127.8,-22.2,123.3,0,474,0,201,0,
0.2667,-26.7,63.6,78.0,-85.2,60.3,-53.7,120.0,-118.2,-3038.1,236.7,-47.1,144.9,135.6,-15.9,-13.8,-231.3,-6.3,-4.5,85.2,-106.5,-1.8,132.9,-27.0,113.1,0,480,0,202,0,
0.2700,-31.5,57.3,73.2,-90.6,55.2,-61.2,117.6,-121.2,-3112.2,226.5,-54.9,143.1,139.5,-23.4,-8.7,-229.8,-6.0,-4.5,77.7,-111.9,-2.1,120.9,-30.9,105.6,0,486,0,203,0,
0.2733,-27.9,64.5,79.2,-85.2,59.1,-57.0,121.5,-118.5,-3038.1,235.8,-49.2,149.1,138.9,-20.1,-15.6,-237.6,-6.3,-4.2,81.6,-103.8,-2.1,135.0,-34.5,124.5,0,492,0,204,0,
0.2767,-30.3,62.7,76.2,-86.7,58.8,-60.6,118.5,-117.6,-3038.1,237.3,-48.6,149.1,141.3,-26.4,-22.5,-245.7,-6.0,-4.8,77.7,-102.6,-2.1,123.9,-32.1,118.5,0,498,0,205,0,
0.2800,-25.8,67.8,75.3,-81.3,62.7,-54.3,121.5,-113.7,-3038.1,234.3,-45.9,149.7,138.6,-28.2,-28.5,-244.8,-6.3,-4.5,82.8,-102.6,-1.8,126.9,-34.2,121.8,0,504,0,206,0,
0.2833,-27.3,61.8,74.4,-86.4,54.3,-62.7,115.8,-117.6,-3038.1,222.3,-51.3,145.2,139.2,-28.8,-24.6,-250.8,-6.3,-4.5,82.5,-105.9,-1.5,113.7,-36.0,105.9,0,510,0,207,0,
0.2867,-28.5,63.3,70.2,-87.3,57.0,-64.5,121.8,-114.6,-3112.2,225.9,-50.1,143.7,131.7,-25.2,-24.0,-240.0,-6.0,-4.5,81.6,-112.8,-1.8,111.3,-23.1,102.0,0,516,0,208,0,
0.2900,-30.6,58.8,73.8,-85.5,57.0,-63.0,118.5,-115.8,-3038.1,223.2,-49.5,143.4,127.5,-29.4,-21.6,-251.1,-6.3,-4.8,79.8,-105.0,-1.8,116.7,-31.5,108.3,0,522,0,209,0,
0.2933,-27.0,61.2,78.0,-84.6,58.5,-61.5,124.5,-110.4,-2964.0,229.5,-47.1,141.6,132.9,-25.5,-15.6,-238.8,-5.7,-4.8,81.6,-102.3,-2.1,119.1,-29.1,123.3,0,528,0,210,0,
0.2967,-24.3,67.2,82.8,-78.3,60.0,-57.0,124.2,-109.8,-3038.1,235.2,-41.4,141.9,146.7,-27.3,-25.2,-243.6,-6.3,-4.8,90.6,-102.3,-1.5,128.1,-29.4,123.9,0,534,0,211,0,
0.3000,-19.8,72.3,88.2,-73.2,63.6,-54.9,127.8,-102.3,-3186.3,250.8,-39.9,155.4,154.5,-27.3,-36.9,-240.3,-6.3,-4.5,90.0,-99.9,-1.8,133.5,-24.3,129.9,0,540,0,212,0,
0.3033,-24.3,70.5,81.6,-78.6,60.0,-57.3,124.8,-109.2,-2964.0,237.3,-48.3,152.4,139.2,-18.0,-24.0,-238.2,-6.3,-4.5,84.6,-105.0,-1.8,120.0,-30.6,122.1,0,546,0,213,0,
0.3067,-24.9,63.6,78.9,-85.2,53.7,-60.3,123.3,-113.1,-3038.1,234.3,-45.6,146.4,135.9,-22.8,-16.2,-231.3,-6.3,-4.5,77.1,-108.0,-1.8,124.5,-27.9,117.9,0,552,0,214,0,
0.3100,-24.6,67.8,82.2,-80.7,58.5,-60.6,120.9,-114.0,-3038.1,230.7,-45.6,151.5,144.0,-17.4,-13.2,-246.0,-5.7,-4.5,81.0,-104.7,-1.8,128.1,-27.0,122.1,0,558,0,215,0,
0.3133,-25.2,66.6,80.7,-81.6,59.1,-60.0,123.0,-112.5,-3112.2,230.7,-45.3,146.7,144.0,-18.9,-2.7,-231.3,-6.3,-4.5,78.9,-108.0,-2.1,128.7,-26.1,123.0,0,564,0,216,0,
0.3167,-23.7,69.3,79.8,-80.4,62.4,-57.3,123.0,-112.2,-3112.2,235.2,-47.1,145.2,144.9,-6.9,-0.9,-238.8,-6.0,-4.2,82.8,-108.6,-1.5,135.3,-35.7,123.3,0,570,0,217,0,
0.3200,-23.7,66.6,78.9,-83.4,61.5,-55.8,120.9,-112.2,-3112.2,231.0,-48.3,145.2,145.5,-12.9,-2.4,-230.1,-6.0,-4.2,82.5,-110.7,-1.8,128.4,-24.6,109.8,0,576,0,218,0,
0.3233,-25.5,63.9,81.9,-84.3,59.1,-58.5,120.6,-119.4,-2964.0,239.4,-46.8,144.3,141.3,-22.5,-1.5,-216.9,-6.3,-4.2,80.1,-108.6,-1.8,123.6,-18.3,110.7,0,582,0,219,0,
0.3267,-24.3,71.7,91.5,-73.5,66.9,-53.7,123.9,-111.9,-3038.1,249.9,-32.4,151.5,156.0,-18.0,-11.1,-229.5,-6.3,-4.8,93.9,-92.4,-1.8,146.7,-29.4,128.4,0,588,0,220,0,
0.3300,-24.3,72.9,90.6,-76.8,65.1,-55.8,122.7,-116.4,-3112.2,246.3,-42.6,151.8,144.9,-11.7,-9.3,-228.9,-6.3,-4.2,88.8,-94.2,-1.8,135.9,-17.7,133.2,0,594,0,221,0,
0.3333,-32.4,61.2,84.6,-82.5,61.5,-57.9,122.7,-120.9,-3038.1,230.1,-49.8,154.2,135.6,-21.3,-14.1,-225.6,-6.0,-4.2,82.2,-102.3,-1.5,123.0,-12.3,124.5,0,600,0,222,0,
0.3367,-30.3,65.4,84.9,-78.3,65.4,-54.0,122.7,-115.8,-3112.2,237.3,-41.4,161.7,140.4,-22.2,-22.8,-236.4,-6.0,-4.2,87.3,-103.2,-1.8,130.2,-15.9,122.1,0,606,0,223,0,
0.3400,-30.6,67.5,90.3,-76.8,65.4,-54.6,125.7,-114.0,-2964.0,240.0,-42.3,156.6,138.9,-24.3,-26.7,-235.5,-6.3,-4.5,83.7,-103.8,-2.1,131.7,-16.8,119.4,0,612,0,224,0,
0.3433,-30.6,63.6,88.5,-78.6,65.1,-55.8,122.4,-115.8,-3038.1,238.8,-39.0,152.1,134.1,-19.5,-19.5,-228.0,-6.0,-4.5,82.2,-99.6,-2.1,129.6,-15.9,117.9,0,618,0,225,0,
0.3467,-29.1,62.7,88.5,-80.7,64.5,-57.0,126.3,-117.0,-3038.1,230.1,-43.8,149.4,134.1,-15.6,-4.5,-221.4,-6.3,-4.2,78.3,-104.1,-1.8,122.1,-21.3,123.3,0,624,0,226,0,
0.3500,-29.7,63.0,89.4,-76.5,66.9,-52.5,122.1,-115.5,-3038.1,240.0,-40.5,157.5,144.0,-18.9,-21.3,-228.6,-6.0,-4.2,88.8,-97.2,-1.8,125.4,-20.4,121.5,0,630,0,227,0,
0.3533,-34.2,58.5,80.7,-77.1,61.5,-57.0,122.7,-117.0,-3112.2,223.8,-53.4,142.8,138.0,-25.2,-16.5,-234.6,-6.3,-4.2,77.1,-106.5,-1.8,116.1,-18.9,108.6,0,636,0,228,0,
0.3567,-34.8,57.6,76.5,-83.7,59.7,-58.2,124.8,-116.7,-3038.1,225.3,-54.9,140.4,140.7,-36.3,-11.1,-222.9,-6.3,-4.8,78.3,-111.3,-2.1,109.8,-19.5,113.4,0,642,0,229,0,
0.3600,-38.1,53.1,69.9,-84.0,63.6,-58.2,126.6,-117.0,-3038.1,207.9,-54.9,141.9,127.2,-25.8,-12.9,-230.7,-6.3,-4.5,70.8,-111.9,-1.8,112.5,-16.2,114.3,0,648,0,230,0,
0.3633,-33.3,60.3,78.9,-78.9,67.5,-50.1,127.8,-109.8,-2964.0,225.9,-45.3,154.5,136.5,-33.3,-17.1,-238.5,-6.3,-4.5,76.8,-106.8,-1.8,121.8,-25.8,119.4,0,654,0,231,0,
0.3667,-37.5,58.8,77.1,-80.1,62.7,-55.5,125.1,-113.7,-3038.1,220.2,-53.7,142.8,141.9,-30.9,-22.2,-237.6,-6.0,-4.2,79.8,-112.2,-1.8,114.9,-23.1,118.5,0,660,0,232,0,
0.3700,-33.6,61.8,84.0,-74.4,67.5,-47.7,128.7,-108.6,-2964.0,229.8,-48.6,149.7,139.8,-31.8,-31.5,-248.4,-6.3,-4.8,84.0,-108.3,-1.8,124.5,-19.8,125.7,0,666,0,233,0,
0.3733,-28.5,64.8,84.6,-72.9,65.7,-49.8,126.9,-107.1,-3038.1,228.9,-48.3,150.3,140.7,-26.7,-24.6,-243.6,-6.0,-4.8,82.2,-101.4,-1.8,127.8,-18.9,122.1,0,672,0,234,0,
0.3767,-32.1,65.7,88.8,-70.5,68.7,-42.6,131.4,-103.2,-3112.2,240.9,-39.3,159.0,141.9,-29.7,-38.1,-241.2,-6.0,-4.5,85.2,-91.5,-2.1,130.2,-15.6,130.5,0,678,0,235,0,
0.3800,-29.4,59.4,84.3,-75.6,58.8,-50.7,125.7,-112.8,-2964.0,230.7,-44.1,156.0,138.6,-26.1,-16.2,-240.0,-6.3,-4.2,82.2,-102.0,-1.8,128.7,-18.0,120.3,0,684,0,236,0,
0.3833,-25.5,63.6,86.4,-75.6,63.0,-47.7,128.7,-107.4,-3112.2,234.3,-44.1,153.9,142.2,-27.0,-19.2,-232.5,-6.0,-4.5,83.1,-94.2,-2.1,133.8,-15.3,123.6,0,690,0,237,0,
0.3867,-29.4,61.8,82.5,-77.4,59.1,-52.8,124.5,-113.1,-3112.2,235.8,-52.2,147.3,145.2,-35.7,-27.0,-243.6,-6.3,-4.2,82.5,-99.3,-1.8,135.0,-24.3,117.0,0,696,0,238,0,
0.3900,-29.4,61.5,87.0,-74.7,59.1,-55.5,120.9,-112.2,-2889.9,231.0,-48.6,146.7,134.7,-26.1,-19.8,-238.2,-6.0,-4.5,84.9,-99.9,-1.8,129.6,-29.7,124.8,0,702,0,239,0,
0.3933,-27.0,62.1,82.8,-83.1,54.6,-61.5,121.8,-112.5,-3038.1,227.1,-51.3,132.9,136.8,-18.3,-0.6,-227.4,-6.3,-4.5,81.0,-110.1,-1.8,117.0,-18.0,122.1,0,708,0,240,0,
0.3967,-30.0,63.0,79.2,-81.9,52.8,-64.5,116.7,-114.0,-3112.2,231.6,-53.4,142.5,144.6,-21.0,-7.8,-241.5,-6.0,-4.2,82.5,-112.5,-1.8,127.5,-30.0,119.1,0,714,0,241,0,
0.4000,-25.5,65.1,82.2,-81.0,54.0,-68.1,120.9,-114.6,-2964.0,234.3,-53.7,146.7,146.1,-21.3,-14.1,-241.8,-6.3,-4.5,84.0,-110.4,-2.1,122.1,-24.9,116.1,0,720,0,242,0,
0.4033,-27.3,66.0,84.9,-81.9,56.4,-65.1,120.6,-114.9,-3038.1,226.8,-44.7,152.4,147.0,-27.9,-14.1,-238.2,-6.3,-4.5,86.4,-104.4,-1.8,122.1,-18.0,118.2,0,726,0,243,0,
0.4067,-27.6,61.5,79.8,-88.2,51.3,-66.0,116.7,-119.4,-2964.0,232.2,-53.4,146.7,142.5,-25.8,-1.2,-243.9,-6.3,-4.5,81.6,-108.6,-1.8,121.5,-27.3,108.9,0,732,0,244,0,
0.4100,-34.8,63.6,84.0,-83.4,52.5,-60.6,119.4,-119.7,-2964.0,231.9,-47.4,153.3,144.3,-22.5,-20.4,-238.2,-6.6,-4.8,86.1,-102.9,-1.5,129.0,-25.5,111.3,0,738,0,245,0,
0.4133,-29.1,66.3,90.6,-73.5,65.7,-49.8,127.2,-110.4,-3038.1,243.3,-41.7,157.8,146.1,-27.0,-28.8,-234.3,-6.0,-4.5,91.5,-93.9,-1.8,135.6,-17.7,131.1,0,744,0,246,0,
0.4167,-30.9,64.8,85.8,-79.5,62.1,-59.1,122.1,-116.1,-2889.9,233.1,-46.8,157.5,143.7,-22.5,-13.5,-237.6,-5.7,-4.5,83.1,-104.4,-1.8,131.1,-26.7,122.7,0,750,0,247,0,
0.4200,-32.1,65.1,87.3,-81.6,64.2,-58.8,120.9,-114.0,-3112.2,231.9,-50.7,152.1,144.6,-23.4,-9.6,-231.3,-6.3,-4.5,83.1,-103.5,-2.1,125.7,-31.5,116.4,0,756,0,248,0,
0.4233,-30.3,66.9,87.0,-76.5,63.6,-58.8,121.2,-111.9,-3038.1,230.4,-48.3,155.1,150.3,-25.2,-16.8,-235.2,-6.0,-4.2,79.8,-102.9,-2.1,124.2,-30.9,117.3,0,762,0,249,0,
0.4267,-29.7,65.7,86.4,-80.1,62.7,-56.4,120.3,-114.0,-3112.2,226.5,-50.1,147.0,145.2,-28.2,-14.1,-230.1,-6.6,-4.2,77.1,-103.8,-1.8,115.5,-30.6,116.4,0,768,0,250,0,
0.4300,-28.2,68.7,87.0,-80.1,67.8,-55.2,123.3,-111.0,-2964.0,236.4,-42.3,150.0,148.5,-26.4,-18.6,-239.1,-6.3,-4.8,87.3,-102.3,-1.8,126.0,-32.4,117.3,0,774,0,251,0,
0.4333,-26.7,65.4,87.0,-78.0,66.0,-49.5,123.3,-108.9,-3112.2,230.4,-48.0,154.2,131.4,-25.2,-33.6,-243.3,-6.0,-4.8,82.2,-102.3,-1.5,130.8,-37.5,130.5,0,780,0,252,0,
0.4367,-29.7,59.4,82.2,-82.8,63.6,-52.8,124.5,-111.6,-3038.1,228.0,-53.7,149.1,139.5,-28.2,-22.5,-227.1,-6.0,-4.2,81.9,-109.2,-1.8,123.0,-28.5,113.7,0,786,0,253,0,
0.4400,-28.5,65.4,87.3,-77.7,64.8,-49.8,123.0,-108.9,-3038.1,235.5,-43.5,156.0,147.9,-24.3,-23.1,-235.5,-6.3,-4.5,84.6,-99.3,-1.8,129.3,-31.2,116.1,0,792,0,254,0,
0.4433,-29.1,63.9,88.5,-77.4,63.6,-52.8,125.7,-109.2,-3038.1,234.0,-41.7,156.9,147.9,-22.2,-14.7,-238.5,-6.0,-4.2,90.3,-96.9,-1.5,126.6,-31.8,123.9,0,798,0,255,0,
0.4467,-30.6,65.4,88.2,-72.0,63.6,-50.4,130.2,-108.9,-3112.2,230.1,-42.3,153.9,139.5,-26.4,-21.0,-233.4,-6.3,-4.5,89.4,-93.6,-2.1,127.5,-26.4,128.7,0,804,0,0,0,
0.4500,-32.4,59.4,83.7,-83.1,55.2,-56.1,121.5,-113.4,-3112.2,226.2,-49.5,151.5,132.9,-29.1,-20.1,-236.7,-6.0,-4.2,78.6,-100.8,-1.8,124.2,-26.4,120.3,0,810,0,1,0,
0.4533,-32.1,57.9,85.5,-81.6,56.1,-60.0,123.6,-111.0,-2964.0,222.3,-53.1,155.7,132.0,-27.6,-15.9,-239.4,-6.0,-4.2,81.0,-100.8,-1.8,125.1,-25.2,126.3,0,816,0,2,0,
0.4567,-32.1,62.1,83.7,-82.2,57.0,-60.3,125.4,-112.2,-3112.2,223.5,-49.5,152.1,138.9,-30.9,-23.4,-234.6,-6.3,-4.2,84.0,-99.6,-1.8,132.0,-30.6,126.3,0,822,0,3,0,
0.4600,-30.6,62.1,86.7,-85.8,56.4,-59.1,121.8,-112.8,-3038.1,235.5,-50.1,146.4,144.0,-24.9,-15.0,-238.8,-6.3,-4.5,82.8,-98.7,-1.8,127.8,-27.9,117.6,0,828,0,4,0,
0.4633,-33.0,60.9,78.9,-89.7,47.4,-65.1,117.6,-117.3,-3112.2,228.9,-56.1,141.0,141.9,-28.2,-7.5,-231.3,-6.0,-4.5,78.6,-109.5,-1.8,119.7,-26.4,114.3,0,834,0,5,0,
0.4667,-31.5,63.3,83.4,-86.4,52.8,-63.0,119.1,-114.9,-2889.9,233.1,-45.6,152.1,139.8,-27.6,-17.4,-228.9,-6.0,-5.1,85.2,-103.5,-2.1,121.8,-21.3,122.4,0,840,0,6,0,
0.4700,-28.2,66.6,90.6,-80.4,61.2,-59.1,118.5,-108.9,-3038.1,240.6,-44.7,157.5,148.5,-25.2,-35.1,-243.6,-6.0,-4.2,90.3,-103.2,-1.8,137.7,-26.4,123.3,0,846,0,7,0,
0.4733,-30.0,62.4,81.9,-84.9,56.7,-63.3,116.1,-115.8,-3112.2,237.6,-47.4,152.4,135.3,-31.2,-19.5,-232.2,-6.3,-4.8,84.3,-104.4,-1.5,126.9,-28.2,123.6,0,852,0,8,0,
0.4767,-32.1,62.7,79.5,-90.0,52.2,-68.1,115.2,-117.6,-3112.2,232.5,-49.8,148.5,137.7,-29.1,-18.0,-228.3,-6.0,-4.5,84.0,-107.7,-1.8,128.7,-33.6,121.2,0,858,0,9,0,
0.4800,-34.2,56.4,79.2,-93.3,48.3,-71.4,114.0,-122.7,-2964.0,228.9,-56.1,145.2,140.7,-26.1,-5.7,-224.7,-6.3,-4.5,79.2,-110.1,-1.8,127.5,-36.3,115.8,0,864,0,10,0,
0.4833,-33.3,57.9,81.0,-92.4,49.2,-71.1,114.0,-122.4,-3112.2,234.0,-55.2,146.7,143.4,-28.5,-14.7,-234.0,-6.3,-4.2,82.8,-111.0,-2.1,128.7,-30.0,117.9,0,870,0,11,0,
0.4867,-31.2,62.1,82.5,-87.3,50.7,-71.7,117.3,-119.7,-2964.0,231.3,-48.6,152.1,147.6,-23.4,-4.8,-229.8,-6.3,-4.5,85.8,-104.4,-1.5,120.3,-29.1,115.8,0,876,0,12,0,
0.4900,-30.3,61.5,82.5,-85.8,54.9,-69.9,120.0,-117.3,-2889.9,233.7,-45.9,152.7,147.0,-26.1,-6.9,-228.9,-6.0,-4.5,89.1,-104.1,-2.1,131.1,-28.5,117.3,0,882,0,13,0,
0.4933,-32.1,60.0,85.2,-84.0,57.0,-72.6,115.8,-119.4,-3038.1,233.7,-51.3,145.8,141.3,-29.1,-5.1,-227.7,-6.0,-4.8,84.9,-108.6,-1.2,118.5,-36.0,117.0,0,888,0,14,0,
0.4967,-31.2,60.3,86.4,-85.5,60.0,-69.0,117.9,-119.7,-2964.0,234.3,-48.6,147.6,150.0,-28.8,-3.3,-232.5,-6.3,-4.2,81.3,-107.7,-2.1,124.2,-38.7,118.2,0,894,0,15,0,
0.5000,-33.6,68.1,97.2,-79.2,63.3,-63.6,123.0,-114.0,-3112.2,241.8,-48.6,152.1,156.0,-33.6,-28.5,-231.0,-6.6,-4.2,91.2,-103.8,-1.5,134.4,-25.8,116.7,0,900,0,16,0,
0.5033,-35.1,69.9,101.4,-74.4,73.2,-56.1,124.8,-110.4,-3112.2,249.9,-38.7,159.9,162.3,-45.6,-27.6,-233.7,-6.3,-3.9,97.2,-90.0,-2.1,139.2,-21.0,122.4,0,906,0,17,0,
0.5067,-35.1,63.9,91.8,-80.1,66.0,-59.4,123.6,-110.1,-3038.1,232.8,-39.3,155.7,144.6,-21.3,-19.5,-231.6,-6.0,-4.5,87.9,-92.1,-1.8,125.7,-22.2,119.7,0,912,0,18,0,
0.5100,-28.2,70.2,94.8,-75.3,72.9,-54.3,127.5,-104.7,-3038.1,239.7,-36.0,163.2,144.3,-25.5,-19.8,-229.2,-6.3,-4.5,93.6,-90.0,-1.8,134.4,-18.6,126.9,0,918,0,19,0,
0.5133,-32.7,66.9,86.7,-83.4,64.2,-60.0,121.5,-108.9,-3112.2,235.2,-42.6,156.9,137.7,-23.7,-21.6,-228.3,-6.0,-4.5,86.7,-100.5,-1.5,127.8,-24.9,127.8,0,924,0,20,0,
0.5167,-33.0,65.1,87.3,-83.7,61.8,-58.8,123.3,-115.5,-3112.2,237.0,-43.8,157.8,149.1,-27.3,-26.7,-232.8,-6.0,-4.5,87.3,-98.4,-2.1,130.8,-29.7,130.5,0,930,0,21,0,
0.5200,-26.1,68.7,90.6,-81.0,64.8,-58.5,124.8,-114.9,-3112.2,241.5,-45.0,154.2,151.8,-23.1,-16.2,-243.6,-6.6,-4.2,92.4,-99.6,-1.5,136.2,-33.6,124.2,0,936,0,22,0,
0.5233,-27.9,66.6,86.7,-85.2,60.3,-60.3,126.6,-115.5,-3038.1,239.4,-51.0,155.1,142.5,-30.6,-8.4,-234.3,-6.3,-4.5,83.1,-108.6,-2.1,129.9,-31.2,118.5,0,942,0,23,0,
0.5267,-24.9,67.8,90.9,-82.2,63.9,-58.5,126.6,-111.6,-3112.2,239.1,-43.5,152.7,148.8,-26.4,-18.9,-232.2,-5.7,-4.8,88.8,-102.3,-1.8,123.9,-19.8,120.3,0,948,0,24,0,
0.5300,-24.6,69.0,93.3,-78.3,69.6,-51.9,127.8,-107.1,-3038.1,240.0,-41.4,153.3,148.8,-21.6,-23.1,-238.2,-6.3,-4.5,90.3,-99.9,-1.8,129.6,-20.7,125.4,0,954,0,25,0,
0.5333,-23.1,70.5,90.0,-77.4,66.6,-46.2,130.2,-106.2,-3038.1,239.7,-42.3,155.7,145.5,-21.9,-21.6,-230.1,-6.3,-4.8,88.5,-99.3,-1.8,129.6,-15.0,124.5,0,960,0,26,0,
0.5367,-23.4,71.4,90.0,-75.3,64.8,-53.7,127.5,-104.4,-2964.0,236.4,-44.1,155.4,147.0,-20.4,-20.7,-236.1,-6.0,-4.8,85.5,-93.9,-1.5,129.6,-17.7,114.6,0,966,0,27,0,
0.5400,-25.2,75.0,91.8,-73.5,67.2,-52.2,129.0,-104.4,-3186.3,245.1,-42.3,154.5,152.7,-18.6,-14.4,-235.5,-6.3,-4.5,89.4,-91.8,-1.8,135.0,-9.6,124.8,0,972,0,28,0,
0.5433,-20.1,75.6,96.0,-71.4,74.4,-51.0,129.3,-104.7,-3038.1,243.9,-36.9,167.7,151.8,-15.9,-16.8,-231.6,-6.3,-4.5,94.8,-86.7,-1.8,137.4,-6.0,134.1,0,978,0,29,0,
0.5467,-26.1,68.4,90.0,-75.6,65.7,-56.1,123.9,-108.0,-3112.2,233.7,-41.1,160.8,147.3,-18.0,-1.8,-229.5,-6.3,-4.5,88.2,-92.4,-2.4,134.1,-11.7,126.6,0,984,0,30,0,
0.5500,-23.1,76.5,99.6,-67.8,71.7,-49.2,122.7,-100.5,-2964.0,248.1,-31.2,168.0,161.4,-22.8,-25.2,-246.0,-6.3,-4.8,95.4,-84.3,-2.1,142.8,-12.6,134.1,0,990,0,31,0,
0.5533,-23.4,75.6,98.7,-73.2,71.4,-54.0,123.3,-102.0,-3038.1,243.9,-34.2,160.5,155.7,-15.9,-18.3,-240.3,-6.6,-4.8,99.3,-92.7,-2.1,132.0,-17.4,129.0,0,996,0,32,0,
0.5567,-26.7,72.3,96.0,-74.1,75.3,-52.5,126.0,-102.9,-3038.1,238.8,-38.1,159.3,157.2,-27.6,-20.1,-232.8,-6.0,-4.5,96.6,-96.9,-1.5,138.6,-12.0,131.7,0,1002,0,33,0,
0.5600,-29.1,68.7,93.6,-77.7,67.8,-54.6,123.0,-106.8,-3112.2,240.9,-41.4,156.9,148.5,-26.1,-19.8,-233.1,-6.0,-4.5,94.8,-91.8,-1.8,135.0,-20.1,119.4,0,1008,0,34,0,
0.5633,-31.2,67.2,93.0,-75.0,72.0,-52.5,126.6,-108.3,-3038.1,237.0,-38.4,162.9,149.4,-26.4,-16.2,-234.3,-6.9,-4.2,95.7,-85.2,-1.2,137.7,-14.4,128.1,0,1014,0,35,0,
0.5667,-33.6,64.2,87.0,-79.5,65.1,-51.9,125.7,-111.0,-3112.2,246.3,-37.8,160.8,160.2,-25.8,-6.6,-234.9,-6.0,-4.5,96.0,-88.5,-1.8,139.5,-13.2,126.9,0,1020,0,36,0,
0.5700,-30.9,66.9,90.3,-81.3,63.3,-56.1,124.2,-115.5,-2964.0,242.4,-40.2,166.2,159.9,-12.9,11.1,-229.2,-6.0,-4.5,93.3,-89.7,-1.5,145.2,-13.5,129.0,0,1026,0,37,0,
0.5733,-37.8,62.4,87.6,-80.7,65.4,-60.9,118.5,-116.1,-2964.0,244.5,-40.5,160.5,150.3,-21.6,-13.2,-242.7,-6.3,-4.5,97.2,-92.4,-1.8,142.8,-20.7,123.6,0,1032,0,38,0,
0.5767,-34.8,61.5,83.1,-80.7,66.3,-58.8,120.6,-118.8,-3038.1,238.2,-42.6,163.2,147.0,-26.4,-23.1,-240.0,-6.0,-4.5,93.0,-93.6,-1.8,142.8,-25.8,126.9,0,1038,0,39,0,
0.5800,-36.3,61.5,82.5,-78.9,68.4,-56.4,121.5,-116.1,-3038.1,242.4,-41.4,163.5,148.5,-26.7,-24.3,-236.1,-6.0,-4.2,93.3,-89.4,-1.8,143.7,-18.0,124.2,0,1044,0,40,0,
0.5833,-35.4,59.4,81.3,-80.4,66.6,-58.8,122.4,-114.6,-2964.0,241.8,-38.1,163.8,146.7,-24.3,-18.6,-231.0,-6.3,-4.2,98.4,-89.1,-1.5,131.1,-11.1,124.8,0,1050,0,41,0,
0.5867,-33.3,60.0,84.0,-81.9,69.6,-58.5,123.3,-114.9,-3112.2,244.5,-41.1,159.0,147.6,-21.3,-18.6,-233.7,-6.3,-4.5,93.0,-92.1,-1.5,135.9,-15.0,128.4,0,1056,0,42,0,
0.5900,-34.5,56.1,79.5,-86.1,62.4,-61.8,123.3,-119.7,-3112.2,237.9,-50.4,156.0,139.2,-29.1,-17.1,-223.8,-6.0,-4.2,83.1,-99.6,-1.5,137.7,-12.0,125.7,0,1062,0,43,0,
0.5933,-34.8,61.5,87.6,-83.1,66.9,-59.1,122.4,-118.8,-3112.2,242.7,-44.1,163.5,145.2,-20.7,-16.8,-237.9,-6.3,-4.2,91.2,-90.3,-1.2,139.8,-16.2,122.1,0,1068,0,44,0,
0.5967,-33.3,60.6,90.6,-80.4,69.0,-57.3,120.6,-116.1,-2964.0,243.9,-44.1,162.6,144.0,-19.8,-13.8,-239.1,-6.0,-4.2,88.2,-90.3,-1.8,144.0,-15.3,121.2,0,1074,0,45,0,
0.6000,-35.4,57.9,81.6,-88.5,66.3,-64.5,114.6,-120.6,-3038.1,234.0,-57.0,153.0,132.9,-18.3,1.5,-231.9,-6.0,-4.8,78.3,-99.6,-1.5,135.6,-28.2,122.1,0,1080,0,46,0,
0.6033,-31.8,64.8,98.7,-74.7,74.4,-51.6,122.1,-108.9,-3038.1,244.8,-39.0,164.1,145.2,-23.7,-21.3,-234.6,-6.0,-4.5,92.7,-88.2,-1.8,143.1,-19.5,129.0,0,1086,0,47,0,
0.6067,-34.2,62.4,96.9,-74.7,74.1,-54.9,121.2,-110.7,-3112.2,244.5,-35.1,164.7,150.0,-23.7,-21.3,-232.5,-6.3,-4.8,98.7,-90.9,-1.2,142.8,-12.6,120.6,0,1092,0,48,0,
0.6100,-33.6,60.3,97.2,-73.2,72.3,-50.4,122.1,-108.9,-3038.1,239.4,-41.1,165.0,146.1,-29.1,-21.9,-231.3,-6.3,-4.2,88.5,-88.2,-1.2,138.3,-11.7,125.4,0,1098,0,49,0,
0.6133,-29.4,64.8,99.3,-72.0,77.7,-47.4,123.3,-103.5,-2964.0,246.6,-40.2,165.9,148.5,-19.8,-18.3,-235.8,-6.0,-4.2,92.1,-83.4,-2.1,138.9,-20.7,113.7,0,1104,0,50,0,
0.6167,-27.6,67.2,100.5,-66.9,81.6,-43.8,123.3,-101.1,-3112.2,243.6,-33.3,163.5,150.3,-26.1,-21.3,-238.2,-6.3,-4.8,96.3,-84.3,-2.1,140.7,-15.0,116.7,0,1110,0,51,0,
0.6200,-28.5,72.0,102.0,-67.2,81.0,-48.0,122.1,-100.2,-3038.1,240.0,-30.6,167.7,154.5,-26.1,-20.7,-237.0,-6.3,-4.5,101.1,-87.3,-1.8,136.8,-17.7,121.5,0,1116,0,52,0,
0.6233,-25.2,68.4,101.1,-70.2,83.7,-45.9,125.7,-103.2,-3186.3,242.1,-34.5,166.2,151.5,-22.8,-16.2,-228.3,-6.3,-4.5,97.5,-83.4,-2.1,137.1,-8.7,134.4,0,1122,0,53,0,
0.6267,-22.8,75.0,108.0,-65.4,89.7,-38.1,128.1,-100.2,-2889.9,249.9,-24.9,175.5,163.8,-10.2,-11.7,-233.7,-6.0,-4.2,104.4,-72.3,-2.1,150.3,-5.4,134.7,0,1128,0,54,0,
0.6300,-27.3,72.3,102.9,-71.4,79.8,-42.9,126.6,-101.4,-3038.1,249.6,-31.5,169.5,151.2,-18.6,-25.8,-225.6,-6.6,-4.5,104.7,-79.5,-1.2,144.9,-2.1,133.8,0,1134,0,55,0,
0.6333,-26.1,73.5,104.4,-70.8,77.4,-46.2,124.5,-102.0,-2964.0,254.7,-38.4,170.4,152.1,-17.1,-18.0,-231.0,-6.3,-4.5,102.6,-82.2,-1.8,142.5,-7.2,130.5,0,1140,0,56,0,
0.6367,-24.0,75.6,99.0,-74.1,77.1,-49.8,122.7,-102.6,-2964.0,249.9,-39.0,165.9,158.7,-15.3,-8.4,-229.2,-6.3,-4.5,99.9,-86.4,-1.5,135.6,-10.8,127.2,0,1146,0,57,0,
0.6400,-24.6,71.7,98.7,-75.0,75.6,-54.9,121.8,-103.2,-3038.1,248.4,-42.0,162.3,147.9,-15.9,-2.1,-219.3,-6.3,-4.2,98.7,-89.4,-1.8,132.6,-9.0,118.8,0,1152,0,58,0,
0.6433,-26.4,62.7,93.9,-79.2,66.9,-59.1,121.2,-108.3,-3038.1,233.1,-46.2,157.2,153.6,-9.9,2.7,-216.0,-6.3,-4.5,94.5,-99.3,-1.8,125.7,-8.7,120.6,0,1158,0,59,0,
0.6467,-24.3,63.0,94.2,-76.5,68.4,-57.0,118.2,-107.1,-3112.2,241.5,-42.3,160.5,150.6,-6.3,8.7,-232.2,-6.0,-4.2,93.3,-98.7,-1.5,128.4,-11.1,120.3,0,1164,0,60,0,
0.6500,-27.3,65.7,94.8,-74.7,69.6,-58.5,118.8,-105.3,-2964.0,239.1,-44.1,154.8,147.0,-13.8,9.0,-218.1,-6.3,-4.5,92.4,-99.3,-1.8,128.1,-10.8,114.3,0,1170,0,61,0,
0.6533,-27.6,67.2,93.0,-75.3,75.6,-57.0,116.1,-108.3,-3038.1,240.0,-42.6,153.9,148.2,-18.6,-10.8,-233.7,-6.3,-4.8,91.5,-97.8,-1.5,133.8,-14.4,117.6,0,1176,0,62,0,
0.6567,-27.9,66.3,92.7,-77.7,72.0,-57.0,117.0,-107.1,-3038.1,234.9,-39.0,156.6,147.3,-16.8,-18.0,-230.7,-6.3,-4.5,93.6,-101.4,-1.8,138.6,-12.6,123.0,0,1182,0,63,0,
0.6600,-30.0,63.6,93.6,-72.3,76.2,-53.4,117.0,-106.8,-2964.0,239.7,-41.4,152.4,145.2,-28.5,-21.6,-225.3,-6.3,-4.2,90.9,-94.5,-1.8,141.3,-6.3,126.9,0,1188,0,64,0,
0.6633,-30.3,66.3,93.3,-71.7,77.4,-52.8,119.7,-106.8,-3112.2,237.0,-37.2,153.3,144.0,-24.0,-21.3,-231.3,-6.0,-4.8,93.0,-101.1,-1.8,136.2,-9.6,126.3,0,1194,0,65,0,
0.6667,-29.7,66.3,96.6,-69.0,76.8,-51.3,120.6,-103.2,-3038.1,241.2,-40.5,161.1,141.3,-18.9,-8.1,-226.5,-6.3,-4.8,89.1,-90.0,-1.8,136.2,-6.3,131.1,0,1200,0,66,0,
0.6700,-26.1,69.6,104.4,-66.3,76.8,-52.2,124.5,-103.5,-3112.2,241.8,-36.3,165.6,149.1,-22.2,-7.8,-233.1,-6.3,-4.5,92.4,-89.1,-2.1,142.2,-6.9,128.7,0,1206,0,67,0,
0.6733,-24.6,71.4,108.0,-63.0,80.7,-48.6,127.8,-100.2,-2889.9,250.8,-33.0,173.4,154.5,-21.3,-12.6,-233.7,-6.0,-4.2,100.8,-79.8,-1.8,147.0,-6.6,132.6,0,1212,0,68,0,
0.6767,-28.8,64.5,96.6,-71.4,75.6,-55.8,125.1,-108.6,-3186.3,238.2,-35.1,170.4,140.1,-25.2,-12.6,-230.4,-6.3,-4.2,91.2,-88.5,-1.5,138.3,-6.0,124.2,0,1218,0,69,0,
0.6800,-29.4,64.8,93.6,-70.2,76.8,-53.4,123.3,-105.0,-2964.0,242.7,-33.9,167.4,136.8,-26.4,-15.0,-231.0,-6.0,-4.8,96.6,-85.8,-1.8,141.3,-10.5,129.3,0,1224,0,70,0,
0.6833,-31.5,61.8,90.9,-69.6,77.7,-52.2,121.2,-106.5,-3038.1,246.9,-31.2,164.7,152.7,-25.8,-20.4,-239.1,-6.3,-4.5,95.1,-84.6,-1.8,138.0,-16.2,119.1,0,1230,0,71,0,
0.6867,-32.4,60.0,90.9,-73.8,76.8,-57.3,120.9,-109.2,-3112.2,234.9,-36.0,157.8,146.7,-27.9,-8.1,-230.1,-6.3,-4.5,94.2,-90.9,-1.8,132.9,-12.0,113.1,0,1236,0,72,0,
0.6900,-34.2,56.7,87.9,-75.6,72.9,-57.3,120.6,-112.2,-3038.1,231.3,-45.3,154.8,141.3,-27.6,-9.3,-224.4,-6.0,-4.8,85.2,-93.9,-1.8,132.0,-10.5,116.7,0,1242,0,73,0,
0.6933,-32.4,56.7,88.2,-74.7,75.9,-57.6,122.4,-110.1,-2964.0,231.0,-44.7,150.3,144.6,-30.3,-21.0,-227.7,-6.3,-4.5,87.6,-97.8,-1.5,131.7,-3.9,121.5,0,1248,0,74,0,
0.6967,-28.5,69.0,101.4,-61.8,88.5,-43.5,127.2,-100.5,-3038.1,247.2,-30.0,173.7,153.9,-34.5,-30.6,-234.0,-6.0,-4.5,99.9,-81.3,-1.8,147.0,-1.2,132.3,0,1254,0,75,0,
0.7000,-30.6,62.4,96.3,-66.3,81.6,-49.8,120.6,-109.5,-2964.0,235.8,-32.1,173.1,144.6,-23.4,-18.6,-234.0,-6.0,-4.5,97.2,-84.3,-2.1,141.6,-7.8,126.9,0,1260,0,76,0,
0.7033,-32.1,61.2,93.9,-66.6,83.1,-46.5,126.9,-109.2,-3112.2,241.2,-40.2,168.6,147.9,-25.8,-14.7,-227.1,-6.0,-4.5,96.3,-83.7,-1.8,133.8,-1.8,130.2,0,1266,0,77,0,
0.7067,-29.4,67.5,104.1,-62.1,85.8,-42.0,122.1,-105.3,-2964.0,246.9,-34.8,175.8,148.8,-24.9,-22.2,-237.6,-6.3,-4.5,99.6,-77.1,-1.5,149.4,-5.4,133.2,0,1272,0,78,0,
0.7100,-25.5,68.7,103.8,-64.2,85.8,-40.2,124.2,-102.0,-3038.1,246.9,-27.9,178.2,146.1,-28.2,-27.9,-224.7,-6.0,-4.8,98.4,-76.5,-2.1,151.8,9.0,134.4,0,1278,0,79,0,
0.7133,-24.6,72.3,99.6,-67.5,84.0,-42.0,124.8,-102.3,-2964.0,244.5,-26.1,172.2,149.1,-22.2,-24.3,-235.5,-5.7,-4.2,100.2,-81.6,-1.5,141.6,2.7,132.9,0,1284,0,80,0,
0.7167,-25.8,62.7,92.7,-72.0,79.2,-43.2,121.2,-104.7,-3186.3,234.6,-36.0,167.7,139.5,-25.5,-11.1,-233.7,-6.6,-4.5,94.8,-82.8,-1.8,139.5,-1.5,129.6,0,1290,0,81,0,
0.7200,-26.7,62.1,88.8,-77.4,77.7,-43.8,122.1,-106.5,-3038.1,227.7,-39.9,159.6,137.4,-28.2,-4.2,-226.8,-6.0,-4.5,91.8,-82.8,-1.8,129.6,-5.4,125.7,0,1296,0,82,0,
0.7233,-28.5,60.9,87.6,-76.2,77.1,-45.3,121.8,-108.3,-3186.3,229.2,-40.8,156.6,142.8,-31.8,-7.5,-228.3,-6.0,-4.5,87.3,-86.7,-1.8,135.0,-6.9,123.0,0,1302,0,83,0,
0.7267,-25.5,60.6,84.3,-82.5,71.1,-47.7,122.7,-110.1,-3112.2,230.1,-45.3,159.9,140.7,-24.0,4.2,-241.2,-6.3,-4.5,85.2,-92.1,-2.1,133.5,-12.6,124.2,0,1308,0,84,0,
0.7300,-23.1,63.0,91.5,-75.0,79.2,-45.0,119.1,-105.6,-3112.2,232.5,-40.5,170.4,143.1,-24.9,-11.1,-242.1,-6.0,-4.5,87.6,-86.4,-2.1,134.4,-8.7,125.4,0,1314,0,85,0,
0.7333,-26.1,63.3,92.1,-78.0,73.5,-47.4,118.2,-104.4,-3038.1,225.9,-45.0,160.2,144.9,-23.1,-15.0,-235.8,-6.0,-4.2,88.2,-91.5,-1.2,131.1,-8.1,118.5,0,1320,0,86,0,
0.7367,-25.5,65.4,95.1,-75.9,80.7,-42.9,122.1,-102.9,-3112.2,237.3,-43.8,167.1,146.4,-27.3,-17.4,-236.7,-6.0,-4.8,93.0,-81.9,-1.8,138.3,-10.2,127.2,0,1326,0,87,0,
0.7400,-26.1,62.7,92.4,-83.4,76.8,-48.3,118.2,-105.3,-3038.1,230.1,-44.1,161.7,145.8,-18.0,-0.6,-229.8,-6.0,-4.2,90.3,-90.6,-1.5,131.1,-13.5,121.2,0,1332,0,88,0,
0.7433,-26.4,62.7,91.5,-80.7,77.4,-50.1,118.8,-107.1,-3038.1,230.7,-41.1,164.4,143.1,-25.8,-14.7,-229.5,-6.0,-4.5,87.3,-91.8,-1.5,132.3,-10.5,126.9,0,1338,0,89,0,
0.7467,-22.5,64.8,92.4,-75.6,84.6,-47.4,120.0,-104.4,-3038.1,235.2,-42.0,165.9,151.5,-15.0,-6.9,-240.9,-6.3,-4.2,91.8,-85.8,-1.5,138.3,-7.2,127.8,0,1344,0,90,0,
0.7500,-28.5,65.7,93.3,-76.8,81.0,-45.3,120.0,-107.1,-3112.2,240.0,-36.3,164.7,154.8,-21.6,-21.9,-235.8,-6.0,-4.5,96.6,-81.9,-2.1,143.7,-3.9,127.8,0,1350,0,91,0,
0.7533,-26.7,66.6,93.3,-81.3,76.8,-43.8,122.1,-108.6,-3038.1,241.5,-36.9,161.1,154.5,-16.2,-9.6,-221.7,-6.6,-4.5,95.1,-83.1,-1.8,135.6,0.0,123.9,0,1356,0,92,0,
0.7567,-25.5,68.7,92.7,-78.9,79.8,-45.3,120.0,-110.4,-3038.1,245.7,-43.8,160.2,156.9,-18.3,-9.0,-231.3,-6.3,-4.5,89.4,-84.3,-1.5,140.1,-6.0,125.4,0,1362,0,93,0,
0.7600,-24.0,70.8,99.6,-75.3,82.5,-39.3,117.9,-109.2,-2964.0,253.5,-33.9,168.3,158.1,-33.0,-11.4,-243.6,-6.0,-4.8,96.3,-76.8,-1.5,151.8,-14.4,131.7,0,1368,0,94,0,
0.7633,-21.0,69.3,97.2,-73.5,89.7,-39.3,124.5,-106.2,-3038.1,246.3,-36.0,168.0,148.5,-13.5,-11.4,-240.3,-6.3,-4.2,97.2,-88.2,-2.1,150.0,-6.9,135.6,0,1374,0,95,0,
0.7667,-24.9,60.9,93.0,-81.6,78.6,-48.0,117.9,-111.9,-3038.1,233.7,-48.0,157.8,149.7,-13.5,-2.7,-228.6,-6.0,-4.5,85.2,-105.3,-1.8,133.8,-0.9,121.8,0,1380,0,96,0,
0.7700,-30.3,60.3,90.0,-84.6,73.8,-53.4,116.4,-114.6,-3112.2,232.5,-48.3,159.3,148.2,-21.0,-11.1,-240.9,-6.3,-4.8,89.4,-89.7,-1.8,133.8,-14.1,126.9,0,1386,0,97,0,
0.7733,-28.5,60.9,89.7,-82.2,73.5,-46.8,121.5,-113.4,-3112.2,233.4,-43.2,165.9,146.7,-26.1,-23.7,-233.4,-6.3,-4.5,90.6,-84.9,-2.4,138.9,-7.5,134.7,0,1392,0,98,0,
0.7767,-30.6,63.3,89.4,-83.7,73.5,-48.3,121.8,-114.9,-3038.1,234.9,-48.6,154.2,144.9,-22.8,-15.9,-241.2,-6.3,-4.8,87.9,-91.5,-1.8,125.7,-5.1,124.5,0,1398,0,99,0,
0.7800,-31.2,60.0,87.9,-85.8,67.5,-51.9,120.9,-118.8,-3112.2,232.2,-49.8,147.6,142.8,-18.6,-6.6,-230.7,-6.6,-4.2,83.4,-99.3,-1.8,134.4,-3.0,118.5,0,1404,0,100,0,
0.7833,-33.3,64.5,93.3,-80.7,72.0,-51.0,122.7,-114.3,-3038.1,231.0,-42.6,160.2,142.5,-24.6,-13.5,-237.6,-6.3,-4.5,95.1,-96.0,-1.8,138.6,-3.6,124.5,0,1410,0,101,0,
0.7867,-28.2,66.3,101.1,-73.2,74.7,-41.7,127.5,-105.9,-2964.0,243.9,-32.4,169.5,153.6,-27.6,-34.8,-234.9,-6.3,-4.5,97.5,-81.0,-1.5,145.8,4.5,132.6,0,1416,0,102,0,
0.7900,-28.5,61.5,97.2,-76.8,74.7,-44.1,125.7,-110.4,-3038.1,239.4,-36.3,158.7,151.5,-30.0,-24.3,-231.3,-6.3,-4.5,97.5,-84.6,-1.8,140.4,-0.3,136.8,0,1422,0,103,0,
0.7933,-27.3,61.8,93.3,-77.1,72.6,-45.9,124.5,-113.1,-3038.1,244.5,-38.4,163.5,150.0,-26.4,-18.3,-237.3,-6.3,-4.5,96.6,-86.4,-2.1,136.2,1.8,129.3,0,1428,0,104,0,
0.7967,-25.2,65.4,93.3,-80.1,72.0,-48.3,122.7,-112.8,-2964.0,237.3,-41.7,159.3,146.7,-27.0,-19.5,-240.6,-6.0,-4.5,94.5,-89.7,-1.8,135.9,-4.8,126.9,0,1434,0,105,0,
0.8000,-25.8,62.1,91.5,-82.5,68.7,-51.0,121.2,-114.6,-3112.2,228.9,-40.8,157.2,139.2,-24.9,-13.5,-234.3,-6.0,-4.5,89.7,-95.4,-2.1,130.8,-6.9,124.8,0,1440,0,106,0,
0.8033,-26.1,60.6,90.6,-87.9,68.4,-57.6,120.9,-118.2,-3186.3,234.0,-47.1,151.2,138.3,-23.4,-8.4,-228.3,-6.3,-4.2,85.5,-103.8,-1.5,124.8,-5.1,118.2,0,1446,0,107,0,
0.8067,-26.4,57.6,91.2,-81.9,73.5,-55.5,121.2,-119.1,-3038.1,229.5,-44.1,151.2,147.6,-25.8,-19.2,-238.2,-6.3,-4.8,87.3,-99.3,-1.8,131.1,-7.2,117.6,0,1452,0,108,0,
0.8100,-28.5,58.5,90.6,-82.2,72.0,-58.2,118.8,-117.0,-3038.1,237.3,-42.9,157.2,145.8,-29.7,-19.2,-245.1,-6.0,-4.5,88.5,-92.7,-1.8,134.7,-10.8,118.5,0,1458,0,109,0,
0.8133,-27.0,64.5,93.3,-78.6,74.7,-53.7,121.5,-114.0,-2964.0,242.1,-36.9,165.9,144.0,-25.8,-22.5,-242.7,-6.3,-4.5,93.3,-93.6,-2.4,131.1,-10.5,122.1,0,1464,0,110,0,
0.8167,-27.9,58.8,85.8,-87.0,69.0,-59.1,115.5,-119.1,-3112.2,230.7,-48.0,149.7,139.2,-29.4,-11.1,-247.2,-6.0,-4.5,85.5,-107.1,-1.8,125.7,-20.7,110.1,0,1470,0,111,0,
0.8200,-26.4,58.8,84.3,-85.8,65.4,-58.5,116.7,-117.6,-3038.1,234.0,-55.5,149.7,140.1,-23.7,-6.9,-243.9,-6.3,-4.8,82.2,-103.5,-1.8,123.0,-21.0,106.5,0,1476,0,112,0,
0.8233,-31.2,54.0,82.5,-84.6,71.7,-54.9,118.5,-116.1,-3112.2,224.4,-58.2,143.4,144.6,-29.4,-31.8,-243.3,-6.3,-4.5,75.6,-104.1,-1.8,121.2,-17.7,111.6,0,1482,0,113,0,
0.8267,-30.9,53.7,82.2,-87.0,69.3,-53.4,121.2,-114.3,-3038.1,216.9,-70.2,138.9,141.3,-33.6,-33.0,-247.5,-5.7,-4.5,69.0,-100.8,-1.8,121.8,-20.7,108.9,0,1488,0,114,0,
0.8300,-30.0,56.1,83.4,-88.8,69.9,-50.7,123.9,-110.1,-3112.2,220.5,-69.3,136.2,136.2,-28.5,-28.8,-244.2,-6.0,-4.5,71.4,-102.0,-1.8,120.0,-21.3,110.7,0,1494,0,115,0,
0.8333,-31.5,50.4,80.4,-92.1,64.5,-61.5,119.4,-117.6,-3112.2,215.4,-59.7,143.1,133.8,-27.6,-24.9,-242.7,-6.0,-4.5,76.2,-103.5,-1.8,119.4,-23.7,105.3,0,1500,0,116,0,
0.8367,-25.8,55.2,87.0,-86.4,63.9,-57.9,119.1,-117.0,-3038.1,226.5,-45.0,148.2,139.2,-17.4,-12.3,-241.8,-6.3,-4.2,90.6,-105.0,-1.5,115.2,-16.8,114.3,0,1506,0,117,0,
0.8400,-29.1,60.0,86.7,-89.4,64.2,-59.7,117.0,-112.8,-3112.2,227.4,-46.2,143.4,138.3,-20.4,-14.7,-239.4,-6.0,-4.8,95.7,-106.2,-1.5,118.5,-15.6,107.7,0,1512,0,118,0,
0.8433,-23.1,65.1,95.1,-79.5,75.0,-48.9,123.0,-107.7,-3038.1,240.9,-32.4,157.2,139.5,-14.7,-17.1,-244.2,-6.3,-4.5,106.5,-94.5,-1.8,126.9,-12.6,113.7,0,1518,0,119,0,
0.8467,-24.3,65.1,92.4,-79.8,76.2,-50.7,119.4,-107.4,-3112.2,238.2,-38.1,162.0,143.4,-23.4,-24.9,-249.0,-6.3,-4.5,104.1,-92.7,-1.8,126.3,-10.8,121.8,0,1524,0,120,0,
0.8500,-24.6,61.5,91.2,-84.0,73.8,-49.5,120.6,-112.5,-2964.0,228.9,-43.2,150.9,142.8,-21.0,-11.7,-239.7,-6.6,-4.5,99.0,-97.5,-1.8,127.8,-9.9,116.7,0,1530,0,121,0,
0.8533,-24.6,60.6,90.3,-82.8,75.0,-51.6,121.8,-112.2,-3112.2,233.1,-42.0,156.3,139.2,-22.5,-17.7,-236.7,-6.3,-4.5,96.3,-96.9,-2.1,126.3,-9.0,119.1,0,1536,0,122,0,
0.8567,-23.1,63.9,91.5,-77.4,81.0,-45.0,128.1,-109.5,-3112.2,231.3,-41.1,161.1,137.4,-22.5,-25.8,-248.1,-6.3,-4.5,98.4,-90.9,-1.8,128.1,-12.3,126.0,0,1542,0,123,0,
0.8600,-26.1,60.3,90.3,-84.9,75.0,-48.6,117.0,-113.1,-2964.0,227.4,-50.1,153.9,132.9,-22.8,-25.2,-260.1,-6.3,-4.5,91.8,-97.8,-1.8,128.4,-32.4,126.9,0,1548,0,124,0,
0.8633,-31.5,54.6,84.6,-92.7,69.0,-55.8,119.7,-116.1,-3112.2,217.8,-53.1,141.6,123.3,-24.3,-18.6,-246.9,-6.0,-4.8,87.0,-107.4,-1.8,115.8,-21.3,112.5,0,1554,0,125,0,
0.8667,-30.9,57.9,85.5,-85.8,70.8,-57.6,119.7,-116.7,-3112.2,220.2,-52.5,143.1,125.1,-27.0,-24.0,-251.7,-6.3,-4.2,90.3,-105.9,-1.8,117.3,-19.5,114.0,0,1560,0,126,0,
0.8700,-26.7,62.4,91.5,-83.1,72.9,-52.8,118.8,-115.8,-3112.2,227.4,-48.6,149.7,127.5,-30.6,-36.0,-262.8,-6.3,-4.8,95.7,-100.2,-1.8,122.7,-21.6,120.3,0,1566,0,127,0,
0.8733,-28.2,60.6,89.7,-85.8,69.3,-56.1,116.4,-114.6,-3038.1,226.8,-49.8,144.9,128.7,-26.7,-28.2,-258.9,-6.3,-4.8,95.1,-102.6,-2.1,124.2,-22.5,112.8,0,1572,0,128,0,
0.8767,-26.4,58.2,87.0,-85.2,66.3,-55.8,117.0,-114.9,-3038.1,220.5,-52.2,145.5,129.9,-26.7,-22.2,-256.5,-6.3,-4.5,88.5,-106.8,-1.8,118.2,-27.9,113.7,0,1578,0,129,0,
0.8800,-31.2,58.5,84.9,-90.0,61.8,-59.7,117.0,-117.6,-2964.0,222.0,-56.1,145.2,125.7,-28.8,-21.9,-250.8,-6.3,-4.5,84.0,-108.3,-1.8,114.0,-27.9,107.1,0,1584,0,130,0,
0.8833,-27.0,63.3,92.7,-84.3,70.5,-56.1,115.5,-111.9,-3112.2,227.4,-52.5,147.0,129.0,-32.1,-26.7,-254.7,-6.0,-4.5,90.6,-104.7,-1.8,122.1,-33.6,111.9,0,1590,0,131,0,
0.8867,-27.9,58.8,82.2,-87.6,63.0,-62.1,109.8,-116.4,-2964.0,214.8,-57.0,144.6,123.0,-24.3,-17.7,-254.7,-6.3,-4.5,82.2,-110.4,-2.1,117.6,-33.0,106.5,0,1596,0,132,0,
0.8900,-25.8,60.6,84.3,-87.3,61.8,-63.3,116.4,-117.0,-3038.1,219.6,-58.8,140.4,120.9,-22.2,-11.1,-244.2,-5.7,-4.5,83.7,-114.3,-1.8,110.1,-25.5,105.9,0,1602,0,133,0,
0.8933,-32.7,57.0,84.0,-85.5,62.7,-61.2,112.8,-120.3,-3112.2,217.2,-57.3,145.2,114.0,-35.7,-26.1,-250.8,-6.3,-4.8,82.8,-110.1,-1.8,111.9,-31.8,100.5,0,1608,0,134,0,
0.8967,-27.6,55.5,82.2,-85.5,62.1,-60.6,117.6,-119.1,-3038.1,213.6,-61.8,141.0,111.3,-30.6,-14.7,-249.9,-6.3,-4.2,81.3,-114.9,-1.8,112.8,-31.5,96.6,0,1614,0,135,0,
0.9000,-32.1,55.8,78.0,-90.6,61.2,-64.5,111.9,-121.8,-3186.3,216.6,-66.3,131.4,120.3,-34.5,-23.1,-257.4,-6.6,-4.5,75.9,-119.7,-2.1,108.3,-33.3,90.0,0,1620,0,136,0,
0.9033,-30.0,57.9,82.2,-86.1,67.2,-61.8,114.0,-117.0,-3186.3,219.9,-62.4,132.9,116.7,-32.1,-24.0,-254.4,-6.3,-4.5,82.5,-117.9,-1.8,108.3,-33.9,95.1,0,1626,0,137,0,
0.9067,-27.3,59.4,85.8,-83.1,68.4,-60.3,115.2,-111.9,-3038.1,222.9,-55.2,136.5,122.4,-34.8,-30.3,-258.3,-6.0,-4.5,84.9,-111.6,-1.8,112.8,-38.4,97.5,0,1632,0,138,0,
0.9100,-28.2,61.5,86.7,-86.7,60.9,-68.4,113.4,-113.1,-3038.1,223.2,-57.3,136.2,131.1,-24.3,-18.9,-252.9,-6.0,-4.2,83.7,-116.1,-1.8,108.6,-33.0,94.2,0,1638,0,139,0,
0.9133,-32.1,54.3,79.8,-91.2,56.1,-69.0,109.8,-119.4,-3112.2,215.4,-64.8,130.5,125.4,-29.4,-14.7,-247.8,-6.0,-4.5,78.3,-119.1,-1.8,108.0,-29.7,96.6,0,1644,0,140,0,
0.9167,-31.2,57.6,78.0,-93.3,53.1,-70.2,113.7,-120.6,-3186.3,213.3,-69.3,130.2,120.9,-32.4,-11.1,-254.1,-6.3,-4.5,73.2,-120.6,-1.8,105.9,-36.6,95.1,0,1650,0,141,0,
0.9200,-26.1,63.6,85.2,-85.8,60.0,-65.1,119.7,-114.6,-3112.2,225.0,-61.5,141.9,128.7,-29.4,-21.9,-251.4,-6.0,-4.5,84.3,-109.8,-1.5,116.4,-27.6,107.7,0,1656,0,142,0,
0.9233,-26.4,65.7,87.9,-84.6,64.5,-59.7,118.8,-113.1,-3112.2,231.0,-62.7,141.6,133.2,-29.1,-33.3,-252.0,-6.3,-4.2,86.1,-114.3,-1.5,121.5,-28.2,107.7,0,1662,0,143,0,
0.9267,-31.5,58.5,83.1,-92.1,55.8,-65.7,112.5,-116.1,-3186.3,218.7,-63.0,134.1,124.5,-24.0,-21.0,-246.9,-6.0,-4.2,77.4,-113.7,-1.5,115.2,-32.1,97.5,0,1668,0,144,0,
0.9300,-27.3,58.5,80.7,-90.0,58.8,-64.5,116.4,-117.9,-3186.3,226.5,-60.6,134.7,124.8,-26.7,-20.1,-247.2,-6.0,-4.5,76.2,-115.2,-1.2,118.2,-32.7,101.1,0,1674,0,145,0,
0.9333,-31.5,53.4,77.1,-94.8,58.5,-64.8,116.1,-120.0,-3112.2,219.9,-63.9,138.6,123.9,-25.2,-20.1,-242.4,-6.3,-4.5,74.4,-109.8,-1.5,115.8,-30.3,105.3,0,1680,0,146,0,
0.9367,-28.2,56.4,76.5,-96.6,54.9,-67.8,114.9,-122.4,-3038.1,217.8,-65.4,130.5,120.6,-23.4,-16.5,-240.0,-6.3,-4.2,74.1,-116.7,-1.5,108.6,-37.2,99.3,0,1686,0,147,0,
0.9400,-24.3,59.1,80.1,-97.2,55.5,-67.8,115.5,-119.1,-3038.1,217.8,-60.6,135.6,120.3,-19.2,-7.8,-255.0,-6.0,-4.5,76.2,-114.0,-1.5,115.5,-39.0,96.0,0,1692,0,148,0,
0.9433,-23.7,59.7,79.5,-95.1,57.0,-65.4,114.9,-115.5,-3112.2,225.9,-61.2,133.5,129.9,-19.8,-17.1,-256.5,-6.0,-4.2,75.9,-117.3,-1.8,114.9,-43.8,106.8,0,1698,0,149,0,
0.9467,-25.2,66.9,86.7,-89.1,64.2,-59.4,119.7,-111.9,-3038.1,231.6,-54.3,144.3,135.9,-21.3,-37.2,-258.0,-6.3,-4.5,80.7,-108.0,-1.8,124.2,-36.0,110.7,0,1704,0,150,0,
0.9500,-22.5,70.2,90.9,-86.1,66.6,-50.1,121.5,-111.6,-3112.2,237.6,-45.0,153.6,135.0,-20.7,-33.0,-261.0,-6.0,-4.8,90.0,-103.8,-1.5,133.2,-27.6,111.6,0,1710,0,151,0,
0.9533,-24.0,65.1,81.6,-87.9,66.3,-52.5,120.9,-112.8,-3112.2,231.3,-53.7,153.9,132.9,-12.3,-14.1,-245.7,-6.0,-4.8,83.4,-104.7,-2.1,127.8,-29.1,112.5,0,1716,0,152,0,
0.9567,-21.9,68.4,87.9,-87.0,65.7,-54.3,123.3,-111.9,-3038.1,234.6,-54.9,147.3,132.0,-18.6,-22.8,-248.4,-6.3,-4.5,84.3,-105.3,-1.5,131.7,-22.5,117.0,0,1722,0,153,0,
0.9600,-22.5,67.2,89.7,-85.5,68.7,-50.7,126.9,-110.7,-3112.2,233.4,-54.0,152.1,129.0,-19.2,-18.6,-230.4,-6.3,-4.5,88.2,-103.8,-1.8,133.5,-17.4,116.4,0,1728,0,154,0,
0.9633,-21.0,67.8,86.7,-83.7,67.8,-48.0,127.5,-116.1,-3038.1,237.0,-51.9,153.0,134.4,-12.6,-18.3,-231.9,-6.0,-4.8,92.7,-101.4,-1.5,134.1,-20.1,117.3,0,1734,0,155,0,
0.9667,-22.5,71.4,92.1,-82.2,69.3,-48.0,126.0,-114.9,-3038.1,242.1,-50.1,150.9,136.5,-22.5,-24.6,-239.7,-6.6,-4.2,92.1,-102.0,-2.1,137.7,-13.2,122.4,0,1740,0,156,0,
0.9700,-22.2,67.5,89.4,-82.8,65.7,-49.2,126.0,-117.0,-3038.1,234.6,-51.3,151.2,134.7,-16.5,-15.9,-234.3,-6.0,-4.8,89.7,-102.9,-1.5,135.6,-10.8,123.9,0,1746,0,157,0,
0.9733,-23.7,66.6,89.7,-80.4,65.4,-49.2,127.5,-113.4,-3038.1,235.8,-50.1,151.5,132.0,-15.0,-15.0,-239.1,-6.0,-4.5,87.9,-100.2,-1.8,138.3,-16.5,120.6,0,1752,0,158,0,
0.9767,-22.5,63.9,87.0,-87.0,62.1,-47.7,126.0,-115.5,-3186.3,228.3,-54.9,144.6,131.7,-15.6,-11.4,-242.4,-6.3,-4.5,87.9,-103.8,-1.8,131.7,-19.5,117.3,0,1758,0,159,0,
0.9800,-25.8,63.6,87.0,-88.2,64.5,-49.8,124.2,-115.8,-3112.2,230.7,-52.8,151.8,126.9,-23.1,-22.8,-238.8,-6.6,-4.5,86.1,-105.0,-2.1,135.6,-20.4,112.5,0,1764,0,160,0,
0.9833,-30.6,60.9,81.9,-90.3,57.9,-57.0,121.2,-118.5,-3186.3,228.6,-58.8,143.7,127.8,-26.1,-23.7,-241.2,-6.0,-4.2,83.4,-110.7,-1.8,125.7,-25.5,111.9,0,1770,0,161,0,
0.9867,-26.7,61.5,78.0,-91.2,61.5,-55.5,124.5,-117.9,-3038.1,225.3,-61.5,145.2,126.0,-28.2,-18.6,-235.8,-6.3,-4.5,79.5,-107.1,-1.8,127.8,-15.9,118.2,0,1776,0,162,0,
0.9900,-27.9,60.9,76.8,-90.3,63.3,-56.1,126.6,-117.3,-3186.3,225.9,-59.1,141.0,126.0,-24.3,-7.8,-224.7,-6.0,-4.2,85.2,-107.7,-2.1,126.6,-16.5,113.7,0,1782,0,163,0,
0.9933,-23.7,60.3,76.8,-91.5,57.6,-58.5,125.4,-118.5,-2964.0,224.4,-64.8,140.1,116.1,-24.0,-12.9,-237.3,-6.0,-4.2,77.4,-109.8,-1.5,123.9,-17.7,113.7,0,1788,0,164,0,
0.9967,-24.9,57.6,76.2,-96.6,57.6,-61.2,120.6,-113.4,-3260.4,223.8,-70.2,124.5,126.9,-25.2,-21.3,-253.8,-6.0,-4.8,74.7,-121.8,-1.8,117.0,-28.5,108.6,0,1794,0,165,0,
1.0000,-24.9,57.6,72.3,-101.1,51.0,-67.2,116.4,-115.8,-3038.1,216.6,-82.2,115.5,127.5,-29.1,-24.0,-252.3,-6.0,-4.5,64.8,-139.2,-1.8,110.1,-32.4,97.8,0,1800,0,166,0,
1.0033,-27.0,62.4,76.8,-99.9,52.8,-67.5,119.4,-116.7,-3260.4,223.2,-73.8,125.4,130.5,-31.2,-36.6,-250.2,-6.0,-4.5,78.0,-130.2,-2.1,118.2,-30.3,104.4,0,1806,0,167,0,
1.0067,-25.8,62.7,78.3,-97.5,56.4,-60.9,119.4,-118.2,-3186.3,223.5,-59.7,145.8,124.8,-26.4,-21.6,-246.3,-6.3,-4.5,84.3,-111.9,-2.1,127.5,-27.9,106.5,0,1812,0,168,0,
1.0100,-25.8,59.7,75.3,-100.2,54.6,-67.2,119.1,-121.8,-3260.4,221.7,-63.6,143.4,119.1,-23.1,-10.5,-245.7,-6.6,-4.5,79.8,-115.2,-1.5,121.5,-32.4,107.7,0,1818,0,169,0,
1.0133,-24.6,59.7,75.6,-99.6,56.7,-63.6,122.1,-120.0,-3186.3,221.4,-73.2,141.6,121.8,-21.6,-13.2,-240.0,-6.0,-4.8,69.3,-111.6,-1.8,126.9,-26.1,112.5,0,1824,0,170,0,
1.0167,-26.1,62.1,77.4,-98.7,58.2,-58.8,120.0,-118.8,-3260.4,226.8,-68.7,144.0,120.9,-30.6,-27.6,-243.9,-6.0,-4.5,73.2,-106.8,-1.8,130.5,-22.2,114.3,0,1830,0,171,0,
1.0200,-27.6,53.1,67.2,-106.8,48.3,-63.6,119.1,-122.7,-3186.3,216.0,-74.1,126.6,114.3,-29.7,-7.8,-234.0,-6.0,-4.5,63.6,-123.0,-2.1,114.9,-26.7,100.8,0,1836,0,172,0,
1.0233,-29.1,56.7,70.5,-104.1,51.9,-63.9,118.8,-121.8,-3186.3,223.2,-71.1,127.5,122.1,-33.6,-13.5,-243.0,-6.3,-4.5,72.6,-119.4,-1.8,125.4,-29.4,109.5,0,1842,0,173,0,
1.0267,-30.3,54.0,65.7,-109.2,47.4,-69.0,116.4,-125.7,-3260.4,218.7,-74.7,127.5,117.6,-30.3,-8.7,-245.1,-6.0,-4.5,69.0,-126.0,-1.8,117.9,-31.2,102.6,0,1848,0,174,0,
1.0300,-26.7,57.6,67.2,-105.0,46.8,-66.3,121.8,-121.2,-3260.4,221.1,-73.8,124.5,118.5,-26.1,-11.1,-241.5,-6.0,-4.5,73.5,-127.5,-1.8,111.0,-24.3,111.0,0,1854,0,175,0,
1.0333,-25.8,56.4,69.9,-105.3,47.4,-66.0,123.6,-119.1,-3112.2,217.8,-72.0,132.3,115.8,-29.4,-17.4,-235.5,-6.0,-4.8,71.7,-121.5,-1.8,119.4,-20.1,104.7,0,1860,0,176,0,
1.0367,-26.7,60.6,74.7,-97.5,55.2,-62.7,124.2,-115.8,-3334.5,229.2,-67.5,138.0,121.8,-35.1,-34.5,-245.4,-6.3,-4.5,79.8,-115.2,-1.5,127.8,-16.5,108.3,0,1866,0,177,0,
1.0400,-25.2,56.7,70.8,-105.0,53.4,-64.2,123.0,-116.7,-3260.4,224.1,-72.6,135.3,120.9,-24.3,-24.3,-241.2,-6.3,-4.2,69.9,-118.5,-1.8,123.9,-14.4,110.1,0,1872,0,178,0,
1.0433,-24.9,61.5,71.1,-100.2,56.1,-63.3,122.1,-118.8,-3112.2,232.8,-72.6,132.6,123.3,-24.0,-19.5,-242.4,-6.6,-4.8,71.4,-119.1,-1.5,127.8,-20.7,110.7,0,1878,0,179,0,
1.0467,-26.1,60.3,71.7,-98.4,53.4,-66.9,116.4,-120.3,-3260.4,227.4,-72.6,132.3,115.5,-27.3,-24.3,-246.9,-6.0,-4.8,71.1,-119.4,-2.1,128.4,-20.4,105.9,0,1884,0,180,0,
1.0500,-24.3,63.9,74.4,-95.4,60.0,-60.9,122.4,-111.9,-3186.3,235.2,-68.4,135.0,120.0,-26.4,-24.6,-242.7,-6.3,-4.5,76.5,-114.6,-1.5,131.1,-18.9,111.3,0,1890,0,181,0,
1.0533,-21.9,65.1,78.0,-93.9,59.7,-54.0,124.5,-107.7,-3260.4,239.4,-62.7,140.7,125.4,-27.3,-24.0,-246.6,-6.0,-4.5,80.4,-110.7,-1.8,130.8,-25.5,113.4,0,1896,0,182,0,
1.0567,-25.5,60.9,77.1,-95.1,54.0,-61.2,119.1,-111.3,-3260.4,233.7,-72.9,135.9,124.2,-24.3,-19.5,-245.4,-6.0,-4.8,71.7,-126.0,-1.8,134.1,-27.3,111.9,0,1902,0,183,0,
1.0600,-27.3,55.5,72.9,-99.9,49.8,-58.8,121.5,-115.2,-3260.4,224.1,-69.9,132.0,113.7,-27.0,-8.1,-238.8,-6.0,-4.8,66.0,-120.3,-1.8,129.3,-21.3,113.1,0,1908,0,184,0,
1.0633,-27.3,54.9,72.9,-96.9,54.9,-57.0,122.4,-114.3,-3260.4,222.9,-71.7,133.2,110.7,-30.3,-4.5,-237.6,-6.3,-4.2,66.9,-111.6,-1.8,125.4,-21.9,113.7,0,1914,0,185,0,
1.0667,-28.2,59.1,78.0,-94.2,56.4,-54.0,126.6,-112.8,-3482.7,229.2,-70.8,138.0,118.5,-32.1,-23.7,-243.9,-6.0,-4.2,69.3,-106.5,-1.5,126.0,-26.4,109.8,0,1920,0,186,0,
1.0700,-31.5,56.4,70.5,-97.5,55.2,-57.3,122.1,-115.5,-3334.5,222.6,-69.0,136.8,117.3,-38.1,-23.1,-241.8,-6.6,-4.8,67.2,-110.7,-1.8,131.4,-27.0,104.1,0,1926,0,187,0,
1.0733,-30.6,55.2,67.5,-103.5,50.1,-64.8,121.8,-119.7,-3334.5,220.2,-76.8,126.9,118.8,-33.6,-15.0,-234.0,-6.3,-4.5,65.1,-118.2,-2.4,121.2,-28.8,103.8,0,1932,0,188,0,
1.0767,-27.6,52.5,72.3,-98.4,53.7,-63.9,125.4,-118.8,-3334.5,222.0,-75.6,132.6,115.8,-35.4,-18.0,-237.3,-6.3,-4.5,67.2,-117.0,-1.8,127.8,-28.5,110.4,0,1938,0,189,0,
1.0800,-28.5,51.9,74.7,-99.0,54.6,-60.9,123.0,-115.5,-3408.6,219.9,-71.4,131.7,117.0,-27.3,-7.2,-252.6,-6.0,-4.8,66.9,-111.0,-2.1,121.2,-34.5,110.4,0,1944,0,190,0,
1.0833,-29.1,51.9,69.3,-101.7,51.6,-66.0,120.9,-124.5,-3334.5,218.4,-76.8,130.8,115.2,-26.7,7.8,-241.8,-6.3,-4.5,60.6,-116.1,-1.8,120.3,-35.7,102.0,0,1950,0,191,0,
1.0867,-34.5,50.1,78.6,-102.9,57.0,-61.5,122.7,-119.7,-3408.6,224.4,-72.0,134.1,113.4,-37.8,-30.0,-243.6,-6.3,-4.2,66.9,-112.2,-1.8,133.5,-37.2,111.6,0,1956,0,192,0,
1.0900,-30.3,51.6,76.2,-98.4,52.8,-64.5,122.4,-120.9,-3334.5,231.9,-74.7,131.4,122.4,-36.6,-24.9,-240.6,-6.0,-4.5,66.3,-115.2,-1.5,123.6,-30.3,102.6,0,1962,0,193,0,
1.0933,-30.6,54.9,79.8,-99.9,54.9,-64.5,123.3,-123.0,-3186.3,232.8,-71.1,132.9,123.6,-43.8,-35.4,-247.8,-6.3,-4.5,70.5,-112.5,-1.8,126.0,-33.0,102.0,0,1968,0,194,0,
1.0967,-32.1,53.7,74.4,-99.9,55.8,-66.3,123.3,-118.2,-3186.3,226.8,-69.9,134.7,115.5,-32.7,-18.0,-244.5,-6.6,-4.5,67.8,-115.5,-1.8,126.9,-29.4,102.0,0,1974,0,195,0,
1.1000,-29.1,54.3,75.3,-97.5,57.6,-62.1,124.5,-120.6,-3186.3,223.8,-68.4,137.4,117.6,-33.0,-17.7,-245.1,-5.7,-4.5,66.9,-112.5,-1.8,129.3,-28.2,102.6,0,1980,0,196,0,
1.1033,-29.4,51.6,76.5,-101.1,55.2,-66.6,123.0,-119.4,-3112.2,225.3,-74.7,135.0,116.4,-34.2,-16.8,-247.2,-6.3,-4.5,63.3,-114.9,-1.5,123.0,-29.1,103.2,0,1986,0,197,0,
1.1067,-24.6,51.6,77.4,-97.8,61.2,-61.8,123.9,-117.6,-3112.2,221.7,-69.6,141.6,117.3,-34.8,-29.1,-246.9,-6.0,-4.2,67.8,-111.0,-1.5,122.7,-28.8,111.0,0,1992,0,198,0,
1.1100,-24.3,54.3,77.1,-93.3,63.0,-60.3,119.4,-116.1,-3186.3,222.6,-66.9,142.8,118.5,-36.9,-26.7,-251.7,-6.3,-4.5,65.1,-107.7,-2.1,129.0,-24.3,113.1,0,1998,0,199,0,
1.1133,-25.5,56.1,75.0,-94.5,66.0,-59.1,122.4,-118.8,-3186.3,218.4,-67.5,140.1,111.0,-39.0,-24.6,-236.4,-6.0,-4.5,63.6,-109.8,-1.8,129.9,-25.5,114.9,0,2004,0,200,0,
1.1167,-28.2,56.7,73.8,-94.8,61.8,-58.5,124.2,-119.1,-3260.4,223.8,-67.8,141.3,106.2,-41.4,-23.4,-230.1,-6.3,-4.5,63.9,-108.3,-2.1,128.4,-25.5,109.2,0,2010,0,201,0,
1.1200,-24.9,55.8,71.7,-93.3,64.8,-57.9,122.1,-117.6,-3186.3,220.8,-66.3,138.6,114.3,-33.6,-13.2,-251.7,-6.3,-4.5,67.2,-105.6,-1.8,135.9,-30.3,110.4,0,2016,0,202,0,
1.1233,-27.9,57.3,72.3,-95.1,63.3,-62.4,120.9,-119.7,-3038.1,228.9,-65.7,137.7,124.8,-27.6,-3.6,-246.0,-6.3,-4.8,68.1,-112.2,-1.8,129.0,-25.8,114.3,0,2022,0,203,0,
1.1267,-27.6,56.7,71.1,-93.9,66.3,-63.3,120.9,-116.1,-3260.4,220.8,-70.5,135.3,121.8,-33.9,-12.0,-252.9,-6.3,-4.2,66.0,-111.0,-1.5,120.9,-26.4,116.7,0,2028,0,204,0,
1.1300,-24.3,58.2,77.1,-87.3,69.0,-56.7,124.8,-109.8,-3112.2,232.8,-65.1,136.8,120.6,-42.6,-34.2,-245.1,-6.3,-4.5,70.2,-105.3,-1.5,132.6,-17.4,118.5,0,2034,0,205,0,
1.1333,-27.0,57.9,78.9,-91.8,66.6,-60.9,120.3,-112.5,-3112.2,228.6,-71.1,135.9,120.6,-40.5,-38.1,-255.6,-6.3,-4.2,70.2,-108.0,-1.8,133.2,-21.6,114.9,0,2040,0,206,0,
1.1367,-25.5,59.7,78.3,-90.6,65.1,-59.4,120.9,-108.0,-3112.2,225.3,-67.8,133.5,119.4,-35.7,-26.4,-259.2,-6.0,-4.5,69.3,-105.6,-1.5,126.6,-24.6,113.7,0,2046,0,207,0,
1.1400,-28.5,57.6,75.0,-96.6,60.6,-61.8,121.5,-113.1,-3112.2,219.6,-76.5,126.3,114.9,-39.3,-17.1,-251.1,-6.3,-4.8,65.4,-111.6,-1.8,123.0,-28.8,111.0,0,2052,0,208,0,
1.1433,-25.5,57.3,76.2,-97.2,60.9,-62.1,123.6,-112.5,-3038.1,226.5,-74.4,137.7,117.6,-39.9,-25.5,-250.2,-6.3,-4.5,66.3,-107.1,-2.1,130.5,-30.9,113.7,0,2058,0,209,0,
1.1467,-29.7,51.9,67.5,-105.0,51.0,-70.2,120.9,-118.5,-3038.1,215.4,-79.8,128.1,108.9,-41.4,-16.2,-228.6,-6.3,-4.2,56.7,-123.3,-2.1,112.2,-24.6,108.0,0,2064,0,210,0,
1.1500,-33.3,49.8,62.4,-108.6,48.0,-74.4,116.4,-120.9,-3038.1,211.8,-78.9,128.4,112.2,-45.3,-16.5,-247.5,-6.3,-4.5,54.0,-126.6,-1.8,114.6,-29.4,96.9,0,2070,0,211,0,
1.1533,-28.2,54.9,66.0,-100.8,57.6,-63.6,121.5,-114.6,-3038.1,225.0,-77.4,137.1,123.3,-42.6,-31.2,-265.2,-6.0,-4.5,65.4,-114.9,-2.1,125.4,-30.3,106.5,0,2076,0,212,0,
1.1567,-31.8,54.6,65.1,-104.4,50.4,-65.1,118.5,-119.1,-3112.2,214.5,-80.1,129.0,114.3,-48.9,-39.0,-255.0,-6.0,-4.2,60.9,-117.6,-1.8,117.3,-29.4,101.7,0,2082,0,213,0,
1.1600,-28.2,53.4,66.3,-105.9,46.8,-62.7,121.5,-119.1,-3186.3,218.1,-78.6,126.9,116.7,-42.3,-25.5,-250.5,-6.3,-4.5,64.5,-116.1,-1.8,123.9,-28.8,110.1,0,2088,0,214,0,
1.1633,-28.5,53.4,68.7,-105.9,44.7,-66.6,123.6,-118.5,-3186.3,225.3,-70.5,133.5,117.3,-38.1,-22.8,-261.6,-6.3,-4.5,63.3,-115.2,-1.8,121.8,-34.8,101.1,0,2094,0,215,0,
1.1667,-26.4,56.7,69.0,-105.0,46.8,-67.5,122.1,-118.5,-3260.4,224.7,-77.1,128.4,117.9,-30.6,-18.9,-258.6,-6.3,-4.5,62.4,-124.5,-1.5,120.9,-32.7,100.8,0,2100,0,216,0,
1.1700,-30.0,53.1,69.3,-105.6,50.4,-70.8,117.9,-122.4,-3112.2,223.2,-74.7,117.6,117.0,-46.5,-26.4,-258.9,-6.0,-4.8,62.7,-126.0,-1.8,122.4,-35.7,100.2,0,2106,0,217,0,
1.1733,-27.6,57.9,73.2,-99.6,54.9,-65.7,125.7,-120.0,-3112.2,218.7,-74.7,117.0,117.9,-39.0,-29.7,-252.9,-6.0,-4.5,64.5,-114.9,-1.8,126.3,-31.2,101.7,0,2112,0,218,0,
1.1767,-25.8,54.3,71.7,-105.0,46.5,-69.3,117.0,-124.2,-3260.4,213.3,-80.4,121.8,113.4,-31.2,-18.3,-256.5,-6.3,-4.5,64.2,-118.8,-2.1,122.1,-43.2,100.5,0,2118,0,219,0,
1.1800,-26.1,48.6,57.9,-113.1,42.6,-77.1,113.1,-130.5,-3186.3,208.5,-86.7,122.7,109.8,-33.0,-11.1,-249.3,-6.0,-4.8,52.8,-128.1,-1.5,119.4,-47.4,102.3,0,2124,0,220,0,
1.1833,-28.5,50.7,60.6,-113.7,41.7,-78.0,118.8,-128.7,-3260.4,208.8,-81.9,126.3,110.4,-33.9,-14.4,-245.1,-6.3,-4.5,54.6,-124.8,-2.1,111.6,-38.7,99.9,0,2130,0,221,0,
1.1867,-31.5,49.5,60.6,-112.2,43.2,-74.1,120.0,-129.6,-3112.2,213.0,-79.2,127.5,114.9,-36.9,-24.3,-258.6,-6.0,-4.8,58.5,-116.1,-1.8,120.0,-42.0,102.3,0,2136,0,222,0,
1.1900,-30.6,48.3,57.0,-115.5,42.3,-70.8,122.7,-127.2,-3038.1,215.4,-75.3,128.4,114.6,-42.0,-27.3,-247.8,-6.3,-4.8,59.1,-114.9,-2.1,117.0,-40.5,108.0,0,2142,0,223,0,
1.1933,-32.7,47.4,54.0,-115.2,39.6,-75.3,118.8,-130.5,-3186.3,211.2,-82.8,122.4,107.1,-44.4,-26.7,-243.9,-6.6,-4.5,53.4,-120.6,-2.1,117.9,-34.5,97.8,0,2148,0,224,0,
1.1967,-33.0,49.2,62.4,-109.5,46.2,-70.8,120.6,-127.5,-3112.2,215.7,-80.4,125.4,111.3,-41.1,-30.9,-256.2,-6.3,-4.8,56.7,-114.0,-2.1,113.7,-36.9,96.9,0,2154,0,225,0,
1.2000,-31.8,47.7,56.4,-115.5,44.7,-72.0,114.9,-130.5,-3260.4,212.1,-83.1,119.7,111.0,-40.8,-24.6,-261.0,-6.3,-4.5,50.4,-117.6,-2.1,114.9,-38.7,100.5,0,2160,0,226,0,
1.2033,-29.7,48.3,60.3,-116.1,43.8,-70.2,119.4,-131.1,-2964.0,215.4,-82.2,119.4,107.4,-41.1,-23.4,-256.2,-6.3,-4.2,53.4,-125.7,-1.5,115.8,-33.9,108.9,0,2166,0,227,0,
1.2067,-34.5,45.3,55.2,-116.7,41.7,-73.5,117.0,-133.2,-3112.2,211.2,-87.0,118.5,104.7,-40.5,-27.0,-256.8,-6.3,-4.2,48.6,-130.5,-1.8,111.6,-39.6,101.1,0,2172,0,228,0,
1.2100,-30.0,49.8,59.7,-112.2,41.1,-69.3,121.8,-129.0,-3038.1,208.8,-85.2,122.7,104.1,-38.4,-12.9,-255.3,-6.0,-4.8,49.5,-135.6,-1.5,106.2,-40.8,103.5,0,2178,0,229,0,
1.2133,-28.5,49.2,56.1,-112.8,40.8,-72.6,115.8,-131.7,-3112.2,206.7,-88.2,117.3,111.3,-39.3,-16.2,-258.9,-6.3,-4.5,44.7,-129.0,-1.8,103.2,-42.9,91.2,0,2184,0,230,0,
1.2167,-32.7,49.2,54.0,-117.3,41.1,-72.9,125.4,-132.0,-3112.2,205.5,-88.5,120.3,106.5,-38.7,-16.2,-243.9,-5.7,-4.5,43.2,-122.1,-1.5,110.1,-37.8,95.7,0,2190,0,231,0,
1.2200,-35.1,48.3,59.4,-112.5,40.8,-71.4,123.6,-135.0,-2964.0,206.7,-84.6,118.5,100.5,-43.8,-25.8,-249.0,-6.6,-4.5,51.3,-115.5,-1.8,108.9,-33.9,105.3,0,2196,0,232,0,
1.2233,-36.0,44.1,56.1,-113.4,40.2,-74.1,120.3,-139.5,-3038.1,208.8,-87.3,117.3,105.3,-40.5,-14.7,-245.1,-6.0,-4.5,50.1,-122.4,-2.1,109.2,-28.2,108.0,0,2202,0,233,0,
1.2267,-33.9,41.7,54.3,-112.8,40.8,-75.9,114.6,-139.2,-3112.2,197.4,-92.7,113.7,117.6,-32.7,-1.8,-245.1,-6.6,-4.5,49.5,-128.7,-1.5,104.4,-34.2,96.3,0,2208,0,234,0,
1.2300,-31.5,46.5,57.3,-110.1,48.9,-66.9,120.3,-136.2,-3186.3,210.9,-89.4,119.1,117.0,-36.9,-24.0,-247.8,-5.7,-4.5,48.9,-120.6,-1.5,120.9,-24.3,103.8,0,2214,0,235,0,
1.2333,-32.4,45.9,60.0,-106.2,49.5,-66.0,120.3,-134.4,-3112.2,204.9,-102.3,113.7,111.6,-39.6,-35.1,-255.6,-6.0,-3.9,41.4,-124.8,-1.5,119.4,-29.1,104.4,0,2220,0,236,0,
1.2367,-25.5,55.2,72.0,-97.5,59.1,-63.0,123.0,-127.2,-3038.1,218.4,-83.4,126.6,121.8,-29.1,-27.9,-256.5,-6.3,-4.5,56.1,-114.9,-1.8,117.9,-29.1,105.3,0,2226,0,237,0,
1.2400,-28.2,61.5,84.0,-88.5,63.6,-57.9,122.4,-123.3,-2964.0,229.8,-59.1,151.8,130.5,-30.6,-28.2,-256.8,-6.3,-4.5,73.8,-99.9,-1.8,127.5,-27.9,115.2,0,2232,0,238,0,
1.2433,-25.8,61.8,86.4,-84.9,66.6,-58.2,125.4,-123.6,-3112.2,226.8,-54.6,157.8,128.7,-18.0,-15.9,-247.8,-6.3,-4.8,85.2,-98.4,-1.8,125.4,-24.6,111.0,0,2238,0,239,0,
1.2467,-27.9,60.0,79.8,-87.3,63.6,-57.9,122.4,-122.4,-3038.1,219.0,-61.2,144.0,126.3,-26.1,-19.8,-241.2,-6.3,-4.2,76.8,-104.4,-1.8,121.2,-23.7,111.0,0,2244,0,240,0,
1.2500,-24.3,61.2,81.6,-86.7,69.6,-55.5,120.6,-123.6,-3038.1,225.3,-54.3,146.7,131.1,-18.6,-10.5,-241.8,-6.3,-4.5,77.7,-101.7,-1.8,120.6,-23.1,114.6,0,2250,0,241,0,
1.2533,-29.1,58.8,87.0,-82.2,74.1,-52.5,122.4,-121.2,-3038.1,229.2,-49.2,154.5,132.3,-30.0,-24.9,-243.6,-6.0,-4.2,78.9,-96.9,-1.8,127.8,-20.7,121.8,0,2256,0,242,0,
1.2567,-26.1,63.0,95.4,-76.8,81.0,-48.6,128.1,-116.7,-2964.0,236.7,-46.2,155.1,141.0,-27.9,-35.4,-253.8,-6.3,-4.5,90.0,-92.7,-1.8,130.8,-19.8,120.3,0,2262,0,243,0,
1.2600,-29.1,61.2,87.6,-79.8,74.4,-50.4,125.1,-120.3,-3186.3,226.8,-49.5,151.5,133.8,-30.6,-24.0,-243.6,-6.3,-4.2,82.2,-97.8,-1.8,125.1,-20.4,120.3,0,2268,0,244,0,
1.2633,-29.1,57.0,80.7,-82.8,69.3,-51.9,129.0,-119.4,-2964.0,220.5,-58.5,150.3,128.4,-27.0,-11.7,-239.7,-6.0,-4.8,74.1,-99.3,-1.8,120.0,-19.5,119.4,0,2274,0,245,0,
1.2667,-30.3,61.5,84.6,-78.6,75.0,-48.0,127.8,-117.0,-3112.2,223.8,-54.0,154.5,131.7,-28.5,-22.2,-248.1,-6.6,-4.2,76.8,-96.3,-1.5,124.5,-21.3,124.8,0,2280,0,246,0,
1.2700,-26.7,58.5,86.1,-80.4,72.0,-49.8,130.5,-115.2,-2964.0,222.3,-56.1,149.1,130.8,-29.4,-22.5,-238.2,-6.6,-4.8,76.8,-98.4,-1.8,123.3,-16.5,115.8,0,2286,0,247,0,
1.2733,-29.4,60.6,85.8,-79.5,72.6,-50.1,125.7,-118.2,-3186.3,234.3,-55.2,150.6,131.1,-26.1,-24.9,-249.6,-6.3,-4.5,82.5,-98.1,-1.5,136.8,-20.7,114.6,0,2292,0,248,0,
1.2767,-24.0,63.3,89.7,-78.0,75.3,-45.9,129.9,-115.8,-3038.1,230.7,-56.4,149.4,126.3,-25.2,-14.1,-244.5,-6.3,-4.2,79.2,-95.4,-1.8,133.2,-25.2,120.3,0,2298,0,249,0,
1.2800,-26.7,62.7,86.4,-81.6,77.7,-47.1,129.3,-114.6,-2964.0,230.4,-59.7,150.3,130.5,-27.0,-21.3,-239.7,-6.3,-4.2,76.8,-97.8,-1.8,137.7,-23.1,127.8,0,2304,0,250,0,
1.2833,-25.2,62.1,85.8,-82.5,75.6,-48.9,127.8,-114.3,-2964.0,233.4,-56.4,144.6,137.4,-22.2,-13.2,-236.7,-6.0,-4.8,80.1,-99.0,-2.1,131.7,-18.9,116.4,0,2310,0,251,0,
1.2867,-25.2,64.8,83.4,-84.3,67.8,-54.6,126.3,-117.3,-3112.2,231.0,-55.2,138.9,138.0,-25.8,-21.6,-246.9,-6.3,-4.5,83.4,-113.7,-1.8,123.9,-30.6,109.5,0,2316,0,252,0,
1.2900,-21.3,66.0,82.5,-82.2,77.7,-48.9,126.9,-111.9,-3038.1,234.0,-57.0,147.3,141.6,-26.1,-19.8,-251.7,-6.3,-4.5,77.7,-109.5,-1.8,128.7,-37.5,126.0,0,2322,0,253,0,
1.2933,-20.7,63.0,71.1,-93.6,65.7,-60.6,125.1,-121.5,-3112.2,215.4,-66.6,137.4,130.8,-19.8,4.5,-238.8,-6.0,-4.2,73.8,-111.9,-2.1,123.0,-44.4,108.9,0,2328,0,254,0,
1.2967,-24.3,63.9,77.4,-90.3,71.1,-56.1,126.3,-118.2,-3112.2,228.9,-60.9,145.5,126.3,-18.3,-6.9,-249.9,-6.3,-4.2,77.4,-109.2,-2.1,128.7,-40.5,108.0,0,2334,0,255,0,
1.3000,-20.7,67.2,80.1,-87.9,69.6,-55.5,127.2,-115.2,-3186.3,237.3,-60.3,144.9,133.8,-30.6,-13.2,-245.1,-6.0,-4.5,80.7,-102.3,-1.5,123.6,-36.9,108.6,0,2340,0,0,0,
1.3033,-25.5,62.4,79.5,-86.7,69.3,-56.7,125.1,-118.8,-3112.2,232.5,-61.8,149.7,126.0,-24.0,-18.0,-251.4,-6.3,-4.8,79.5,-99.9,-1.8,129.9,-31.8,114.3,0,2346,0,1,0,
1.3067,-24.3,64.5,77.1,-88.8,74.4,-56.4,128.1,-118.8,-3186.3,235.5,-57.3,148.5,127.8,-29.1,-23.7,-264.9,-6.0,-4.8,74.4,-101.1,-1.5,131.7,-36.6,121.2,0,2352,0,2,0,
1.3100,-27.9,57.3,73.8,-96.9,63.6,-56.7,124.5,-126.9,-3038.1,226.5,-61.2,150.9,116.4,-39.3,-35.4,-263.7,-6.0,-4.5,66.9,-102.3,-1.8,130.8,-34.2,116.4,0,2358,0,3,0,
1.3133,-24.0,59.1,75.9,-96.9,63.6,-57.6,126.0,-122.1,-3038.1,225.9,-63.3,146.4,112.5,-36.6,-20.1,-261.0,-6.6,-4.5,75.3,-102.3,-1.8,124.5,-34.8,112.5,0,2364,0,4,0,
1.3167,-26.7,56.1,70.2,-99.0,58.8,-61.5,126.3,-127.8,-3038.1,221.7,-63.6,144.9,123.3,-32.4,-18.0,-253.8,-6.0,-4.5,74.1,-104.4,-1.5,124.5,-29.7,109.8,0,2370,0,5,0,
1.3200,-25.2,64.8,77.7,-94.8,65.4,-53.7,128.1,-117.9,-2964.0,230.1,-51.6,151.2,132.0,-34.8,-33.6,-270.6,-6.3,-4.5,83.1,-98.7,-2.1,134.4,-27.3,118.8,0,2376,0,6,0,
1.3233,-28.2,60.0,70.2,-99.6,56.4,-59.1,127.8,-124.2,-3186.3,226.2,-66.0,138.0,131.7,-35.1,-26.1,-255.9,-6.3,-4.5,74.7,-106.5,-1.5,129.3,-21.0,119.1,0,2382,0,7,0,
1.3267,-27.6,59.7,73.2,-101.1,55.2,-55.5,128.7,-121.5,-3038.1,229.5,-63.9,138.6,126.9,-25.5,-10.5,-246.0,-6.3,-4.5,77.4,-102.6,-2.1,127.5,-23.4,120.6,0,2388,0,8,0,
1.3300,-30.3,59.7,72.9,-99.9,59.7,-56.7,126.3,-124.5,-3038.1,229.5,-66.3,139.2,127.2,-31.8,-24.3,-251.7,-6.3,-4.5,69.9,-112.8,-1.8,130.5,-22.8,118.5,0,2394,0,9,0,
1.3333,-31.8,65.1,75.6,-99.6,57.0,-54.0,125.1,-118.8,-3112.2,238.2,-66.9,139.8,132.3,-33.0,-34.2,-268.2,-6.6,-4.8,77.7,-114.3,-1.8,134.4,-30.0,111.6,0,2400,0,10,0,
1.3367,-30.3,56.7,73.8,-105.3,54.9,-54.6,125.1,-123.6,-3112.2,223.5,-70.5,137.1,125.1,-28.8,-26.1,-258.0,-6.0,-4.5,69.0,-113.1,-1.8,127.5,-31.8,105.9,0,2406,0,11,0,
1.3400,-28.2,56.1,69.9,-105.3,50.1,-56.7,124.2,-120.0,-3186.3,226.2,-66.3,139.2,126.3,-24.6,-18.3,-246.3,-6.3,-4.8,70.2,-111.6,-1.5,123.9,-29.1,103.5,0,2412,0,12,0,
1.3433,-27.3,56.1,66.9,-103.5,52.2,-57.9,125.4,-120.9,-3038.1,227.1,-66.0,137.7,123.0,-24.6,-14.4,-249.0,-6.3,-4.5,72.3,-114.6,-1.8,118.5,-30.0,114.3,0,2418,0,13,0,
1.3467,-26.1,56.4,72.3,-99.6,54.3,-59.1,124.8,-122.7,-3112.2,227.7,-63.3,140.7,124.5,-26.4,-18.6,-258.0,-6.3,-4.5,78.0,-111.0,-1.8,127.2,-30.6,118.5,0,2424,0,14,0,
1.3500,-28.2,56.1,71.1,-101.1,51.9,-60.6,123.0,-123.3,-3038.1,224.1,-67.5,132.3,123.6,-33.9,-31.2,-255.0,-6.3,-4.5,71.4,-116.1,-1.8,117.6,-26.4,105.6,0,2430,0,15,0,
1.3533,-30.9,52.5,64.2,-101.7,50.7,-64.5,120.9,-123.9,-3112.2,220.2,-73.2,133.8,122.4,-31.5,-23.4,-261.3,-6.3,-4.2,65.7,-119.1,-1.8,110.1,-30.9,108.0,0,2436,0,16,0,
1.3567,-27.3,57.0,70.2,-96.6,59.1,-58.5,120.9,-116.4,-3038.1,224.1,-65.7,139.2,120.9,-39.0,-27.9,-263.4,-6.6,-4.2,72.9,-114.6,-1.8,119.1,-34.8,111.9,0,2442,0,17,0,
1.3600,-26.1,55.5,72.9,-96.3,62.7,-56.4,123.9,-117.6,-3038.1,231.3,-61.8,147.0,126.3,-36.0,-18.6,-261.9,-6.0,-4.8,75.3,-109.5,-1.8,127.2,-35.4,113.7,0,2448,0,18,0,
1.3633,-27.6,53.1,72.0,-94.8,65.1,-57.9,125.7,-117.6,-3112.2,219.0,-58.2,145.2,119.7,-29.1,-25.8,-260.4,-6.3,-4.8,77.7,-112.5,-1.8,125.1,-27.0,107.7,0,2454,0,19,0,
1.3667,-22.5,56.1,71.7,-95.4,62.1,-60.3,126.3,-115.8,-3112.2,226.2,-67.8,140.7,126.6,-29.4,-25.2,-256.8,-6.3,-4.5,73.8,-111.9,-1.8,122.7,-23.4,109.5,0,2460,0,20,0,
1.3700,-24.9,55.5,73.8,-97.2,63.0,-60.3,123.6,-117.0,-3112.2,216.9,-66.6,139.8,125.4,-28.5,-12.9,-250.8,-6.3,-4.8,74.7,-111.0,-1.8,119.1,-27.6,111.3,0,2466,0,21,0,
1.3733,-25.2,56.1,74.1,-97.5,58.8,-60.9,122.4,-121.8,-3038.1,225.9,-65.4,146.4,127.8,-23.7,4.2,-241.8,-6.3,-4.5,74.7,-106.8,-1.8,117.9,-22.8,114.3,0,2472,0,22,0,
1.3767,-19.5,64.8,87.6,-84.9,75.0,-50.4,123.3,-109.2,-3038.1,231.6,-64.5,147.0,131.1,-19.5,-20.1,-267.3,-6.3,-4.5,77.7,-104.7,-2.1,132.6,-24.6,118.5,0,2478,0,23,0,
1.3800,-22.8,63.9,86.4,-84.0,78.0,-50.4,125.7,-110.4,-3038.1,230.7,-53.4,149.7,136.8,-24.6,-28.5,-266.7,-6.6,-4.5,84.9,-102.9,-1.5,136.8,-24.3,125.1,0,2484,0,24,0,
1.3833,-25.2,60.3,86.4,-84.6,72.3,-47.4,128.4,-111.9,-3112.2,243.9,-48.0,154.5,134.7,-24.9,-21.0,-257.4,-6.0,-4.2,86.1,-99.9,-2.1,134.7,-26.4,124.2,0,2490,0,25,0,
1.3867,-24.9,59.1,83.1,-89.4,68.4,-51.0,126.0,-116.7,-3186.3,232.5,-53.1,148.8,136.2,-33.6,-35.1,-253.2,-6.0,-4.2,81.9,-103.8,-1.8,126.6,-26.1,118.5,0,2496,0,26,0,
1.3900,-28.2,54.0,75.0,-90.0,67.5,-47.1,125.4,-117.6,-3112.2,231.0,-63.6,141.3,123.6,-34.2,-27.9,-257.1,-6.6,-4.2,70.2,-101.4,-1.8,125.4,-20.1,120.9,0,2502,0,27,0,
1.3933,-31.8,51.9,76.8,-98.7,63.0,-50.4,124.2,-123.9,-3112.2,222.6,-65.4,137.1,117.0,-36.3,-15.0,-244.8,-6.0,-4.5,67.5,-102.6,-2.1,120.9,-16.8,120.3,0,2508,0,28,0,
1.3967,-33.6,47.1,72.6,-101.1,59.7,-49.8,129.6,-126.6,-3112.2,217.2,-71.4,130.2,119.1,-32.4,-5.7,-234.3,-6.3,-4.5,62.4,-108.3,-1.5,118.8,-18.0,112.2,0,2514,0,29,0,
1.4000,-29.4,57.0,82.8,-92.1,73.2,-44.7,136.8,-121.2,-3186.3,229.8,-60.9,148.5,126.9,-37.2,-30.0,-228.9,-6.3,-4.8,74.7,-98.7,-1.8,140.4,-12.0,128.1,0,2520,0,30,0,
1.4033,-30.3,59.4,78.3,-93.6,65.4,-51.0,131.1,-120.0,-3112.2,230.4,-62.1,145.2,117.0,-32.1,-26.4,-248.4,-6.3,-4.8,71.4,-102.6,-1.5,130.2,-20.7,120.3,0,2526,0,31,0,
1.4067,-30.9,54.0,73.2,-99.3,60.0,-54.9,127.8,-126.0,-3112.2,223.2,-68.1,140.7,121.8,-35.1,-19.2,-246.3,-5.7,-4.5,73.8,-100.2,-1.8,124.2,-20.7,119.7,0,2532,0,32,0,
1.4100,-27.6,52.8,78.0,-95.1,63.3,-48.3,126.6,-119.1,-3038.1,230.4,-65.1,146.1,131.4,-31.2,-21.0,-254.4,-6.3,-4.5,74.7,-94.8,-1.8,134.4,-16.8,119.4,0,2538,0,33,0,
1.4133,-28.5,56.7,84.3,-89.4,74.7,-45.9,130.5,-118.2,-3038.1,238.5,-54.3,153.3,131.4,-37.5,-40.8,-244.5,-6.3,-4.5,85.8,-89.4,-1.8,142.2,-12.9,129.9,0,2544,0,34,0,
1.4167,-26.1,59.7,87.6,-89.7,72.6,-45.6,134.7,-117.0,-3112.2,238.5,-47.7,156.0,138.6,-32.4,-27.6,-240.0,-6.3,-4.8,87.6,-89.4,-2.1,138.3,-6.9,128.4,0,2550,0,35,0,
1.4200,-25.5,61.5,87.3,-87.3,75.6,-39.6,136.2,-115.5,-3112.2,238.2,-49.5,161.1,143.7,-35.4,-24.3,-251.4,-6.3,-4.2,85.8,-91.8,-1.8,141.9,-12.3,133.2,0,2556,0,36,0,
1.4233,-29.1,58.2,81.3,-88.5,73.8,-43.2,133.2,-116.1,-3112.2,235.2,-55.8,160.5,130.8,-30.9,-24.9,-249.6,-6.3,-4.2,81.9,-95.1,-1.5,140.1,-6.9,132.0,0,2562,0,37,0,
1.4267,-32.7,58.2,84.3,-86.1,75.6,-45.6,135.9,-117.6,-2964.0,229.2,-54.0,161.1,128.1,-35.7,-27.9,-240.0,-6.0,-4.5,84.9,-93.3,-1.8,143.4,-2.4,144.0,0,2568,0,38,0,
1.4300,-33.3,52.8,84.3,-92.4,69.9,-50.7,134.4,-122.1,-2964.0,224.7,-57.9,155.1,126.6,-31.8,-15.6,-240.9,-6.0,-4.5,78.6,-98.4,-1.5,132.3,-14.4,134.4,0,2574,0,39,0,
1.4333,-30.0,57.0,84.6,-90.3,72.9,-48.6,135.3,-121.5,-3038.1,234.6,-54.0,156.3,131.1,-25.8,-10.8,-246.0,-6.3,-4.8,80.4,-102.0,-1.8,132.9,-6.3,131.7,0,2580,0,40,0,
1.4367,-29.7,51.9,78.3,-95.1,64.8,-57.0,131.1,-125.1,-3186.3,218.4,-63.3,149.7,128.7,-27.6,3.3,-244.5,-6.0,-4.2,75.9,-104.7,-1.5,121.5,-8.7,122.1,0,2586,0,41,0,
1.4400,-27.6,55.5,82.2,-87.0,72.0,-49.8,133.8,-119.7,-3038.1,229.5,-59.4,155.1,130.5,-34.8,-27.3,-249.3,-6.3,-4.8,78.0,-97.2,-1.5,134.7,-7.2,129.6,0,2592,0,42,0,
1.4433,-26.7,57.9,80.4,-87.3,74.1,-46.8,130.5,-122.7,-2889.9,229.5,-56.1,154.5,134.4,-37.5,-39.3,-251.1,-6.0,-4.5,81.9,-93.9,-2.1,144.6,-12.6,132.3,0,2598,0,43,0,
1.4467,-28.2,59.7,79.2,-89.7,72.9,-50.1,125.7,-124.2,-2964.0,224.1,-54.3,148.8,124.5,-31.5,-24.0,-258.9,-6.3,-4.5,81.3,-101.1,-1.8,138.0,-25.5,129.9,0,2604,0,44,0,
1.4500,-32.4,48.9,66.9,-104.4,60.3,-57.0,124.8,-132.3,-3038.1,218.1,-66.0,139.8,112.8,-34.8,-16.8,-250.5,-6.0,-4.2,69.0,-113.1,-1.8,122.1,-20.1,117.3,0,2610,0,45,0,
1.4533,-30.9,49.2,73.2,-99.9,62.4,-55.5,125.1,-131.7,-3112.2,216.9,-61.5,144.0,127.2,-37.2,-35.1,-255.3,-6.0,-4.5,69.0,-108.6,-1.5,118.8,-20.7,120.0,0,2616,0,46,0,
1.4567,-35.4,47.7,73.5,-103.2,63.6,-51.9,126.9,-133.5,-2964.0,219.9,-62.4,144.6,123.9,-37.8,-33.3,-255.9,-5.7,-4.5,70.5,-105.0,-1.5,126.9,-16.8,123.6,0,2622,0,47,0,
1.4600,-33.6,45.9,72.0,-105.3,61.8,-55.8,126.9,-131.1,-3038.1,219.3,-65.4,138.3,117.3,-38.1,-23.4,-249.0,-6.0,-4.8,69.0,-106.2,-1.8,124.2,-16.8,123.3,0,2628,0,48,0,
1.4633,-35.1,44.4,70.5,-106.2,56.4,-59.7,126.9,-136.5,-3038.1,213.3,-70.8,139.2,117.3,-36.0,-12.6,-244.8,-6.3,-4.2,66.0,-114.6,-1.8,116.4,-19.2,114.9,0,2634,0,49,0,
1.4667,-36.3,42.6,72.6,-104.7,55.8,-61.2,120.9,-138.9,-3112.2,212.7,-68.7,141.3,119.7,-38.4,-9.9,-243.3,-6.3,-4.5,64.8,-112.8,-1.8,118.2,-16.8,114.0,0,2640,0,50,0,
1.4700,-28.8,52.8,75.6,-99.3,62.7,-55.2,124.8,-131.4,-3186.3,217.2,-64.2,146.1,124.5,-30.6,-8.7,-250.2,-6.0,-4.5,69.0,-107.7,-1.8,119.1,-21.0,119.1,0,2646,0,51,0,
1.4733,-29.7,48.6,73.2,-104.7,57.6,-57.3,125.7,-130.2,-3112.2,215.1,-73.2,138.3,124.5,-35.4,-17.7,-245.1,-6.3,-4.5,62.4,-113.4,-1.8,115.2,-21.6,113.1,0,2652,0,52,0,
1.4767,-30.6,49.5,74.7,-101.4,57.9,-60.0,123.0,-129.9,-3038.1,215.4,-70.2,141.6,123.9,-36.0,-20.7,-253.5,-6.0,-4.5,65.1,-112.2,-1.8,118.5,-28.2,105.3,0,2658,0,53,0,
1.4800,-30.3,49.2,72.6,-104.4,55.2,-62.1,125.1,-131.4,-2964.0,213.9,-68.4,139.8,121.5,-42.3,-34.5,-255.3,-6.3,-4.2,67.8,-118.2,-1.8,117.0,-26.1,115.2,0,2664,0,54,0,
1.4833,-27.3,51.6,69.3,-104.1,60.0,-58.2,129.6,-125.7,-3038.1,216.6,-68.1,141.0,124.8,-33.0,-19.2,-246.3,-5.7,-4.2,66.3,-113.1,-2.1,120.0,-25.8,128.1,0,2670,0,55,0,
1.4867,-29.1,51.9,69.0,-108.0,54.6,-59.4,126.0,-129.0,-2964.0,220.5,-74.1,134.1,131.1,-38.4,-21.9,-254.4,-6.6,-4.5,60.9,-119.7,-2.1,115.2,-21.9,121.2,0,2676,0,56,0,
1.4900,-29.1,51.6,69.9,-102.6,59.7,-58.8,127.5,-125.1,-3112.2,220.8,-71.7,135.0,128.1,-36.9,-30.0,-251.4,-6.0,-4.5,63.3,-111.6,-1.8,116.4,-18.6,113.1,0,2682,0,57,0,
1.4933,-27.6,51.9,69.3,-101.1,61.5,-54.0,129.0,-119.4,-2964.0,212.1,-77.7,134.7,113.7,-36.9,-28.8,-246.6,-6.3,-4.2,56.1,-117.3,-1.8,115.5,-15.3,116.4,0,2688,0,58,0,
1.4967,-33.6,42.0,62.4,-106.8,55.2,-56.1,126.9,-125.7,-3038.1,205.2,-90.9,121.2,107.7,-37.8,-24.3,-247.8,-6.0,-4.5,45.9,-122.7,-2.1,110.1,-20.4,115.8,0,2694,0,59,0,
1.5000,-29.7,45.9,65.4,-102.9,58.2,-53.7,126.9,-123.0,-2964.0,214.2,-83.7,130.2,118.8,-36.9,-23.7,-243.6,-6.6,-4.5,53.1,-117.0,-1.5,117.3,-13.5,130.2,0,2700,0,60,0,
1.5033,-31.5,51.0,75.3,-97.2,67.5,-51.9,127.5,-118.2,-3038.1,220.2,-63.9,145.8,127.8,-37.5,-25.2,-254.1,-6.0,-4.5,69.3,-104.1,-2.1,124.2,-20.1,127.2,0,2706,0,61,0,
1.5067,-30.0,57.3,80.4,-93.6,65.1,-52.2,131.7,-117.6,-3038.1,230.4,-60.0,145.2,132.3,-44.4,-36.9,-251.1,-6.3,-4.2,76.2,-106.5,-1.8,115.5,-5.7,126.0,0,2712,0,62,0,
1.5100,-29.4,51.9,76.2,-96.0,65.7,-55.8,129.6,-119.1,-3038.1,212.7,-66.0,140.1,122.4,-36.0,-21.9,-248.1,-6.3,-4.5,64.8,-109.2,-1.8,114.0,-13.5,124.8,0,2718,0,63,0,
1.5133,-31.5,51.0,74.7,-101.7,61.5,-55.5,127.2,-119.4,-2964.0,205.2,-74.1,136.8,119.4,-30.0,-11.7,-246.9,-6.0,-4.5,64.8,-116.7,-2.1,105.0,-12.9,115.8,0,2724,0,64,0,
1.5167,-27.9,50.4,73.8,-101.1,62.4,-57.6,126.9,-118.5,-2964.0,207.0,-70.5,136.2,122.4,-28.5,-6.3,-250.5,-6.3,-4.8,63.3,-114.3,-1.8,105.0,-20.1,114.6,0,2730,0,65,0,
1.5200,-28.8,48.6,68.7,-103.5,61.2,-56.7,128.1,-119.7,-3038.1,200.4,-77.7,137.1,118.2,-32.4,-17.1,-248.7,-6.3,-4.5,55.8,-113.4,-1.8,111.6,-23.1,116.1,0,2736,0,66,0,
1.5233,-27.6,50.4,72.3,-96.9,64.8,-54.6,127.8,-119.1,-3038.1,213.9,-65.1,146.4,122.7,-40.2,-36.9,-248.4,-6.0,-4.8,67.2,-105.6,-1.8,112.8,-14.1,119.7,0,2742,0,67,0,
1.5267,-32.7,52.8,75.3,-97.5,62.7,-57.0,126.6,-118.5,-2964.0,210.3,-69.3,142.8,127.2,-39.6,-36.6,-256.8,-6.0,-4.2,68.1,-110.7,-1.8,119.1,-19.5,115.5,0,2748,0,68,0,
1.5300,-29.4,45.9,65.1,-103.5,50.7,-61.8,123.3,-126.3,-2889.9,204.0,-78.6,129.9,113.4,-44.1,-18.3,-237.3,-6.0,-4.8,54.3,-122.4,-1.8,110.7,-15.0,109.5,0,2754,0,69,0,
1.5333,-26.1,46.5,66.9,-103.2,51.9,-65.4,120.6,-123.3,-3038.1,201.6,-76.8,126.9,114.3,-34.5,-3.9,-249.0,-6.0,-4.2,51.9,-118.8,-1.8,105.0,-21.0,108.6,0,2760,0,70,0,
1.5367,-29.7,49.5,75.9,-99.0,59.4,-57.9,119.1,-120.6,-3038.1,214.8,-71.1,136.5,113.7,-41.4,-34.8,-258.0,-6.3,-4.8,61.2,-114.6,-1.8,115.2,-28.8,112.5,0,2766,0,71,0,
1.5400,-27.9,54.0,75.6,-96.3,60.9,-56.1,123.3,-118.2,-3112.2,216.6,-73.2,134.4,115.5,-40.8,-29.1,-260.1,-6.6,-3.6,63.9,-111.9,-1.8,123.0,-26.4,112.8,0,2772,0,72,0,
1.5433,-30.3,44.1,69.6,-104.4,57.9,-61.5,122.7,-122.4,-3038.1,205.2,-73.5,131.4,113.4,-40.5,-17.7,-248.1,-6.3,-4.2,58.5,-116.4,-1.8,111.3,-18.6,106.8,0,2778,0,73,0,
1.5467,-32.7,43.5,68.7,-103.5,57.6,-62.1,123.3,-124.8,-2964.0,202.5,-80.7,134.4,114.9,-41.4,-18.9,-243.6,-6.0,-4.5,55.2,-116.4,-1.8,118.2,-25.5,108.9,0,2784,0,74,0,
1.5500,-30.3,46.2,69.6,-102.0,58.2,-58.2,126.3,-122.1,-3038.1,206.4,-76.8,138.0,112.8,-45.3,-32.1,-236.4,-6.3,-4.5,57.3,-116.7,-1.8,111.0,-15.9,117.6,0,2790,0,75,0,
1.5533,-26.7,51.6,76.2,-96.3,64.8,-54.3,127.2,-118.2,-3186.3,213.9,-72.9,136.5,120.9,-42.6,-36.9,-244.2,-5.7,-4.2,60.3,-114.9,-1.5,114.6,-12.6,117.0,0,2796,0,76,0,
1.5567,-24.0,53.4,75.9,-95.1,69.3,-51.9,125.4,-114.6,-3112.2,211.5,-65.4,138.6,121.2,-38.4,-35.7,-257.1,-6.0,-4.8,62.1,-116.7,-2.1,115.2,-18.6,113.1,0,2802,0,77,0,
1.5600,-30.6,47.4,70.2,-103.5,60.9,-56.1,122.4,-118.8,-3038.1,209.1,-73.8,134.7,121.8,-39.0,-27.0,-254.1,-5.7,-4.5,59.1,-116.4,-1.8,119.4,-22.8,111.3,0,2808,0,78,0,
1.5633,-31.8,47.7,66.6,-104.7,57.6,-60.9,122.4,-118.5,-3038.1,202.8,-77.7,133.5,120.9,-37.5,-29.1,-253.8,-6.0,-4.5,54.6,-120.0,-1.8,109.8,-24.9,111.6,0,2814,0,79,0,
1.5667,-33.0,43.2,63.9,-111.6,51.3,-62.4,121.5,-120.9,-3112.2,204.9,-81.9,129.0,114.3,-37.2,-18.6,-245.7,-6.0,-4.5,49.8,-117.6,-1.5,106.2,-22.8,112.2,0,2820,0,80,0,
1.5700,-28.8,45.0,67.5,-108.3,54.9,-60.3,127.2,-120.3,-3112.2,201.0,-80.1,137.4,110.4,-39.6,-29.1,-252.0,-6.0,-4.5,54.0,-109.5,-2.4,109.5,-12.9,117.0,0,2826,0,81,0,
1.5733,-31.2,50.7,72.6,-102.9,57.9,-59.7,130.2,-120.0,-3038.1,216.0,-74.4,138.3,123.9,-47.7,-52.2,-251.7,-6.0,-4.5,59.4,-107.4,-1.8,119.4,-6.3,115.2,0,2832,0,82,0,
1.5767,-28.8,54.3,73.5,-101.7,62.4,-58.2,129.0,-119.4,-3038.1,205.5,-76.5,142.2,116.7,-39.0,-38.1,-254.7,-5.7,-4.2,61.5,-109.8,-1.8,114.6,-11.7,111.9,0,2838,0,83,0,
1.5800,-28.8,53.1,74.1,-102.3,58.8,-60.3,128.1,-120.9,-2964.0,208.2,-80.7,140.4,112.2,-33.3,-22.2,-248.4,-6.6,-4.5,58.2,-109.8,-1.5,107.4,-13.2,109.8,0,2844,0,84,0,
1.5833,-27.9,59.1,80.7,-90.9,71.7,-50.7,131.7,-111.0,-3038.1,210.0,-64.8,150.6,113.7,-38.7,-46.2,-260.7,-6.3,-4.2,66.3,-102.9,-1.8,122.4,-22.2,121.5,0,2850,0,85,0,
1.5867,-26.7,54.0,70.2,-99.0,62.4,-59.4,131.4,-117.9,-3112.2,203.7,-71.4,138.3,115.8,-39.3,-28.5,-241.8,-6.0,-4.5,57.9,-113.7,-1.8,108.3,-17.1,107.1,0,2856,0,86,0,
1.5900,-27.9,51.3,67.2,-100.2,57.9,-61.2,124.5,-118.2,-3186.3,205.2,-73.5,136.8,126.6,-33.6,-18.9,-254.1,-6.0,-4.5,56.7,-117.0,-1.8,103.2,-26.7,107.4,0,2862,0,87,0,
1.5933,-26.1,56.7,76.2,-92.1,64.8,-53.1,130.5,-112.2,-3112.2,210.0,-71.1,143.1,121.5,-44.1,-36.3,-252.6,-6.0,-4.8,62.1,-107.4,-2.1,114.0,-16.2,114.3,0,2868,0,88,0,
1.5967,-27.3,53.7,75.3,-94.2,66.0,-51.0,131.7,-115.2,-3112.2,208.8,-72.6,138.9,121.8,-53.1,-39.3,-244.8,-6.3,-4.5,57.3,-112.5,-1.8,108.9,-18.6,108.9,0,2874,0,89,0,
1.6000,-32.7,44.1,67.8,-105.6,61.2,-55.5,128.4,-120.6,-3038.1,193.8,-86.7,126.0,105.9,-40.5,-37.5,-247.5,-6.0,-4.5,43.8,-117.6,-1.8,104.4,-17.4,100.2,0,2880,0,90,0,
1.6033,-30.3,47.1,74.1,-101.1,61.5,-54.6,128.4,-113.7,-3186.3,196.5,-80.1,127.8,109.2,-40.2,-36.3,-252.6,-5.7,-4.5,51.6,-117.9,-1.8,99.0,-17.4,112.8,0,2886,0,91,0,
1.6067,-29.4,48.6,69.6,-102.6,63.9,-54.6,123.6,-115.8,-3112.2,201.6,-78.3,133.2,110.4,-40.2,-33.0,-254.7,-6.0,-4.2,55.5,-119.4,-1.8,107.1,-20.1,110.7,0,2892,0,92,0,
1.6100,-27.0,51.0,71.7,-99.9,67.2,-57.0,125.1,-114.3,-3260.4,206.1,-78.9,137.4,112.2,-41.4,-30.3,-257.1,-6.3,-4.8,54.3,-115.2,-1.8,109.5,-18.6,108.3,0,2898,0,93,0,
1.6133,-29.4,47.1,69.9,-102.6,60.9,-57.9,124.8,-120.6,-3038.1,204.6,-76.8,134.7,112.5,-40.8,-24.3,-255.0,-6.3,-4.2,55.8,-115.8,-1.8,108.3,-18.3,109.8,0,2904,0,94,0,
1.6167,-31.2,48.0,67.5,-105.9,61.8,-59.7,125.1,-123.0,-3038.1,198.6,-75.9,136.8,108.6,-37.5,-16.2,-248.4,-6.0,-4.5,58.2,-117.3,-1.8,96.0,-16.8,108.9,0,2910,0,95,0,
1.6200,-27.9,44.4,67.5,-105.0,61.5,-62.1,125.1,-121.2,-3186.3,202.8,-82.2,131.4,111.6,-34.2,-7.5,-253.8,-6.0,-4.2,55.8,-117.3,-1.8,100.5,-25.5,104.1,0,2916,0,96,0,
1.6233,-26.4,50.7,74.1,-93.9,64.5,-51.0,123.6,-115.8,-3260.4,212.1,-71.4,135.6,124.2,-41.1,-16.8,-262.2,-5.7,-4.8,62.1,-109.5,-1.8,114.3,-34.2,110.7,0,2922,0,97,0,
1.6267,-28.5,52.8,72.6,-97.5,64.2,-54.0,126.9,-118.2,-3112.2,208.5,-76.5,126.3,123.6,-44.4,-30.6,-245.7,-6.6,-4.8,54.9,-117.0,-1.8,109.2,-21.9,108.9,0,2928,0,98,0,
1.6300,-32.4,46.8,69.9,-102.6,61.5,-58.8,126.3,-119.7,-3038.1,198.3,-78.3,126.0,108.0,-43.8,-36.6,-245.1,-6.3,-4.5,51.9,-122.4,-2.1,104.7,-22.5,115.5,0,2934,0,99,0,
1.6333,-30.3,45.3,70.2,-100.2,63.6,-60.9,129.0,-119.4,-3112.2,206.1,-76.8,125.4,106.8,-38.7,-39.6,-252.0,-6.3,-4.5,57.9,-119.7,-1.8,114.3,-21.0,117.3,0,2940,0,100,0,
1.6367,-30.3,43.2,69.6,-102.9,62.1,-60.6,129.0,-118.8,-3112.2,210.3,-75.6,130.2,119.4,-36.3,-27.6,-247.8,-6.0,-4.8,57.9,-118.2,-1.5,111.3,-15.3,117.3,0,2946,0,101,0,
1.6400,-25.2,48.9,73.2,-99.9,62.1,-57.6,131.4,-117.0,-3260.4,204.0,-69.0,138.0,122.4,-31.8,-13.5,-242.7,-6.3,-4.8,62.4,-118.8,-1.8,107.7,-15.3,125.1,0,2952,0,102,0,
1.6433,-32.7,47.4,73.5,-97.2,63.9,-63.0,127.2,-117.9,-3112.2,208.2,-69.6,140.4,118.5,-45.3,-39.0,-249.6,-6.3,-4.2,63.6,-121.8,-1.8,108.6,-12.6,112.8,0,2958,0,103,0,
1.6467,-29.7,46.5,71.4,-99.3,62.7,-62.4,126.3,-118.5,-3112.2,208.2,-75.0,136.2,114.3,-42.6,-42.9,-248.4,-6.0,-4.5,60.0,-129.6,-1.5,111.9,-16.2,115.8,0,2964,0,104,0,
1.6500,-33.9,43.8,69.9,-99.6,61.2,-68.4,122.4,-119.4,-3112.2,201.9,-77.7,124.5,115.5,-45.0,-29.1,-238.5,-6.3,-4.8,57.3,-122.7,-2.1,99.0,-17.1,109.2,0,2970,0,105,0,
1.6533,-26.1,57.0,81.6,-86.7,69.6,-55.2,129.6,-112.2,-3186.3,212.1,-65.1,141.6,125.1,-32.4,-23.7,-255.6,-6.0,-4.8,69.0,-106.2,-1.5,115.5,-14.4,117.9,0,2976,0,106,0,
1.6567,-33.9,48.0,74.1,-95.1,63.9,-60.3,124.8,-121.2,-3186.3,200.7,-78.3,124.2,114.0,-39.9,-19.2,-253.2,-6.0,-4.2,58.8,-118.2,-1.8,100.5,-18.3,108.3,0,2982,0,107,0,
1.6600,-29.1,52.2,81.9,-88.2,72.0,-52.5,129.0,-113.4,-3112.2,215.1,-65.1,133.5,118.5,-39.9,-32.4,-258.0,-6.0,-4.8,71.7,-114.3,-1.8,118.2,-13.8,120.9,0,2988,0,108,0,
1.6633,-27.9,53.1,81.3,-91.8,70.5,-57.3,128.7,-119.4,-3112.2,213.9,-71.4,130.2,124.5,-45.9,-42.6,-258.0,-6.0,-4.5,68.4,-115.5,-1.8,111.0,-17.1,120.9,0,2994,0,109,0,
1.6667,-27.0,50.7,75.3,-93.0,68.7,-52.8,131.1,-116.1,-3038.1,208.8,-76.2,136.8,124.8,-46.2,-32.7,-250.5,-6.0,-4.5,57.3,-111.9,-2.1,115.2,-12.6,125.4,0,3000,0,110,0,
1.6700,-27.3,49.5,72.9,-95.4,63.0,-55.2,126.9,-118.2,-3112.2,206.1,-79.2,137.1,119.1,-42.0,-25.2,-250.8,-6.0,-4.5,55.5,-113.7,-1.8,108.3,-17.1,112.5,0,3006,0,111,0,
1.6733,-30.6,51.6,75.9,-91.8,65.7,-56.4,124.2,-115.5,-3186.3,208.8,-72.9,138.3,122.1,-52.5,-34.5,-262.8,-6.3,-4.2,60.3,-117.3,-1.8,109.2,-20.1,108.9,0,3012,0,112,0,
1.6767,-30.0,49.5,71.4,-95.7,64.8,-54.0,123.0,-117.9,-3112.2,205.5,-75.0,132.6,110.1,-54.3,-35.7,-260.1,-6.0,-4.5,59.7,-114.9,-2.1,105.3,-19.8,111.6,0,3018,0,113,0,
1.6800,-30.3,53.7,72.3,-91.5,63.0,-54.0,128.1,-114.3,-3038.1,204.0,-75.6,139.5,120.0,-56.4,-39.6,-265.2,-6.3,-4.2,57.3,-111.3,-1.8,108.3,-21.9,118.5,0,3024,0,114,0,
1.6833,-32.1,52.2,68.4,-96.9,62.4,-58.5,126.3,-117.6,-3112.2,207.9,-77.4,128.4,125.4,-55.2,-35.4,-264.3,-6.6,-4.8,56.7,-115.2,-1.8,110.7,-24.0,118.2,0,3030,0,115,0,
1.6867,-31.8,49.5,68.1,-100.8,59.1,-63.6,120.6,-119.1,-3186.3,200.1,-79.2,129.6,113.4,-43.2,-37.8,-264.3,-6.3,-4.2,56.7,-119.4,-1.8,102.0,-20.4,105.0,0,3036,0,116,0,
1.6900,-32.1,46.5,65.7,-97.2,56.4,-63.6,118.5,-120.9,-3260.4,198.3,-81.0,127.2,113.7,-44.4,-27.0,-258.6,-5.7,-4.8,57.3,-119.4,-2.1,100.5,-33.6,111.9,0,3042,0,117,0,
1.6933,-30.6,46.2,68.4,-98.7,53.7,-66.9,117.0,-122.7,-3038.1,199.8,-81.0,120.6,113.7,-39.3,-32.4,-270.9,-6.3,-4.5,58.2,-126.0,-1.5,102.6,-31.8,107.7,0,3048,0,118,0,
1.6967,-31.8,45.9,68.4,-97.5,56.4,-62.1,119.7,-120.9,-2964.0,204.0,-75.3,127.2,114.0,-44.1,-27.9,-261.9,-6.0,-4.5,57.6,-123.0,-1.8,99.6,-19.8,106.8,0,3054,0,119,0,
1.7000,-30.3,46.2,69.0,-101.4,54.6,-62.7,120.0,-121.5,-2964.0,202.2,-77.4,125.4,113.1,-48.6,-30.6,-252.0,-6.3,-4.5,56.7,-126.6,-1.8,101.1,-19.5,107.7,0,3060,0,120,0,
1.7033,-24.9,51.0,76.8,-96.6,58.8,-62.1,122.7,-118.5,-3112.2,206.4,-73.8,130.5,120.9,-39.0,-25.8,-252.6,-6.3,-4.5,62.7,-120.0,-1.8,105.6,-22.5,108.0,0,3066,0,121,0,
1.7067,-28.5,52.5,72.6,-101.4,52.2,-65.7,118.5,-121.5,-3186.3,202.2,-81.9,124.8,110.7,-38.1,-17.4,-257.1,-6.6,-4.2,54.3,-125.1,-1.8,104.1,-28.2,103.8,0,3072,0,122,0,
1.7100,-30.6,45.9,71.1,-100.8,54.0,-67.5,114.9,-128.7,-3112.2,200.4,-80.7,125.7,107.4,-38.1,-23.7,-256.5,-6.0,-4.5,55.5,-124.5,-2.1,99.3,-29.4,106.2,0,3078,0,123,0,
1.7133,-29.1,47.7,69.0,-100.5,52.5,-69.3,117.6,-127.8,-3038.1,204.6,-78.0,124.5,106.8,-48.0,-26.4,-250.2,-6.0,-4.2,61.5,-120.9,-2.1,104.7,-25.8,110.4,0,3084,0,124,0,
1.7167,-28.2,48.6,70.5,-96.0,55.5,-65.7,117.6,-127.8,-3038.1,207.0,-73.5,122.7,114.0,-41.7,-30.3,-245.7,-6.3,-4.5,59.1,-125.7,-1.8,105.3,-31.5,109.5,0,3090,0,125,0,
1.7200,-27.6,54.6,77.1,-91.8,59.1,-63.3,118.8,-120.6,-3186.3,219.0,-70.2,129.6,117.3,-42.3,-45.3,-270.0,-6.0,-4.5,63.9,-117.0,-1.8,114.9,-29.4,108.3,0,3096,0,126,0,
1.7233,-26.1,52.8,72.6,-96.0,58.5,-63.3,115.8,-123.0,-3112.2,210.3,-72.9,125.4,115.2,-37.2,-36.6,-264.3,-6.3,-4.8,62.7,-123.6,-2.1,109.5,-29.4,114.0,0,3102,0,127,0,
1.7267,-24.0,49.5,66.9,-99.0,53.1,-63.3,123.3,-125.1,-3038.1,207.6,-77.1,123.3,105.9,-31.8,-12.3,-245.7,-6.3,-4.5,52.5,-126.6,-1.8,98.1,-24.9,109.8,0,3108,0,128,0,
1.7300,-24.0,56.1,72.9,-94.8,56.4,-64.8,125.4,-124.5,-2964.0,211.5,-76.5,124.8,107.7,-36.3,-22.5,-245.4,-6.0,-4.8,55.8,-122.7,-1.8,102.3,-18.6,109.2,0,3114,0,129,0,
1.7333,-24.0,55.2,72.3,-96.3,54.0,-66.3,119.7,-126.0,-2964.0,207.6,-80.1,123.3,113.1,-30.0,-30.0,-262.5,-6.0,-4.8,57.0,-127.2,-2.1,101.1,-26.1,111.0,0,3120,0,130,0,
1.7367,-20.1,56.4,73.8,-92.7,56.4,-61.5,123.3,-123.9,-3186.3,207.0,-72.9,128.1,119.7,-32.7,-32.7,-255.9,-6.0,-4.8,60.3,-122.4,-2.1,105.6,-28.2,117.9,0,3126,0,131,0,
1.7400,-19.5,54.9,77.1,-91.2,58.8,-60.9,122.7,-123.9,-3112.2,216.6,-70.5,132.3,122.1,-35.4,-39.0,-261.0,-6.3,-4.5,63.3,-123.0,-1.8,103.5,-22.5,114.6,0,3132,0,132,0,
1.7433,-26.1,51.0,68.7,-98.1,53.7,-67.8,121.8,-121.8,-2889.9,210.9,-75.6,124.2,119.1,-50.4,-42.3,-263.4,-6.3,-4.5,56.1,-127.5,-1.8,101.4,-28.2,105.6,0,3138,0,133,0,
1.7467,-27.3,39.0,61.2,-104.7,47.7,-71.4,118.2,-124.2,-2889.9,197.1,-79.8,116.7,102.0,-48.3,-29.1,-258.6,-6.0,-4.2,50.4,-130.5,-1.8,101.1,-34.2,106.2,0,3144,0,134,0,
1.7500,-29.4,39.9,58.2,-101.4,50.7,-71.4,119.4,-123.3,-3038.1,195.6,-81.9,118.8,97.5,-41.4,-33.6,-255.3,-6.0,-4.5,49.8,-130.5,-1.5,102.9,-35.4,104.7,0,3150,0,135,0,
1.7533,-27.3,40.8,59.7,-106.8,46.8,-70.5,119.4,-123.0,-3112.2,197.4,-90.0,109.2,102.3,-41.7,-28.2,-248.7,-6.6,-4.8,42.6,-142.2,-1.8,90.3,-28.8,102.3,0,3156,0,136,0,
1.7567,-30.3,43.5,61.2,-103.8,46.8,-72.3,117.6,-121.2,-2964.0,193.2,-87.0,111.3,97.2,-39.9,-31.8,-255.6,-6.3,-4.2,51.9,-135.0,-1.8,88.8,-32.4,99.0,0,3162,0,137,0,
1.7600,-27.9,44.7,66.9,-96.3,56.4,-65.7,118.2,-120.0,-2889.9,199.8,-80.4,120.0,104.7,-45.9,-34.2,-253.2,-6.6,-4.5,53.1,-127.5,-2.1,96.3,-29.7,106.8,0,3168,0,138,0,
1.7633,-30.9,44.1,68.1,-93.0,51.3,-67.8,118.2,-117.6,-2741.7,205.8,-80.7,122.7,104.4,-54.3,-45.6,-258.0,-6.0,-4.5,56.7,-130.8,-1.8,95.1,-31.5,102.0,0,3174,0,139,0,
1.7667,-29.7,48.9,71.4,-93.3,54.3,-63.9,122.1,-116.4,-2889.9,204.0,-84.3,125.4,108.3,-51.3,-41.4,-264.0,-6.6,-4.5,54.0,-125.1,-1.5,98.1,-29.1,109.2,0,3180,0,140,0,
1.7700,-28.8,43.8,63.9,-99.3,50.4,-65.4,122.4,-118.5,-2964.0,195.3,-80.7,127.5,98.1,-44.4,-28.8,-257.4,-6.3,-4.5,53.1,-127.2,-1.5,95.4,-33.9,109.5,0,3186,0,141,0,
1.7733,-30.0,44.4,63.6,-99.6,48.0,-67.2,118.2,-119.7,-2889.9,198.6,-82.5,120.9,96.9,-49.2,-33.6,-265.5,-6.3,-4.8,50.7,-127.2,-2.1,96.6,-34.2,108.9,0,3192,0,142,0,
1.7767,-27.3,43.5,60.9,-101.1,48.9,-63.0,119.7,-116.1,-2889.9,201.3,-77.1,120.6,98.4,-45.9,-42.6,-268.2,-6.0,-4.5,52.8,-124.2,-2.1,103.8,-34.2,114.0,0,3198,0,143,0,
1.7800,-29.4,43.2,56.7,-108.3,46.8,-68.1,119.1,-124.5,-2815.8,200.7,-84.6,111.3,100.5,-45.6,-27.3,-259.5,-6.3,-4.5,44.7,-128.7,-1.8,96.0,-31.2,101.4,0,3204,0,144,0,
1.7833,-31.5,40.8,53.7,-110.7,41.1,-69.3,117.6,-127.5,-2815.8,193.8,-89.1,112.5,96.6,-48.3,-34.8,-263.7,-6.3,-4.5,45.6,-135.6,-1.8,95.4,-36.9,99.3,0,3210,0,145,0,
1.7867,-29.1,39.6,57.3,-108.0,46.2,-63.9,117.6,-126.9,-2889.9,195.0,-89.4,110.1,96.0,-50.7,-36.0,-257.7,-6.3,-4.5,44.7,-139.5,-2.1,98.4,-33.0,106.2,0,3216,0,146,0,
1.7900,-33.9,39.3,57.6,-109.8,50.1,-66.6,118.8,-125.4,-2889.9,200.1,-93.6,117.9,99.3,-49.8,-39.0,-253.5,-6.3,-4.5,44.4,-131.4,-1.8,101.4,-33.9,107.4,0,3222,0,147,0,
1.7933,-29.1,43.2,56.1,-109.5,46.2,-66.9,118.2,-122.1,-2889.9,204.3,-91.5,121.8,102.3,-45.6,-38.7,-256.2,-6.6,-4.5,47.7,-129.9,-1.8,102.3,-33.3,111.0,0,3228,0,148,0,
1.7967,-28.5,41.4,54.9,-112.8,41.4,-68.7,116.7,-128.4,-2593.5,199.8,-90.0,120.3,98.1,-41.1,-22.8,-259.2,-6.3,-4.8,45.6,-132.3,-2.1,100.8,-36.6,102.3,0,3234,0,149,0,
1.8000,-25.5,44.7,57.0,-110.1,45.3,-66.3,117.0,-128.7,-2667.6,200.4,-84.6,125.7,99.6,-38.1,-21.6,-253.2,-6.0,-4.5,49.5,-127.2,-1.8,106.2,-36.3,110.7,0,3240,0,150,0,
1.8033,-30.3,41.4,54.6,-110.1,40.8,-69.9,118.5,-129.3,-2815.8,199.2,-86.1,117.9,102.0,-44.7,-27.9,-243.0,-6.0,-4.5,49.5,-129.3,-1.8,103.2,-27.3,112.5,0,3246,0,151,0,
1.8067,-29.7,39.6,60.0,-108.9,46.8,-63.6,117.9,-128.1,-2741.7,201.6,-82.8,118.5,102.3,-51.0,-23.4,-255.0,-6.0,-4.8,55.8,-126.3,-1.5,104.7,-27.3,118.8,0,3252,0,152,0,
1.8100,-27.3,42.3,62.7,-104.1,51.6,-63.0,118.5,-128.7,-2815.8,212.4,-75.6,122.4,109.2,-42.3,-28.2,-264.3,-6.0,-4.5,60.6,-125.1,-1.5,108.3,-23.4,111.3,0,3258,0,153,0,
1.8133,-27.0,45.6,63.6,-100.8,55.5,-57.0,121.5,-124.8,-2815.8,206.1,-69.3,132.3,105.3,-45.9,-35.4,-252.3,-6.0,-4.2,59.4,-123.9,-1.8,121.2,-18.9,119.7,0,3264,0,154,0,
1.8167,-25.8,44.1,57.9,-106.5,48.6,-63.3,117.9,-131.1,-2964.0,206.7,-78.0,123.6,103.8,-40.8,-23.1,-249.6,-6.6,-4.5,52.2,-129.3,-1.8,116.4,-19.5,112.2,0,3270,0,155,0,
1.8200,-19.8,51.0,66.9,-99.9,54.3,-62.7,120.3,-123.0,-2964.0,221.7,-69.9,135.3,117.9,-45.6,-26.7,-256.8,-6.3,-4.8,63.9,-118.5,-1.8,114.3,-19.2,114.6,0,3276,0,156,0,
1.8233,-23.4,48.0,63.9,-102.3,51.6,-65.4,120.6,-124.8,-3112.2,210.3,-78.0,128.1,113.1,-34.2,-31.5,-248.4,-6.6,-4.5,61.5,-126.0,-2.1,111.3,-19.5,108.3,0,3282,0,157,0,
1.8267,-23.1,50.7,65.4,-100.2,53.7,-64.5,118.2,-119.1,-3038.1,206.7,-75.0,129.6,107.4,-38.1,-37.2,-255.9,-6.3,-3.9,59.1,-120.3,-2.1,106.2,-22.8,108.6,0,3288,0,158,0,
1.8300,-22.8,51.9,68.7,-97.8,53.1,-63.3,119.4,-121.5,-2889.9,208.8,-73.8,127.5,107.4,-40.2,-45.0,-260.1,-6.0,-4.8,61.2,-119.4,-2.1,114.0,-24.0,109.5,0,3294,0,159,0,
1.8333,-25.5,44.1,57.3,-107.1,43.2,-70.8,116.1,-126.3,-3038.1,196.8,-85.5,114.6,101.7,-44.4,-30.9,-257.4,-6.6,-4.5,50.1,-130.8,-1.8,97.2,-31.8,96.0,0,3300,0,160,0,
1.8367,-27.3,44.1,53.7,-114.9,37.8,-74.1,113.1,-125.7,-3038.1,191.1,-84.3,115.2,108.9,-44.1,-32.4,-261.6,-6.0,-4.5,43.2,-135.6,-1.8,93.3,-29.4,93.6,0,3306,0,161,0,
1.8400,-25.2,47.1,59.4,-105.9,46.5,-71.4,114.3,-122.7,-3038.1,201.0,-78.3,124.5,108.9,-49.5,-45.9,-260.1,-6.0,-4.5,49.5,-129.0,-1.8,100.8,-25.5,100.2,0,3312,0,162,0,
1.8433,-22.5,51.3,63.6,-100.5,48.3,-64.5,114.9,-120.9,-3038.1,202.5,-74.4,123.9,108.9,-41.7,-43.2,-259.2,-6.0,-4.5,54.3,-126.9,-1.8,108.3,-23.4,107.1,0,3318,0,163,0,
1.8467,-21.3,50.7,67.5,-96.9,55.2,-61.5,114.9,-116.4,-2964.0,199.5,-74.4,123.0,110.4,-45.3,-43.2,-261.3,-6.3,-4.2,54.6,-123.9,-1.8,104.4,-23.1,100.5,0,3324,0,164,0,
1.8500,-21.6,49.8,64.2,-96.9,54.0,-60.3,120.0,-115.2,-2964.0,203.1,-75.3,117.9,106.8,-41.4,-33.3,-258.6,-6.0,-3.9,54.3,-124.2,-1.8,109.5,-27.0,105.9,0,3330,0,165,0,
1.8533,-22.2,46.2,62.4,-105.3,48.9,-69.6,115.5,-117.0,-3038.1,201.3,-78.9,122.7,105.9,-34.2,-16.8,-258.0,-6.0,-4.5,52.2,-129.3,-1.8,103.2,-32.7,106.5,0,3336,0,166,0,
1.8567,-19.8,50.4,66.9,-99.3,53.7,-65.7,122.1,-112.8,-3038.1,209.1,-72.9,128.4,109.5,-39.0,-38.4,-258.3,-5.7,-4.5,55.2,-124.5,-2.1,108.3,-21.3,110.4,0,3342,0,167,0,
1.8600,-21.0,51.0,66.9,-102.0,48.6,-67.2,124.5,-114.6,-3038.1,206.1,-77.1,125.1,108.3,-41.7,-33.9,-252.9,-6.3,-4.8,55.5,-136.5,-1.5,101.7,-10.2,110.1,0,3348,0,168,0,
1.8633,-18.9,48.0,61.5,-102.0,44.1,-70.2,123.6,-118.2,-2889.9,200.1,-78.0,122.4,106.8,-36.3,-20.1,-242.7,-6.0,-4.5,55.2,-137.7,-2.1,106.2,-11.7,112.5,0,3354,0,169,0,
1.8667,-16.8,48.3,64.8,-98.4,51.3,-68.7,122.7,-113.4,-2889.9,207.6,-77.7,123.9,112.8,-28.2,-12.0,-253.5,-6.3,-4.2,59.1,-133.2,-1.5,101.7,-21.3,109.2,0,3360,0,170,0,
1.8700,-16.5,52.2,66.0,-96.6,52.5,-66.9,121.8,-113.7,-2889.9,208.5,-72.6,123.0,111.9,-28.2,-15.3,-257.7,-5.7,-4.5,64.2,-127.5,-1.8,106.5,-20.7,110.4,0,3366,0,171,0,
1.8733,-15.6,53.7,70.5,-95.1,51.6,-60.3,123.3,-110.1,-3038.1,210.9,-68.1,127.8,111.0,-33.9,-16.5,-250.5,-6.3,-4.2,66.6,-121.8,-1.5,113.4,-13.8,118.2,0,3372,0,172,0,
1.8767,-15.0,53.1,70.5,-93.0,52.8,-60.6,127.2,-111.0,-2815.8,213.3,-61.5,134.1,107.4,-38.7,-33.3,-252.0,-6.0,-4.2,64.8,-117.6,-1.8,119.4,-13.5,119.7,0,3378,0,173,0,
1.8800,-22.5,46.2,62.7,-100.8,46.2,-67.2,120.9,-118.5,-2741.7,208.5,-70.2,126.9,108.0,-38.4,-27.6,-250.2,-6.0,-4.2,58.2,-122.4,-1.5,109.2,-21.3,112.8,0,3384,0,174,0,
1.8833,-22.5,45.3,58.5,-99.9,48.3,-64.8,125.4,-117.0,-2741.7,201.0,-71.4,124.2,105.3,-40.5,-24.9,-249.0,-6.3,-4.5,59.7,-125.1,-1.8,108.0,-20.7,114.6,0,3390,0,175,0,
1.8867,-21.3,47.7,60.0,-99.9,47.7,-66.9,120.6,-116.1,-2964.0,202.5,-72.3,128.4,107.4,-31.5,-9.3,-251.4,-6.3,-4.5,60.0,-126.6,-1.8,104.4,-23.1,107.1,0,3396,0,176,0,
1.8900,-22.5,48.3,59.4,-102.0,47.7,-68.4,123.3,-114.3,-3038.1,195.3,-75.6,130.5,101.7,-33.0,-14.4,-256.8,-6.3,-4.8,50.1,-131.1,-1.8,102.9,-24.6,110.1,0,3402,0,177,0,
1.8933,-22.2,52.2,67.2,-94.8,54.0,-59.4,123.3,-111.9,-2889.9,202.8,-68.7,136.5,103.8,-46.2,-35.1,-260.7,-6.3,-4.8,57.9,-123.0,-1.8,113.7,-22.2,115.8,0,3408,0,178,0,
1.8967,-19.2,55.5,70.5,-93.0,55.8,-55.2,125.4,-109.5,-2889.9,212.7,-66.0,131.1,107.1,-45.9,-47.7,-258.6,-6.0,-5.1,67.8,-120.0,-1.5,115.5,-25.8,123.9,0,3414,0,179,0,
1.9000,-20.7,52.2,66.3,-96.3,52.8,-56.7,123.6,-114.9,-2889.9,205.8,-69.3,125.4,114.0,-45.3,-39.3,-254.1,-6.3,-4.5,59.4,-124.2,-1.8,110.4,-19.8,114.3,0,3420,0,180,0,
1.9033,-16.5,57.6,74.7,-91.8,60.0,-57.6,127.2,-108.9,-2964.0,201.0,-65.4,126.9,121.5,-39.3,-42.0,-264.9,-6.0,-4.8,67.2,-120.0,-1.5,106.5,-15.3,108.0,0,3426,0,181,0,
1.9067,-21.9,52.8,71.1,-93.3,56.7,-60.3,127.5,-112.8,-3038.1,208.8,-70.8,129.3,115.5,-53.4,-47.4,-260.1,-6.0,-4.8,63.6,-123.0,-1.8,104.4,-17.4,113.1,0,3432,0,182,0,
1.9100,-24.3,41.1,59.4,-103.2,48.9,-70.5,123.9,-119.1,-2964.0,192.0,-83.1,116.4,99.9,-44.4,-39.0,-259.2,-6.3,-4.8,50.1,-135.9,-1.8,95.1,-23.1,104.1,0,3438,0,183,0,
1.9133,-24.0,43.2,63.3,-99.0,51.0,-70.5,119.4,-117.0,-2815.8,195.9,-74.7,117.9,103.2,-41.7,-33.9,-266.4,-6.0,-4.2,53.7,-130.2,-1.8,104.7,-25.5,94.8,0,3444,0,184,0,
1.9167,-22.5,45.0,63.3,-98.4,51.3,-67.5,125.7,-115.2,-2964.0,202.5,-73.8,125.4,105.9,-50.1,-36.6,-268.5,-6.0,-4.2,56.1,-130.2,-1.8,101.7,-29.7,103.5,0,3450,0,185,0,
1.9200,-25.5,46.2,61.2,-99.9,48.3,-68.1,122.1,-119.7,-3038.1,197.4,-74.4,129.9,102.3,-43.2,-38.7,-269.1,-6.3,-4.2,49.2,-127.2,-1.8,96.6,-40.8,108.3,0,3456,0,186,0,
1.9233,-26.4,47.7,59.7,-105.3,44.7,-70.2,123.3,-117.6,-3186.3,189.6,-78.0,121.2,99.0,-47.1,-34.2,-264.0,-6.0,-4.5,46.8,-133.2,-1.8,97.8,-38.4,108.9,0,3462,0,187,0,
1.9267,-24.0,47.7,60.0,-101.4,46.5,-71.1,120.6,-115.5,-2889.9,193.2,-79.8,122.4,100.8,-42.3,-27.3,-260.7,-6.3,-4.2,47.7,-134.7,-1.8,91.2,-38.4,97.2,0,3468,0,188,0,
1.9300,-21.6,51.9,67.5,-96.9,54.3,-57.6,125.4,-113.1,-2889.9,201.0,-75.9,132.3,98.1,-47.4,-39.6,-258.6,-6.3,-4.5,53.7,-122.4,-1.8,106.2,-34.2,106.2,0,3474,0,189,0,
1.9333,-24.3,49.2,65.4,-96.6,53.7,-59.4,120.9,-117.3,-2964.0,198.6,-77.4,124.2,97.8,-43.2,-35.7,-270.0,-6.3,-4.2,48.9,-125.1,-1.8,106.2,-38.4,102.9,0,3480,0,190,0,
1.9367,-26.7,45.3,60.9,-102.3,49.5,-65.1,117.0,-119.4,-2964.0,193.2,-79.2,118.5,99.6,-44.1,-32.4,-268.5,-6.0,-4.5,48.6,-133.5,-1.8,94.5,-37.2,103.2,0,3486,0,191,0,
1.9400,-28.5,46.8,65.4,-100.8,48.0,-66.6,117.9,-120.0,-3038.1,200.4,-78.3,120.6,104.4,-47.1,-30.0,-271.2,-6.3,-4.2,51.9,-131.7,-1.8,96.9,-36.3,103.8,0,3492,0,192,0,
1.9433,-23.7,48.0,63.0,-103.2,46.2,-66.3,118.5,-118.2,-2964.0,194.1,-81.9,123.3,102.9,-44.1,-29.1,-262.8,-6.0,-4.5,50.4,-127.8,-2.1,103.5,-34.8,104.7,0,3498,0,193,0,
1.9467,-23.4,49.8,67.8,-98.1,52.5,-64.2,119.7,-117.3,-2889.9,201.6,-76.8,126.9,103.5,-48.6,-37.5,-258.6,-6.3,-4.5,50.4,-123.9,-1.8,106.8,-30.9,109.8,0,3504,0,194,0,
1.9500,-21.9,50.7,67.2,-97.8,51.6,-61.2,123.6,-116.7,-2889.9,202.8,-70.5,132.3,104.7,-48.0,-38.1,-258.9,-6.3,-4.5,55.2,-121.5,-1.8,107.4,-26.7,111.3,0,3510,0,195,0,
1.9533,-21.6,49.2,66.9,-102.6,52.8,-61.8,119.1,-118.8,-2889.9,194.7,-72.3,123.6,102.6,-46.5,-24.6,-253.5,-6.3,-3.9,49.2,-127.5,-1.8,97.8,-33.3,110.7,0,3516,0,196,0,
1.9567,-23.7,50.4,64.5,-101.1,50.7,-63.3,119.4,-119.1,-3038.1,196.5,-71.7,125.7,102.6,-47.4,-28.2,-257.1,-6.0,-4.5,50.1,-124.5,-1.8,106.2,-36.3,116.1,0,3522,0,197,0,
1.9600,-19.5,47.4,69.3,-101.4,50.1,-64.5,119.7,-119.1,-2964.0,197.7,-75.0,124.2,103.2,-43.8,-24.0,-252.9,-6.3,-4.2,53.4,-126.9,-1.8,106.8,-33.6,111.0,0,3528,0,198,0,
1.9633,-20.1,53.4,67.2,-99.0,47.7,-65.4,117.0,-120.9,-2889.9,200.7,-71.4,132.9,104.1,-43.5,-28.5,-257.1,-6.0,-4.8,59.7,-125.1,-2.1,103.5,-38.1,114.0,0,3534,0,199,0,
1.9667,-18.0,54.3,72.3,-93.0,56.7,-59.4,120.9,-115.5,-2889.9,204.3,-67.8,133.2,114.6,-47.1,-24.0,-243.3,-6.3,-4.5,62.4,-120.6,-2.1,107.7,-21.3,117.9,0,3540,0,200,0,
1.9700,-24.6,52.8,69.3,-96.3,53.7,-65.1,116.7,-120.6,-3038.1,205.5,-70.5,132.0,104.7,-39.9,-20.7,-250.5,-6.0,-4.8,60.0,-120.6,-1.8,113.1,-31.2,112.5,0,3546,0,201,0,
1.9733,-24.6,48.3,63.6,-105.3,49.8,-66.0,119.4,-125.1,-3112.2,201.6,-72.0,127.8,100.8,-42.9,-18.6,-240.9,-6.3,-4.5,52.5,-125.1,-1.5,98.7,-32.1,103.5,0,3552,0,202,0,
1.9767,-20.4,48.0,66.6,-103.2,51.0,-65.7,117.3,-124.8,-3112.2,204.9,-73.5,123.0,104.1,-38.4,-25.5,-244.2,-6.0,-4.8,51.6,-126.3,-2.1,105.6,-30.9,104.1,0,3558,0,203,0,
1.9800,-18.6,51.9,70.5,-97.2,54.6,-58.5,121.8,-117.9,-2889.9,205.2,-67.5,128.4,111.3,-40.2,-36.0,-251.1,-6.0,-3.9,59.4,-123.6,-1.5,106.8,-29.7,114.3,0,3564,0,204,0,
1.9833,-18.3,51.0,67.8,-95.7,53.1,-53.7,123.3,-120.0,-2964.0,208.5,-68.4,132.0,106.8,-43.8,-40.5,-240.0,-6.0,-4.8,53.7,-118.2,-1.5,111.0,-23.7,114.9,0,3570,0,205,0,
1.9867,-19.2,51.6,75.0,-91.8,62.1,-49.5,124.5,-117.6,-3038.1,205.8,-62.1,139.5,110.1,-46.2,-39.9,-249.6,-6.0,-4.2,59.1,-111.0,-1.8,116.1,-21.6,114.6,0,3576,0,206,0,
1.9900,-21.6,52.2,72.9,-91.8,56.7,-51.6,124.2,-117.6,-2964.0,213.3,-63.3,138.6,112.2,-46.2,-45.9,-253.5,-6.3,-4.5,61.2,-116.4,-1.5,120.3,-22.2,109.8,0,3582,0,207,0,
1.9933,-21.6,51.6,72.6,-93.9,52.8,-58.8,121.8,-117.0,-3112.2,210.6,-68.7,132.3,110.4,-40.5,-32.4,-255.3,-6.0,-4.2,59.7,-117.6,-2.1,113.7,-30.0,110.1,0,3588,0,208,0,
1.9967,-21.6,51.0,77.1,-89.7,57.3,-56.7,123.0,-114.6,-2964.0,211.5,-60.9,139.2,116.7,-47.1,-26.7,-254.1,-6.0,-4.8,62.1,-112.2,-1.8,112.2,-21.6,120.9,0,3594,0,209,0,
2.0000,-24.6,51.9,73.5,-90.3,58.8,-60.0,121.5,-115.2,-2889.9,206.7,-59.4,137.4,112.2,-33.0,-31.5,-256.2,-6.6,-4.2,59.4,-117.9,-1.8,107.1,-22.2,114.0,0,3600,0,210,0,
2.0033,-24.3,46.8,70.8,-95.4,56.7,-62.1,119.7,-122.1,-3186.3,199.8,-68.4,125.7,103.8,-40.2,-24.9,-251.4,-6.0,-4.8,51.0,-126.3,-1.5,104.7,-24.6,105.9,0,3606,0,211,0,
2.0067,-28.8,49.2,66.6,-98.4,51.9,-67.2,120.6,-122.1,-3038.1,198.9,-77.4,123.0,104.4,-57.3,-42.9,-255.0,-6.3,-4.5,52.5,-123.6,-1.8,101.4,-30.0,110.7,0,3612,0,212,0,
2.0100,-24.3,48.3,70.2,-93.9,55.2,-60.0,121.8,-118.8,-2964.0,202.8,-69.9,132.6,105.6,-57.6,-52.5,-260.1,-6.3,-4.5,53.7,-115.8,-2.1,116.1,-33.3,117.9,0,3618,0,213,0,
2.0133,-21.6,45.9,67.5,-97.8,52.8,-65.4,115.8,-122.1,-2964.0,194.7,-72.3,128.7,100.8,-48.0,-38.4,-261.3,-6.3,-4.5,54.3,-125.4,-1.8,100.5,-27.6,108.3,0,3624,0,214,0,
2.0167,-22.8,46.2,65.4,-98.1,52.2,-65.7,116.7,-123.3,-3112.2,192.6,-76.2,123.3,101.7,-53.1,-35.1,-262.5,-6.0,-4.5,48.3,-124.8,-2.1,96.9,-28.8,107.7,0,3630,0,215,0,
2.0200,-20.4,53.1,66.9,-97.2,58.8,-61.5,120.3,-123.0,-3260.4,194.7,-70.5,122.1,107.1,-52.8,-43.2,-254.4,-6.3,-4.5,53.1,-121.8,-1.8,104.1,-29.7,115.5,0,3636,0,216,0,
2.0233,-21.0,56.7,73.5,-92.7,61.8,-59.4,119.7,-119.1,-3260.4,204.9,-58.8,132.3,108.9,-51.6,-44.7,-257.7,-6.3,-4.5,60.3,-116.4,-1.8,108.9,-24.0,114.6,0,3642,0,217,0,
2.0267,-15.0,60.9,75.3,-90.6,61.2,-54.3,119.7,-117.6,-3038.1,212.1,-60.3,131.4,107.1,-43.2,-33.9,-260.4,-6.0,-4.5,59.4,-121.8,-1.8,116.4,-29.1,108.0,0,3648,0,218,0,
2.0300,-21.0,55.8,69.6,-97.8,53.7,-63.0,115.8,-119.7,-3038.1,200.1,-69.0,129.6,105.6,-42.3,-24.3,-258.6,-6.3,-4.2,54.9,-127.5,-1.8,101.7,-28.8,99.0,0,3654,0,219,0,
2.0333,-19.2,51.6,68.4,-99.3,54.6,-58.2,120.6,-117.0,-2964.0,198.0,-71.4,126.3,111.0,-42.0,-20.7,-253.8,-6.3,-4.2,54.6,-125.4,-1.8,100.2,-24.9,108.0,0,3660,0,220,0,
2.0367,-21.9,57.3,74.7,-95.7,58.5,-54.9,122.1,-114.0,-3186.3,207.3,-63.3,126.9,122.1,-46.8,-35.7,-256.8,-6.0,-4.8,59.4,-121.8,-1.5,108.0,-22.5,110.7,0,3666,0,221,0,
2.0400,-16.5,59.4,77.1,-86.4,67.8,-48.6,126.0,-113.1,-3112.2,214.2,-64.5,126.0,119.1,-47.1,-35.1,-250.5,-6.3,-4.2,60.6,-114.6,-2.1,113.1,-18.9,115.8,0,3672,0,222,0,
2.0433,-19.5,60.9,79.5,-91.5,59.4,-53.7,123.3,-113.4,-3186.3,214.2,-61.2,132.3,121.2,-39.9,-24.3,-255.3,-6.3,-4.2,60.0,-113.7,-1.5,115.5,-30.6,118.2,0,3678,0,223,0,
2.0467,-19.5,59.4,78.6,-92.4,58.2,-56.1,122.1,-118.8,-2964.0,210.9,-60.6,137.4,120.0,-42.3,-18.6,-250.5,-6.0,-4.5,60.3,-126.0,-1.8,106.5,-28.8,95.7,0,3684,0,224,0,
2.0500,-24.0,59.7,78.3,-91.2,57.3,-54.0,119.7,-117.6,-3186.3,209.7,-62.4,138.6,115.2,-41.1,-30.9,-262.2,-6.3,-4.5,61.8,-122.1,-1.8,113.1,-25.8,102.3,0,3690,0,225,0,
2.0533,-21.9,57.3,75.3,-93.3,60.6,-60.9,117.0,-120.3,-3112.2,197.1,-66.6,132.0,112.5,-40.2,-27.9,-259.5,-6.3,-4.8,57.3,-117.3,-2.1,110.1,-28.2,104.1,0,3696,0,226,0,
2.0567,-18.3,57.9,76.2,-95.1,64.5,-56.4,120.6,-116.7,-3186.3,203.1,-65.4,134.7,112.2,-39.6,-18.3,-257.1,-6.3,-3.9,57.3,-116.4,-1.8,111.3,-26.4,116.4,0,3702,0,227,0,
2.0600,-22.5,59.4,75.6,-89.4,60.0,-54.3,119.1,-116.4,-3038.1,208.2,-59.7,135.0,112.2,-40.8,-30.3,-253.8,-6.3,-4.2,60.0,-115.8,-2.1,107.7,-28.8,119.1,0,3708,0,228,0,
2.0633,-21.0,65.7,81.3,-84.3,65.1,-48.3,120.0,-108.3,-3112.2,214.5,-51.9,146.1,127.5,-47.4,-36.6,-261.6,-6.3,-4.5,71.1,-106.5,-1.8,118.2,-24.9,124.8,0,3714,0,229,0,
2.0667,-22.2,58.2,77.1,-87.0,67.8,-54.0,122.1,-109.8,-3112.2,211.2,-59.7,142.8,116.4,-30.3,-34.5,-255.9,-6.0,-4.8,64.5,-111.6,-1.8,113.7,-32.1,122.4,0,3720,0,230,0,
2.0700,-20.4,58.2,74.7,-88.5,67.2,-54.3,122.1,-109.2,-3186.3,208.5,-63.0,141.3,112.8,-31.8,-29.7,-256.5,-6.3,-4.5,58.2,-112.8,-1.8,109.5,-27.9,119.4,0,3726,0,231,0,
2.0733,-23.7,53.7,71.4,-92.7,62.1,-56.7,119.7,-109.5,-3112.2,202.2,-63.3,141.3,108.3,-42.0,-39.6,-258.9,-6.3,-4.2,57.0,-114.3,-1.5,106.5,-28.5,115.2,0,3732,0,232,0,
2.0767,-20.7,61.5,79.2,-83.1,69.9,-47.4,124.8,-102.9,-3038.1,216.3,-54.6,148.2,108.0,-45.0,-54.6,-264.3,-6.3,-4.5,69.6,-102.6,-1.8,123.9,-28.5,129.6,0,3738,0,233,0,
2.0800,-26.7,51.3,70.5,-97.8,59.7,-57.6,117.6,-116.4,-3038.1,199.8,-69.6,132.3,99.9,-52.2,-45.9,-258.9,-6.0,-4.5,53.4,-116.1,-1.5,112.5,-34.8,115.2,0,3744,0,234,0,
2.0833,-26.1,52.5,69.9,-93.0,57.3,-57.9,117.6,-113.4,-3112.2,196.5,-69.0,134.4,108.3,-45.3,-20.4,-249.6,-6.6,-4.5,55.5,-115.8,-1.8,108.3,-30.6,110.7,0,3750,0,235,0,
2.0867,-24.3,51.3,71.1,-93.3,62.4,-60.0,117.9,-113.1,-3186.3,200.1,-64.8,140.4,110.4,-45.6,-23.1,-252.9,-6.3,-4.2,57.6,-112.5,-1.8,110.7,-32.1,112.5,0,3756,0,236,0,
2.0900,-24.9,55.2,76.5,-87.3,66.0,-57.6,121.5,-110.1,-3112.2,211.5,-60.6,139.2,114.6,-47.4,-40.2,-252.6,-6.0,-4.5,62.4,-110.7,-2.1,111.6,-20.7,116.1,0,3762,0,237,0,
2.0933,-26.4,55.2,77.1,-90.0,67.8,-54.9,121.8,-110.1,-3038.1,207.9,-55.2,137.7,112.5,-49.5,-55.5,-263.7,-6.0,-4.2,64.8,-115.2,-1.8,118.5,-27.6,111.3,0,3768,0,238,0,
2.0967,-25.8,56.7,77.4,-90.0,66.0,-54.9,119.7,-106.2,-3038.1,215.1,-54.9,141.3,114.3,-45.9,-55.8,-275.4,-6.3,-4.5,63.9,-112.5,-1.8,116.7,-37.5,111.3,0,3774,0,239,0,
2.1000,-24.3,54.6,73.2,-90.9,62.1,-58.8,118.2,-110.1,-3112.2,213.0,-57.9,138.6,112.2,-45.9,-42.0,-262.8,-6.3,-4.5,60.3,-116.4,-1.8,111.0,-37.5,112.2,0,3780,0,240,0,
2.1033,-22.5,57.3,75.9,-91.8,60.9,-60.6,116.1,-113.1,-3112.2,215.7,-57.6,144.9,116.1,-42.3,-36.6,-261.3,-6.0,-4.5,63.9,-111.9,-1.8,115.2,-36.6,112.2,0,3786,0,241,0,
2.1067,-22.2,54.0,77.1,-90.0,62.1,-62.7,115.2,-113.4,-3038.1,214.5,-55.5,145.8,117.0,-42.0,-36.6,-260.4,-5.7,-4.8,63.9,-111.9,-1.8,121.5,-33.3,114.9,0,3792,0,242,0,
2.1100,-24.3,51.9,76.5,-88.8,63.3,-60.6,117.6,-112.8,-3038.1,212.1,-54.6,144.0,119.4,-44.7,-40.2,-265.8,-6.3,-4.5,59.7,-114.3,-1.8,114.0,-35.7,108.0,0,3798,0,243,0,
2.1133,-21.3,56.4,78.6,-86.4,63.3,-59.4,118.8,-112.8,-2815.8,218.7,-51.9,144.0,127.5,-45.3,-28.5,-253.8,-6.0,-4.8,68.4,-113.4,-1.5,112.8,-33.6,110.4,0,3804,0,244,0,
2.1167,-24.6,49.5,72.0,-92.1,61.2,-61.5,115.5,-118.8,-3112.2,204.3,-59.4,135.0,115.8,-36.3,-25.8,-259.5,-6.0,-4.2,60.0,-116.7,-1.8,106.5,-43.2,108.6,0,3810,0,245,0,
2.1200,-25.2,51.3,71.4,-92.7,58.8,-66.9,115.5,-118.8,-3038.1,202.8,-65.1,134.1,112.2,-40.2,-13.5,-243.3,-6.3,-4.8,58.5,-120.6,-1.8,109.8,-34.5,110.7,0,3816,0,246,0,
2.1233,-23.1,48.3,69.9,-93.6,58.5,-63.6,111.9,-124.5,-3112.2,208.8,-64.2,132.6,108.9,-32.4,-11.1,-254.1,-6.3,-4.8,57.6,-120.0,-1.5,109.8,-42.3,112.2,0,3822,0,247,0,
2.1267,-24.0,48.6,71.7,-95.1,56.7,-62.4,110.7,-124.5,-3038.1,207.9,-61.8,128.7,107.1,-34.2,-9.6,-246.0,-6.3,-4.5,59.4,-122.1,-1.8,121.5,-48.9,123.9,0,3828,0,248,0,
2.1300,-24.0,51.9,72.0,-93.6,60.9,-55.5,114.0,-121.5,-3038.1,215.7,-59.7,130.5,112.5,-35.1,-15.0,-246.6,-6.3,-4.5,63.3,-118.5,-1.5,116.4,-33.3,112.2,0,3834,0,249,0,
2.1333,-21.3,52.8,74.1,-92.1,58.8,-57.9,112.8,-117.6,-2889.9,216.6,-57.6,135.6,120.6,-45.3,-26.4,-257.1,-6.3,-4.2,63.6,-111.3,-1.8,118.2,-35.1,112.5,0,3840,0,250,0,
2.1367,-20.4,57.3,77.1,-89.4,62.1,-54.0,115.2,-117.0,-3112.2,220.2,-51.6,141.0,123.0,-36.9,-19.5,-255.9,-6.3,-4.5,70.5,-108.3,-1.8,125.7,-31.2,120.0,0,3846,0,251,0,
2.1400,-16.2,56.4,78.6,-89.7,64.8,-55.8,119.4,-118.2,-3112.2,212.4,-52.2,141.6,119.7,-30.3,-7.2,-248.4,-6.0,-4.2,63.6,-109.2,-2.1,120.3,-24.9,117.6,0,3852,0,252,0,
2.1433,-16.8,57.6,80.7,-85.5,63.3,-56.1,118.8,-119.4,-3038.1,215.7,-54.9,142.2,119.4,-32.4,-14.7,-244.8,-6.0,-4.5,66.3,-110.7,-1.8,120.0,-26.4,119.4,0,3858,0,253,0,
2.1467,-21.9,57.0,76.8,-89.7,63.6,-54.0,123.3,-118.8,-2815.8,217.5,-51.0,143.1,123.0,-35.4,-28.2,-237.3,-6.3,-4.5,69.3,-106.2,-1.8,121.2,-21.6,122.1,0,3864,0,254,0,
2.1500,-19.5,58.2,80.4,-85.2,66.9,-50.1,119.4,-117.9,-2964.0,229.5,-48.9,145.5,126.0,-33.6,-35.1,-255.3,-6.3,-4.2,72.3,-104.4,-2.1,131.1,-27.6,128.1,0,3870,0,255,0,
2.1533,-24.0,56.4,81.3,-85.5,64.8,-52.5,121.2,-118.2,-3112.2,235.8,-48.0,147.0,125.1,-36.9,-38.1,-257.4,-6.3,-4.5,76.2,-102.6,-1.8,135.3,-29.7,125.4,0,3876,0,0,0,
2.1567,-20.1,60.9,84.9,-83.7,67.2,-48.3,120.3,-115.8,-3112.2,228.9,-47.1,144.0,128.1,-24.0,-20.7,-247.8,-5.7,-4.2,77.7,-102.0,-2.1,132.6,-29.7,122.1,0,3882,0,1,0,
2.1600,-20.4,61.2,88.5,-81.6,70.5,-48.0,125.1,-115.8,-2964.0,234.6,-50.7,146.4,124.5,-29.4,-19.2,-240.3,-6.3,-4.8,75.6,-99.6,-1.5,134.1,-22.2,129.9,0,3888,0,2,0,
2.1633,-17.1,60.6,87.0,-81.0,71.1,-45.6,125.7,-114.0,-3038.1,218.4,-49.2,141.9,123.6,-27.0,-17.1,-238.8,-6.3,-4.2,73.2,-97.5,-2.1,132.0,-28.5,124.8,0,3894,0,3,0,
2.1667,-25.2,62.4,87.3,-80.4,73.5,-45.9,123.9,-115.2,-2964.0,230.1,-47.7,147.0,130.2,-39.9,-27.3,-243.0,-6.3,-4.5,78.3,-104.7,-1.8,122.7,-32.4,108.9,0,3900,0,4,0,
2.1700,-22.2,57.3,83.7,-85.2,67.5,-48.6,121.5,-117.9,-3260.4,218.4,-49.2,147.3,118.8,-25.2,-29.4,-254.1,-6.3,-4.2,71.7,-112.2,-2.1,130.8,-38.4,114.9,0,3906,0,5,0,
2.1733,-18.9,60.6,86.4,-80.7,70.2,-46.5,121.5,-115.2,-3186.3,223.2,-49.2,151.2,115.8,-29.1,-27.0,-259.2,-6.0,-4.5,75.0,-107.4,-2.1,134.1,-34.8,123.3,0,3912,0,6,0,
2.1767,-20.7,60.3,83.7,-83.1,69.9,-50.1,124.8,-113.1,-3112.2,220.2,-52.5,141.3,119.1,-37.5,-38.1,-255.0,-6.3,-4.8,71.4,-112.8,-1.5,121.5,-21.6,120.9,0,3918,0,7,0,
2.1800,-22.5,57.9,84.9,-81.6,68.4,-51.6,124.2,-115.8,-3038.1,219.6,-46.8,147.6,122.1,-45.9,-38.7,-242.7,-6.0,-4.2,74.1,-102.6,-2.1,122.4,-25.5,129.3,0,3924,0,8,0,
2.1833,-19.8,58.2,89.1,-81.6,70.2,-50.1,122.4,-116.4,-3186.3,222.0,-49.5,147.3,126.3,-42.0,-42.3,-255.3,-6.0,-4.5,72.0,-96.3,-1.8,127.8,-31.8,126.0,0,3930,0,9,0,
2.1867,-17.7,61.8,85.5,-81.3,71.1,-52.8,122.4,-113.4,-3038.1,217.5,-47.7,144.9,130.5,-33.6,-30.6,-253.2,-6.6,-4.5,70.2,-102.3,-2.1,124.2,-28.8,117.9,0,3936,0,10,0,
2.1900,-20.4,60.0,88.5,-83.7,63.0,-59.1,119.7,-112.8,-3260.4,218.1,-48.3,143.1,133.5,-33.9,-31.5,-256.5,-6.0,-4.5,73.2,-109.5,-1.8,122.7,-36.9,114.0,0,3942,0,11,0,
2.1933,-17.4,65.7,89.4,-85.5,61.8,-60.0,114.9,-112.2,-3186.3,222.6,-47.4,139.2,126.9,-35.1,-30.3,-257.7,-6.3,-4.2,74.1,-111.6,-2.1,121.2,-39.0,114.9,0,3948,0,12,0,
2.1967,-15.9,61.5,89.7,-78.9,66.0,-57.0,116.4,-110.1,-3038.1,221.1,-44.1,140.1,125.7,-35.7,-27.3,-259.8,-6.0,-4.2,75.9,-104.4,-1.2,120.9,-34.5,115.8,0,3954,0,13,0,
2.2000,-15.6,58.8,84.0,-87.6,60.9,-63.0,115.5,-117.9,-3112.2,216.6,-49.2,138.9,125.1,-36.9,-17.4,-243.3,-6.3,-4.2,67.8,-108.9,-2.1,120.6,-33.6,114.0,0,3960,0,14,0,
2.2033,-21.9,53.4,81.9,-92.4,60.3,-60.3,111.0,-121.8,-3186.3,216.9,-48.6,144.9,122.4,-34.5,-18.9,-256.5,-6.3,-4.5,73.2,-112.2,-2.1,117.9,-38.1,110.1,0,3966,0,15,0,
2.2067,-16.8,56.1,88.2,-87.0,63.9,-53.1,114.3,-116.1,-3260.4,225.0,-47.4,148.2,128.4,-36.3,-23.7,-260.7,-6.3,-4.2,75.3,-105.0,-1.5,126.6,-40.5,118.5,0,3972,0,16,0,
2.2100,-21.0,54.6,83.4,-89.1,60.3,-54.3,112.2,-110.7,-3186.3,220.5,-49.8,145.8,125.7,-38.1,-21.6,-249.6,-6.0,-4.5,67.8,-103.5,-1.5,129.0,-39.9,117.6,0,3978,0,17,0,
2.2133,-20.7,50.7,85.5,-87.0,62.1,-56.1,118.8,-113.1,-3038.1,222.3,-45.0,147.6,123.0,-40.5,-30.6,-240.6,-6.3,-4.5,72.9,-102.6,-1.8,125.1,-27.3,116.4,0,3984,0,18,0,
2.2167,-21.3,56.4,85.5,-84.0,65.4,-53.1,122.7,-109.2,-3112.2,229.5,-40.2,152.4,128.7,-35.7,-33.6,-242.7,-6.0,-4.5,76.2,-100.8,-1.8,132.3,-26.1,131.7,0,3990,0,19,0,
2.2200,-17.1,58.5,85.2,-84.0,65.4,-50.7,121.5,-110.7,-3260.4,235.8,-40.8,156.9,134.1,-37.5,-29.4,-246.3,-6.3,-4.8,76.5,-96.3,-1.8,132.0,-31.5,132.6,0,3996,0,20,0,
2.2233,-17.4,57.0,82.5,-85.5,66.9,-54.0,120.0,-114.6,-3260.4,225.6,-49.2,143.4,123.6,-23.4,-23.7,-247.2,-6.3,-4.2,69.9,-100.8,-1.8,127.5,-30.6,118.8,0,4002,0,21,0,
2.2267,-19.2,54.6,81.3,-88.2,65.4,-53.1,120.9,-114.3,-3038.1,225.9,-48.9,140.1,126.0,-39.9,-26.1,-242.7,-6.3,-4.2,69.0,-105.9,-2.1,129.3,-25.5,117.6,0,4008,0,22,0,
2.2300,-22.2,53.7,80.7,-87.9,62.4,-54.9,120.3,-116.4,-3112.2,218.1,-53.1,144.9,121.5,-31.2,-26.4,-236.1,-6.3,-4.5,62.4,-107.4,-2.1,126.3,-26.7,123.0,0,4014,0,23,0,
2.2333,-21.0,55.5,82.8,-87.6,64.2,-53.1,123.9,-114.9,-3186.3,219.0,-49.5,148.5,126.3,-36.9,-31.5,-242.1,-6.3,-4.5,67.5,-108.3,-2.1,133.5,-27.9,116.7,0,4020,0,24,0,
2.2367,-14.1,58.5,84.0,-90.0,65.7,-52.2,121.5,-115.2,-3334.5,226.8,-45.6,147.0,126.9,-22.8,-16.8,-245.1,-6.6,-4.5,71.1,-109.5,-1.8,127.8,-30.6,109.8,0,4026,0,25,0,
2.2400,-17.4,57.3,80.1,-91.2,62.1,-52.5,119.4,-114.3,-3260.4,222.6,-45.3,147.0,123.9,-28.8,-14.4,-244.2,-6.0,-4.5,68.4,-105.9,-1.5,132.0,-34.2,120.3,0,4032,0,26,0,
2.2433,-21.0,51.0,72.3,-93.3,60.6,-58.5,118.2,-117.3,-3112.2,218.7,-50.1,139.2,120.0,-30.0,-15.3,-239.1,-6.0,-4.5,62.7,-108.3,-1.8,115.2,-28.2,108.6,0,4038,0,27,0,
2.2467,-20.7,53.7,80.1,-90.6,63.6,-56.1,117.9,-116.4,-3112.2,225.3,-48.3,146.4,120.3,-35.4,-27.9,-246.0,-5.7,-4.8,66.0,-105.9,-2.1,119.7,-24.6,117.6,0,4044,0,28,0,
2.2500,-24.9,57.6,82.8,-82.5,69.6,-48.9,120.3,-109.2,-3186.3,222.9,-42.6,153.0,123.3,-45.0,-46.8,-258.0,-6.6,-4.5,71.4,-99.9,-1.5,126.3,-29.1,123.6,0,4050,0,29,0,
2.2533,-17.7,60.9,87.0,-86.4,67.5,-52.2,121.5,-109.5,-3186.3,227.1,-38.4,149.4,123.0,-42.3,-37.2,-252.0,-6.0,-4.2,74.7,-98.4,-1.5,127.8,-21.6,118.2,0,4056,0,30,0,
2.2567,-17.1,60.0,82.8,-85.2,68.1,-49.2,123.9,-111.0,-3334.5,225.6,-41.4,150.6,126.6,-40.2,-30.0,-237.0,-6.3,-4.5,70.8,-99.6,-2.1,122.4,-13.2,121.5,0,4062,0,31,0,
2.2600,-19.8,63.3,87.6,-83.7,68.1,-52.5,121.5,-109.8,-3186.3,222.6,-42.3,151.8,134.1,-42.3,-43.5,-248.1,-6.0,-4.5,75.6,-99.3,-1.8,130.2,-22.2,118.5,0,4068,0,32,0,
2.2633,-17.7,67.5,91.2,-86.7,65.7,-55.5,115.5,-112.5,-3112.2,233.7,-40.2,156.3,136.5,-27.3,-27.6,-253.8,-6.3,-4.2,75.0,-97.8,-2.1,126.3,-30.0,113.7,0,4074,0,33,0,
2.2667,-12.0,68.1,89.7,-85.2,66.0,-57.0,114.0,-114.3,-3186.3,225.9,-39.9,154.8,132.0,-23.1,-15.9,-255.6,-5.7,-4.5,79.2,-101.4,-2.1,130.5,-32.7,117.3,0,4080,0,34,0,
2.2700,-19.5,66.0,91.2,-86.4,63.9,-60.6,114.9,-115.2,-3260.4,233.7,-37.8,151.5,129.0,-31.2,-27.0,-255.6,-6.3,-4.8,78.0,-104.1,-2.1,124.5,-27.0,108.0,0,4086,0,35,0,
2.2733,-13.5,70.5,98.4,-77.4,76.2,-52.8,117.3,-111.6,-3260.4,231.3,-30.6,157.8,135.3,-25.2,-34.2,-264.6,-6.3,-4.8,85.2,-91.8,-1.8,144.3,-32.4,126.6,0,4092,0,36,0,
2.2767,-9.0,70.8,99.0,-81.9,71.7,-52.5,117.0,-111.0,-3186.3,239.1,-37.5,153.3,150.9,-18.9,-17.7,-262.2,-6.0,-4.5,82.8,-93.0,-1.8,138.0,-33.3,119.7,0,4098,0,37,0,
2.2800,-13.2,69.6,97.5,-83.7,66.3,-59.1,116.1,-114.6,-3038.1,239.7,-38.1,153.6,146.7,-30.9,-24.3,-256.5,-6.0,-4.2,82.8,-103.2,-1.8,122.4,-20.4,116.7,0,4104,0,38,0,
2.2833,-14.4,66.3,96.3,-82.8,67.8,-59.1,115.2,-111.9,-3186.3,234.6,-36.6,157.2,137.4,-16.8,-21.9,-258.0,-6.6,-4.2,81.6,-106.5,-1.8,129.3,-27.3,114.3,0,4110,0,39,0,
2.2867,-18.6,65.4,95.7,-82.5,69.9,-58.2,115.5,-110.7,-3260.4,230.7,-38.7,155.7,137.4,-24.3,-22.5,-254.7,-6.3,-4.8,80.7,-101.1,-2.1,128.1,-36.6,110.1,0,4116,0,40,0,
2.2900,-18.0,63.9,91.5,-84.6,71.1,-55.5,115.2,-108.0,-3334.5,225.0,-44.1,147.0,132.6,-18.6,-10.8,-247.5,-6.3,-4.5,76.2,-103.8,-1.5,125.4,-34.2,108.0,0,4122,0,41,0,
2.2933,-17.7,63.3,91.5,-83.7,72.9,-54.0,116.1,-110.4,-3186.3,230.7,-43.2,148.2,136.5,-24.0,-19.5,-253.5,-6.0,-4.2,77.1,-95.7,-1.5,129.3,-27.3,113.7,0,4128,0,42,0,
2.2967,-15.3,66.9,94.8,-80.4,69.3,-49.2,119.1,-110.7,-3038.1,228.6,-38.7,154.5,140.7,-26.4,-32.1,-256.5,-6.6,-4.8,86.4,-94.2,-1.5,135.6,-26.1,127.2,0,4134,0,43,0,
2.3000,-17.1,67.2,94.2,-82.8,70.8,-51.0,118.5,-109.5,-3112.2,238.2,-39.0,149.7,143.7,-31.5,-25.8,-246.3,-6.3,-4.5,81.0,-94.8,-1.8,135.6,-21.6,127.2,0,4140,0,44,0,
2.3033,-12.9,64.5,91.5,-84.0,70.5,-48.9,119.1,-112.8,-3186.3,237.0,-41.1,152.1,137.7,-27.9,-25.5,-246.0,-6.3,-4.8,79.8,-94.8,-1.5,137.4,-23.4,125.1,0,4146,0,45,0,
2.3067,-15.9,66.6,94.5,-81.0,74.7,-45.6,122.1,-113.4,-3186.3,240.6,-35.1,158.1,139.5,-27.3,-33.0,-250.8,-6.3,-4.5,84.0,-92.1,-1.8,139.8,-22.8,127.2,0,4152,0,46,0,
2.3100,-19.2,58.8,87.6,-90.0,64.2,-50.1,115.5,-119.4,-3186.3,229.2,-44.1,149.1,125.7,-23.4,-20.7,-243.6,-6.3,-4.2,70.5,-104.1,-2.1,129.3,-18.6,113.7,0,4158,0,47,0,
2.3133,-13.8,66.3,95.1,-85.2,72.9,-47.7,121.8,-112.5,-3038.1,233.1,-35.1,154.8,129.6,-23.4,-17.1,-233.4,-6.0,-4.8,75.0,-95.7,-1.8,132.0,-17.4,130.8,0,4164,0,48,0,
2.3167,-13.8,67.2,92.4,-81.3,75.0,-53.1,119.1,-110.4,-3112.2,235.2,-37.5,162.3,137.7,-24.3,-24.0,-252.3,-6.0,-4.2,78.0,-92.1,-1.8,139.8,-22.8,128.4,0,4170,0,49,0,
2.3200,-13.8,64.5,96.0,-82.8,72.6,-54.3,117.6,-114.0,-3260.4,233.1,-37.8,157.2,139.5,-21.9,-19.5,-249.3,-6.3,-4.8,77.4,-98.4,-1.8,131.7,-16.2,121.8,0,4176,0,50,0,
2.3233,-13.2,62.1,98.1,-80.7,75.9,-51.9,117.6,-113.1,-3334.5,233.4,-32.1,157.8,138.0,-27.0,-37.2,-249.0,-6.3,-4.2,81.9,-98.7,-1.8,140.4,-13.5,121.2,0,4182,0,51,0,
2.3267,-12.0,65.4,99.6,-78.3,79.5,-48.3,119.7,-111.6,-3038.1,241.5,-28.8,163.8,139.8,-28.5,-37.5,-247.5,-6.3,-4.5,82.8,-92.4,-1.8,149.7,-16.2,129.6,0,4188,0,52,0,
2.3300,-12.6,64.5,93.9,-83.1,75.3,-53.1,122.1,-114.3,-3038.1,233.7,-35.4,159.9,136.8,-24.6,-25.5,-238.2,-6.0,-4.2,78.0,-93.3,-1.8,140.1,-21.6,123.6,0,4194,0,53,0,
2.3333,-20.7,61.2,93.9,-85.2,73.5,-52.5,115.5,-114.9,-3038.1,231.9,-32.4,160.5,144.3,-41.1,-33.6,-246.6,-6.3,-4.5,77.4,-96.3,-1.8,132.0,-19.5,118.8,0,4200,0,54,0,
2.3367,-15.9,63.3,96.3,-82.8,75.6,-53.1,117.9,-112.5,-3112.2,231.3,-33.6,158.7,138.3,-31.8,-26.1,-249.9,-6.0,-4.5,79.8,-96.6,-2.1,135.9,-23.4,120.6,0,4206,0,55,0,
2.3400,-14.7,61.8,95.7,-81.9,74.1,-55.5,117.9,-113.1,-3186.3,229.2,-33.3,165.3,137.1,-15.9,-20.1,-248.7,-6.3,-4.2,83.4,-94.8,-2.1,130.8,-26.1,117.6,0,4212,0,56,0,
2.3433,-15.9,65.1,93.0,-84.9,72.9,-53.1,120.9,-113.7,-3112.2,241.5,-33.3,165.9,142.2,-26.1,-23.1,-241.8,-6.0,-4.8,79.8,-90.6,-1.8,141.0,-27.3,126.0,0,4218,0,57,0,
2.3467,-12.6,61.2,93.9,-84.0,69.6,-51.9,121.8,-115.5,-3038.1,238.8,-31.8,163.2,140.1,-12.6,-17.4,-244.5,-6.3,-4.5,81.6,-93.0,-2.1,146.7,-32.7,126.0,0,4224,0,58,0,
2.3500,-12.9,65.7,94.2,-87.3,68.4,-55.8,118.5,-115.2,-3038.1,234.6,-31.8,162.3,140.1,-12.9,-13.8,-248.4,-6.3,-4.5,81.0,-96.0,-2.1,126.0,-23.1,114.3,0,4230,0,59,0,
2.3533,-9.0,72.0,101.4,-82.5,70.2,-51.9,114.6,-110.1,-3112.2,241.2,-27.0,162.0,150.0,-5.1,-9.0,-259.5,-6.0,-4.5,87.3,-94.2,-1.5,134.7,-26.7,120.0,0,4236,0,60,0,
2.3567,-7.2,73.8,103.8,-79.8,78.9,-49.8,116.7,-106.2,-3186.3,241.5,-26.1,162.0,149.7,-3.6,-12.3,-253.5,-6.0,-4.2,89.4,-96.9,-1.8,138.0,-25.2,126.9,0,4242,0,61,0,
2.3600,-10.8,73.8,102.9,-76.5,74.4,-48.6,116.7,-108.0,-3038.1,243.3,-24.6,158.1,136.8,-12.6,-20.1,-243.0,-6.0,-3.9,90.9,-98.1,-1.8,134.7,-26.7,117.9,0,4248,0,62,0,
2.3633,-15.3,67.8,100.5,-85.2,71.1,-54.6,118.2,-111.0,-3038.1,245.4,-28.5,161.7,131.4,-21.6,-26.1,-238.8,-6.3,-4.2,88.5,-89.1,-1.8,137.1,-22.8,120.3,0,4254,0,63,0,
2.3667,-17.7,65.4,94.2,-91.5,66.6,-57.6,115.2,-113.7,-3112.2,242.7,-33.6,157.8,140.1,-17.4,-11.4,-242.4,-6.3,-4.2,82.2,-96.9,-1.5,131.7,-33.0,117.0,0,4260,0,64,0,
2.3700,-11.7,65.1,93.9,-91.5,65.1,-54.9,113.4,-112.5,-3112.2,232.8,-34.2,153.3,138.6,-13.2,-9.0,-248.4,-6.0,-4.2,84.0,-100.2,-1.8,131.4,-33.6,121.2,0,4266,0,65,0,
2.3733,-13.2,67.2,100.2,-86.7,70.5,-51.0,121.5,-109.2,-3186.3,244.5,-30.6,160.5,145.5,-29.1,-11.4,-248.1,-6.3,-4.8,88.2,-95.7,-1.5,131.7,-24.6,113.7,0,4272,0,66,0,
2.3767,-19.5,62.7,98.1,-90.6,72.0,-50.1,117.9,-110.1,-3186.3,239.7,-35.7,161.1,138.9,-31.5,-24.3,-245.1,-6.3,-4.5,86.1,-93.9,-1.8,133.2,-21.6,115.8,0,4278,0,67,0,
2.3800,-20.1,58.5,91.5,-96.3,62.4,-58.5,115.5,-118.8,-3038.1,232.8,-41.7,152.1,126.0,-27.6,-19.8,-239.7,-6.6,-4.8,77.1,-101.7,-2.1,124.5,-27.0,115.8,0,4284,0,68,0,
2.3833,-20.7,56.1,87.0,-96.9,61.2,-58.5,114.6,-118.8,-3038.1,225.9,-41.4,153.9,121.5,-23.7,-17.1,-237.3,-6.0,-4.5,72.3,-97.8,-1.5,129.3,-31.2,124.8,0,4290,0,69,0,
2.3867,-17.4,57.6,86.7,-93.9,60.6,-58.8,114.9,-118.8,-3112.2,228.3,-37.8,157.8,126.6,-22.5,-17.7,-240.3,-6.3,-4.5,75.9,-105.6,-1.8,127.5,-26.1,119.7,0,4296,0,70,0,
2.3900,-12.6,62.7,94.2,-90.0,70.5,-49.5,119.1,-114.9,-3186.3,231.9,-35.1,155.1,129.0,-22.8,-23.4,-244.2,-6.0,-4.5,78.9,-92.7,-1.8,132.0,-20.1,133.5,0,4302,0,71,0,
2.3933,-11.4,60.9,97.2,-90.0,70.5,-46.5,117.9,-112.8,-3112.2,229.5,-28.2,157.2,131.1,-24.6,-17.1,-245.1,-6.3,-4.5,82.5,-88.8,-1.8,138.9,-25.2,136.5,0,4308,0,72,0,
2.3967,-14.1,62.4,96.3,-87.9,73.2,-52.5,118.8,-114.9,-3038.1,238.5,-30.6,159.9,132.3,-22.5,-20.1,-244.8,-6.3,-4.8,81.0,-88.8,-1.8,132.9,-25.5,122.4,0,4314,0,73,0,
2.4000,-16.2,60.9,96.6,-86.4,71.1,-49.8,119.1,-113.1,-3112.2,236.1,-33.3,166.8,131.4,-36.3,-26.7,-249.9,-6.3,-3.9,79.5,-90.0,-1.8,140.1,-24.0,124.8,0,4320,0,74,0,
2.4033,-12.9,66.6,104.1,-78.6,79.5,-44.1,123.6,-106.5,-3186.3,237.3,-23.7,171.3,141.9,-30.6,-32.1,-255.3,-6.0,-4.5,93.3,-83.7,-1.8,141.0,-22.8,141.9,0,4326,0,75,0,
2.4067,-13.8,65.1,102.3,-79.8,76.5,-47.4,122.1,-110.4,-3186.3,237.6,-23.7,168.6,143.7,-29.1,-29.1,-247.8,-6.0,-4.5,89.4,-89.4,-1.8,143.1,-22.2,139.8,0,4332,0,76,0,
2.4100,-16.5,64.2,98.1,-78.3,76.2,-50.1,123.6,-111.9,-3038.1,239.1,-25.2,165.3,135.3,-27.6,-28.8,-244.5,-6.3,-4.8,83.7,-92.1,-1.5,138.6,-24.0,133.2,0,4338,0,77,0,
2.4133,-12.6,66.9,103.2,-78.0,76.8,-46.5,127.2,-104.7,-3038.1,241.8,-29.1,164.1,145.2,-23.4,-13.5,-243.6,-6.3,-4.5,89.7,-93.3,-1.8,138.9,-25.5,131.1,0,4344,0,78,0,
2.4167,-11.1,66.3,102.0,-76.8,77.4,-39.3,127.5,-102.0,-2964.0,239.4,-23.4,168.9,139.2,-16.5,-9.6,-240.3,-6.0,-4.5,90.6,-89.4,-1.5,141.3,-30.9,135.0,0,4350,0,79,0,
