# Mains_Frequency_(Hz) =,60,,,,,,,,,,,,,,,,,,,,,,,,,,,
# Sample_Frequency_(Hz) =,300,,,,,,,,,,,,,,,,,,,,,,,,,,,
# Filter_Delay_(ms) =,43.3,,,,,,,,,,,,,,,,,,,,,,,,,,,
# Sensor_Data_Units =,uV,,,,,,,,,,,,,,,,,,,,,,,,,,,
# Headset_Name =,DSI-24 SN:1580,,,,,,,,,,,,,,,,,,,,,,,,,,,
# Data_Logger =,DSI-Streamer-v.1.08.31,,,,,,,,,,,,,,,,,,,,,,,,,,,
# Date =,4/20/2018,,,,,,,,,,,,,,,,,,,,,,,,,,,
# Time =,11:36:13,,,,,,,,,,,,,,,,,,,,,,,,,,,
# Patient_ID =,X F 01-MAY-1999 X,,,,,,,,,,,,,,,,,,,,,,,,,,,
# Record_ID =,Startdate 20-APR-2018 EEG_XX X X,,,,,,,,,,,,,,,,,,,,,,,,,,,
# Filter =,Non-Filtered,,,,,,,,,,,,,,,,,,,,,,,,,,,
# Comments =,,,,,,,,,,,,,,,,,,,,,,,,,,,,
# Reference location:,Pz,,,,,,,,,,,,,,,,,,,,,,,,,,,
# Trigger Source,Wireless,,,,,,,,,,,,,,,,,,,,,,,,,,,
# Channel_Number =,ch_1,ch_2,ch_3,ch_4,ch_5,ch_6,ch_7,ch_8,ch_9,ch_10,ch_11,ch_12,ch_13,ch_14,ch_15,ch_16,ch_17,ch_18,ch_19,ch_20,ch_21,ch_22,ch_23,ch_24,Trigger,Time_Offset,ADC_Status,ADC_Sequence,Event,Comments
Time,P3,C3,F3,Fz,F4,C4,P4,Cz,CM,A1,Fp1,Fp2,T3,T5,O1,O2,X3,X2,F7,F8,X1,A2,T6,T4,Trigger,Time_Offset,ADC_Status,ADC_Sequence,Event,Comments
0.0033,-10.8,127.8,143.7,0.3,80.7,-79.2,105.3,-83.1,-2889.9,319.5,15.3,273.9,190.5,-28.2,-72.3,-243.0,-6.3,-4.8,165.9,-180.0,-1.8,135.3,-87.0,126.9,0,6,0,214,0,Start Data Acquisition
0.0067,-9.0,128.7,145.8,-0.6,81.6,-78.0,107.7,-82.2,-3038.1,327.3,19.5,278.4,202.2,-24.9,-69.3,-244.8,-6.0,-4.5,174.3,-179.7,-1.8,141.6,-84.9,130.2,0,12,0,215,0,
0.0100,-12.6,122.4,135.6,-6.9,74.4,-82.5,103.2,-82.5,-2964.0,320.4,11.4,272.1,194.1,-29.4,-73.8,-244.5,-6.0,-4.2,163.5,-187.2,-1.5,140.7,-87.9,124.5,0,18,0,216,0,
0.0133,-10.8,118.5,130.8,-8.7,67.8,-80.1,101.7,-88.8,-3038.1,315.9,8.1,270.9,186.6,-27.0,-69.6,-238.2,-6.3,-4.5,156.9,-189.3,-1.8,142.2,-87.6,128.7,0,24,0,217,0,
0.0167,-11.4,123.3,132.3,-14.4,67.8,-82.2,102.0,-87.3,-3112.2,321.3,4.2,265.8,192.9,-27.0,-71.4,-246.9,-6.0,-4.5,159.9,-193.5,-1.8,145.2,-87.0,128.7,0,30,0,218,0,
0.0200,-11.1,125.7,132.9,-9.3,71.4,-79.5,105.6,-85.8,-2889.9,325.2,10.8,267.9,196.2,-31.8,-76.8,-240.0,-6.6,-4.8,164.1,-187.8,-1.8,143.7,-76.8,120.9,0,36,0,219,0,
0.0233,-13.2,119.7,123.9,-21.3,60.9,-87.9,99.0,-93.6,-2964.0,309.0,-8.1,258.0,186.6,-35.1,-68.1,-237.3,-6.0,-4.5,152.1,-199.8,-2.1,132.9,-80.7,115.2,0,42,0,220,0,
0.0267,-12.6,120.0,131.1,-18.3,62.1,-86.1,99.9,-93.3,-2889.9,309.3,-8.4,254.7,184.8,-28.5,-67.8,-252.0,-6.3,-4.2,146.4,-201.0,-1.8,135.3,-84.9,115.2,0,48,0,221,0,
0.0300,-12.0,117.9,127.5,-18.9,60.3,-86.7,98.1,-95.4,-2964.0,317.7,-8.4,253.8,193.5,-33.0,-65.4,-257.7,-6.3,-4.5,150.6,-202.2,-1.8,135.0,-86.7,116.4,0,54,0,222,0,
0.0333,-10.5,114.3,123.9,-22.8,61.8,-84.6,99.6,-94.8,-3038.1,307.2,-8.4,251.1,181.2,-26.7,-62.1,-252.6,-6.0,-4.8,150.9,-201.3,-1.8,132.3,-87.0,117.6,0,60,0,223,0,
0.0367,-9.0,114.6,123.9,-19.2,61.8,-80.7,101.7,-91.2,-2964.0,313.5,-3.0,260.4,185.1,-22.2,-63.9,-253.2,-6.3,-4.5,156.3,-193.2,-1.8,136.8,-80.7,126.0,0,66,0,224,0,
0.0400,-11.1,115.2,120.9,-20.7,59.1,-85.5,100.5,-92.4,-2889.9,313.5,-3.3,257.4,183.3,-28.8,-68.1,-254.4,-6.0,-4.2,149.4,-200.4,-1.8,129.6,-80.7,119.4,0,72,0,225,0,
0.0433,-17.4,108.6,111.6,-27.6,53.7,-89.4,98.7,-101.1,-3038.1,297.9,-12.9,248.4,174.3,-34.5,-68.4,-247.5,-6.3,-4.2,139.8,-208.8,-1.8,121.2,-81.0,116.7,0,78,0,226,0,
0.0467,-13.8,116.4,119.7,-20.4,59.4,-79.5,102.6,-94.8,-2889.9,304.2,-4.5,257.1,183.3,-30.0,-62.7,-258.9,-6.0,-4.2,146.7,-197.4,-1.5,127.2,-85.8,118.8,0,84,0,227,0,
0.0500,-14.4,114.0,123.3,-18.3,66.9,-73.2,106.2,-95.4,-2964.0,309.3,-1.8,262.2,179.7,-38.4,-87.3,-255.0,-6.0,-4.5,148.8,-194.7,-1.8,131.7,-82.5,120.3,0,90,0,228,0,
0.0533,-9.6,115.2,118.8,-20.4,61.8,-81.3,104.1,-94.5,-2741.7,301.5,-7.8,253.8,172.8,-31.8,-64.5,-245.1,-6.0,-4.5,146.1,-201.9,-1.8,126.6,-84.3,116.1,0,96,0,229,0,
0.0567,-12.0,120.6,126.0,-18.6,63.6,-80.4,103.5,-92.7,-2815.8,303.9,-12.9,258.0,172.8,-29.1,-67.2,-248.4,-6.3,-4.5,144.0,-199.5,-2.1,124.2,-86.7,122.7,0,102,0,230,0,
0.0600,-10.2,129.0,135.3,-10.2,72.9,-77.4,110.4,-88.5,-2964.0,313.5,-5.4,261.6,197.4,-27.0,-66.3,-248.4,-6.0,-4.5,153.0,-192.6,-1.5,133.5,-84.3,128.4,0,108,0,231,0,
0.0633,-8.1,129.6,139.8,-7.5,75.0,-76.5,108.3,-82.8,-2964.0,321.9,3.0,271.8,192.0,-30.0,-68.7,-243.3,-6.3,-4.5,158.4,-188.4,-1.5,139.2,-81.6,128.4,0,114,0,232,0,
0.0667,-11.4,123.9,134.1,-9.9,70.8,-76.5,106.2,-84.3,-2964.0,315.9,2.1,264.6,173.4,-22.5,-57.6,-238.2,-6.0,-4.2,154.8,-192.3,-1.5,137.1,-83.1,126.0,0,120,0,233,0,
0.0700,-16.5,118.8,129.3,-13.2,66.6,-82.8,101.7,-87.0,-2889.9,314.4,0.9,263.7,184.2,-26.1,-63.0,-238.5,-6.0,-4.5,157.2,-197.4,-1.8,133.5,-93.0,116.7,0,126,0,234,0,
0.0733,-17.7,120.3,134.1,-9.6,70.2,-81.9,102.9,-84.6,-2889.9,318.3,11.7,268.2,190.2,-24.3,-70.8,-243.6,-5.7,-4.2,161.1,-189.9,-1.8,135.9,-89.4,124.5,0,132,0,235,0,
0.0767,-13.5,122.1,135.9,-6.9,72.9,-78.6,106.5,-83.7,-2889.9,315.9,9.9,275.4,192.0,-25.8,-70.8,-244.5,-6.3,-4.8,163.2,-182.7,-2.1,149.7,-88.5,121.8,0,138,0,236,0,
0.0800,-16.5,122.1,132.6,-10.2,68.7,-81.0,104.4,-90.0,-3038.1,313.2,6.0,267.0,187.8,-29.1,-65.7,-238.2,-6.0,-4.5,159.3,-189.6,-1.8,133.8,-79.5,119.1,0,144,0,237,0,
0.0833,-13.5,116.4,128.7,-12.6,64.2,-86.1,103.8,-93.0,-2964.0,309.6,3.0,264.9,187.8,-20.4,-52.8,-233.1,-6.0,-4.8,162.6,-193.8,-1.8,129.9,-82.5,120.6,0,150,0,238,0,
0.0867,-14.1,117.9,127.5,-15.9,66.6,-86.1,103.2,-98.1,-2964.0,313.8,0.6,259.5,186.9,-24.3,-58.5,-230.1,-6.0,-4.2,156.9,-193.5,-1.8,134.1,-86.7,120.3,0,156,0,239,0,
0.0900,-17.1,116.1,126.6,-18.3,65.1,-88.2,96.3,-97.8,-2889.9,319.2,3.0,267.3,181.5,-21.9,-61.8,-237.9,-6.0,-4.2,155.7,-190.8,-2.1,139.5,-91.5,114.0,0,162,0,240,0,
0.0933,-16.8,120.3,134.7,-17.7,67.5,-83.7,101.7,-98.1,-2815.8,324.3,7.8,267.3,183.0,-23.1,-57.6,-239.4,-6.0,-4.5,152.1,-191.1,-1.5,138.0,-92.7,120.3,0,168,0,241,0,
0.0967,-18.6,117.6,126.3,-20.7,64.2,-85.8,99.3,-99.3,-2964.0,315.9,-2.4,264.9,187.2,-27.6,-64.5,-243.6,-6.3,-4.5,150.6,-194.4,-1.5,139.8,-95.4,111.9,0,174,0,242,0,
0.1000,-18.0,119.1,129.6,-13.8,70.2,-81.6,99.9,-97.8,-2889.9,311.4,-2.7,265.8,179.7,-29.7,-69.3,-243.3,-6.3,-4.5,150.6,-186.9,-1.8,134.7,-92.1,127.5,0,180,0,243,0,
0.1033,-22.2,108.0,123.6,-17.7,69.3,-82.5,102.9,-98.1,-2889.9,303.6,-8.1,260.7,169.8,-26.1,-57.9,-227.1,-6.0,-4.5,147.3,-190.8,-1.8,131.1,-87.3,116.1,0,186,0,244,0,
0.1067,-22.5,108.3,120.6,-18.0,68.1,-84.3,106.8,-96.0,-3038.1,297.9,-12.3,251.7,171.3,-24.0,-47.1,-222.6,-6.0,-4.8,141.0,-198.0,-1.2,114.0,-91.2,106.8,0,192,0,245,0,
0.1100,-23.7,112.8,123.6,-10.2,74.1,-82.2,106.8,-88.8,-2889.9,303.6,-8.1,255.9,171.9,-29.4,-53.7,-244.8,-6.6,-4.2,147.3,-196.2,-1.5,117.3,-93.9,109.8,0,198,0,246,0,
0.1133,-20.7,120.3,138.9,-0.9,86.1,-69.6,105.9,-82.5,-2889.9,307.2,-1.5,268.2,163.5,-38.4,-67.5,-245.7,-6.3,-4.5,150.3,-184.5,-2.1,127.8,-87.0,122.1,0,204,0,247,0,
0.1167,-26.4,114.3,132.3,-3.0,84.0,-72.0,104.4,-83.4,-2964.0,298.5,-5.1,265.2,173.7,-46.5,-79.2,-243.3,-6.0,-4.5,148.5,-188.7,-1.5,122.7,-87.0,118.2,0,210,0,248,0,
0.1200,-18.3,115.8,131.4,-4.2,84.9,-76.5,105.9,-85.5,-2964.0,300.3,-7.5,263.1,182.7,-36.6,-67.2,-249.3,-6.3,-4.5,147.3,-188.7,-1.8,123.0,-86.4,114.9,0,216,0,249,0,
0.1233,-15.6,118.5,133.5,-1.5,87.0,-71.4,107.7,-80.1,-2815.8,302.1,-3.3,266.7,184.8,-40.8,-77.7,-244.5,-6.3,-4.2,153.0,-184.5,-1.5,129.9,-83.1,113.4,0,222,0,250,0,
0.1267,-18.3,114.9,125.4,-10.8,78.6,-78.3,106.8,-84.9,-2964.0,297.9,-12.9,253.5,180.0,-41.1,-75.9,-247.8,-5.7,-4.8,142.8,-191.1,-1.8,120.3,-90.3,105.9,0,228,0,251,0,
0.1300,-15.6,113.1,124.2,-16.2,68.7,-83.7,100.5,-90.9,-2964.0,295.5,-13.5,253.8,176.1,-40.8,-75.9,-248.4,-6.0,-4.5,142.5,-199.5,-1.8,111.3,-94.2,104.7,0,234,0,252,0,
0.1333,-13.8,114.9,128.4,-11.7,69.9,-81.6,105.9,-89.1,-2889.9,302.7,-7.5,260.7,181.2,-36.3,-76.8,-257.4,-6.0,-4.2,146.7,-192.6,-2.1,122.4,-98.1,116.4,0,240,0,253,0,
0.1367,-14.4,114.6,127.8,-17.4,60.6,-82.8,103.8,-93.6,-2889.9,296.4,-10.8,255.3,181.8,-39.9,-84.3,-261.6,-6.3,-4.5,148.2,-195.9,-1.8,120.3,-109.2,112.2,0,246,0,254,0,
0.1400,-11.7,114.3,125.4,-19.2,56.7,-85.2,102.9,-93.6,-2964.0,300.9,-7.2,256.2,182.1,-42.9,-81.9,-253.5,-6.3,-4.5,147.0,-199.8,-2.1,119.7,-99.0,114.0,0,252,0,255,0,
0.1433,-11.1,117.3,128.7,-21.3,55.2,-88.8,100.5,-94.2,-2889.9,299.1,-6.9,251.7,192.3,-38.7,-74.1,-254.4,-6.3,-4.5,150.9,-201.0,-1.5,118.8,-97.2,116.1,0,258,0,0,0,
0.1467,-6.6,120.6,133.5,-19.5,58.2,-87.6,99.3,-93.0,-2964.0,309.3,-3.9,258.6,196.2,-29.4,-67.8,-254.4,-6.0,-4.8,151.5,-195.6,-1.8,123.3,-94.8,115.5,0,264,0,1,0,
0.1500,-10.5,117.9,129.3,-25.2,48.9,-90.0,102.9,-96.6,-2964.0,304.8,-5.7,253.8,190.2,-27.6,-65.7,-254.4,-6.0,-4.8,153.9,-200.1,-1.8,120.9,-96.3,113.1,0,270,0,2,0,
0.1533,-10.5,117.9,130.5,-20.7,53.7,-93.6,102.6,-98.1,-2889.9,313.5,0.6,258.0,195.9,-33.6,-71.7,-240.3,-6.6,-4.2,159.9,-197.1,-2.1,124.8,-88.5,114.6,0,276,0,3,0,
0.1567,-8.4,123.3,129.6,-19.2,56.7,-88.8,103.8,-93.3,-2889.9,310.2,3.9,260.7,200.4,-27.0,-63.9,-249.9,-6.0,-4.5,165.9,-193.5,-1.8,126.0,-91.8,117.3,0,282,0,4,0,
0.1600,-6.3,124.5,134.1,-17.4,60.0,-87.3,102.3,-94.5,-2964.0,319.8,10.2,264.0,202.2,-27.3,-64.5,-248.7,-6.0,-4.5,166.8,-194.7,-1.8,126.3,-96.9,111.3,0,288,0,5,0,
0.1633,-4.8,126.9,139.2,-11.4,69.6,-80.7,99.6,-92.1,-2964.0,319.8,12.3,266.4,194.1,-28.8,-61.5,-249.6,-6.0,-4.2,172.2,-192.9,-1.2,132.6,-99.9,127.5,0,294,0,6,0,
0.1667,-4.8,132.6,142.5,-2.7,80.4,-75.6,105.0,-88.2,-2889.9,323.7,17.4,272.4,198.3,-28.8,-70.2,-254.7,-6.3,-4.5,174.3,-182.1,-1.8,141.9,-92.7,130.2,0,300,0,7,0,
0.1700,-8.4,126.6,141.6,-1.5,82.5,-73.2,105.6,-88.8,-2889.9,330.9,18.6,277.5,208.8,-28.5,-75.0,-251.7,-6.3,-4.2,173.7,-180.3,-2.1,141.0,-88.8,120.3,0,306,0,8,0,
0.1733,-3.6,132.9,150.6,0.0,86.4,-68.4,106.2,-85.5,-2964.0,329.7,23.4,279.6,207.6,-23.1,-70.8,-250.8,-6.0,-4.5,177.6,-178.2,-1.8,141.3,-87.6,119.1,0,312,0,9,0,
0.1767,-4.2,127.5,149.1,-1.8,87.3,-66.3,106.2,-88.5,-2964.0,327.9,20.1,275.4,206.1,-28.5,-66.6,-243.3,-6.3,-4.8,173.1,-177.0,-1.8,137.4,-83.4,126.3,0,318,0,10,0,
0.1800,-5.4,127.8,145.2,-2.1,81.9,-68.1,106.5,-86.1,-2889.9,323.1,14.1,274.8,209.1,-24.0,-60.3,-241.8,-6.0,-4.8,172.2,-179.7,-1.8,134.7,-84.0,128.4,0,324,0,11,0,
0.1833,-2.7,129.9,146.4,0.3,81.0,-65.1,108.0,-86.4,-2889.9,319.5,15.6,279.6,207.0,-15.6,-56.4,-244.5,-6.3,-4.5,174.3,-179.4,-1.8,137.1,-83.1,126.9,0,330,0,12,0,
0.1867,-3.9,130.5,148.8,-1.8,81.3,-64.8,105.3,-84.3,-2964.0,324.9,18.0,278.4,207.9,-26.1,-66.6,-245.7,-6.6,-5.1,173.1,-175.2,-1.8,136.2,-81.6,130.8,0,336,0,13,0,
0.1900,-5.4,130.2,148.5,0.0,83.7,-65.4,105.0,-83.4,-2964.0,332.1,26.1,283.8,210.6,-19.5,-60.3,-235.8,-6.0,-4.5,175.8,-175.2,-1.8,139.5,-75.3,128.1,0,342,0,14,0,
0.1933,-6.9,127.2,147.3,-1.5,77.4,-66.6,105.9,-84.3,-2964.0,325.8,20.4,280.5,204.6,-21.0,-69.9,-249.3,-6.3,-4.8,171.3,-173.7,-1.5,144.9,-79.2,131.1,0,348,0,15,0,
0.1967,-7.8,122.7,144.6,-5.7,73.8,-72.3,104.4,-87.3,-2889.9,321.0,20.1,276.9,207.0,-21.0,-62.4,-246.0,-6.0,-4.5,166.8,-180.0,-2.1,138.9,-77.1,121.8,0,354,0,16,0,
0.2000,-7.8,126.6,142.5,-4.2,76.2,-65.4,108.9,-83.4,-2964.0,320.7,17.7,278.7,204.9,-22.2,-67.8,-248.1,-6.0,-4.5,170.7,-177.9,-1.8,140.4,-82.8,129.3,0,360,0,17,0,
0.2033,-4.8,125.7,141.9,-7.8,72.3,-68.7,105.9,-88.8,-2889.9,323.4,13.5,274.2,203.7,-21.9,-63.0,-244.5,-6.3,-4.5,168.9,-181.5,-1.5,140.7,-77.1,124.5,0,366,0,18,0,
0.2067,-10.2,123.9,140.4,-9.3,67.5,-69.0,108.0,-87.3,-2964.0,322.2,11.7,274.8,193.8,-24.3,-63.9,-241.5,-6.3,-4.8,169.2,-180.3,-1.8,139.2,-78.0,130.5,0,372,0,19,0,
0.2100,-9.9,122.7,133.8,-14.4,67.2,-68.4,107.1,-92.4,-2889.9,315.9,8.7,271.5,178.2,-26.4,-61.8,-241.2,-6.6,-4.8,162.0,-184.8,-1.5,146.7,-84.6,131.1,0,378,0,20,0,
0.2133,-15.0,117.3,131.4,-20.7,63.0,-74.1,110.1,-95.4,-2889.9,323.4,0.3,265.8,189.3,-31.2,-53.4,-233.7,-6.0,-4.8,158.7,-189.0,-1.5,139.5,-74.4,120.3,0,384,0,21,0,
0.2167,-18.9,115.5,123.9,-28.2,54.9,-80.1,107.1,-101.1,-2964.0,316.8,0.3,263.4,191.7,-25.2,-54.9,-229.5,-6.6,-4.8,156.9,-190.8,-1.8,129.3,-73.8,122.1,0,390,0,22,0,
0.2200,-17.1,115.2,126.0,-26.1,57.6,-78.6,107.7,-96.9,-2889.9,315.0,1.5,267.6,188.4,-18.9,-54.9,-236.1,-6.3,-4.5,157.5,-187.8,-2.1,131.4,-77.1,124.8,0,396,0,23,0,
0.2233,-17.4,117.3,127.2,-21.0,65.1,-70.8,107.1,-97.8,-2889.9,321.0,3.6,270.0,195.0,-21.3,-59.7,-243.3,-6.3,-4.2,162.3,-184.5,-1.8,139.5,-75.0,125.4,0,402,0,24,0,
0.2267,-18.9,111.9,125.4,-24.9,63.3,-76.8,109.8,-96.9,-2964.0,316.5,-9.6,259.8,193.2,-27.3,-51.0,-241.5,-5.7,-4.2,152.1,-190.5,-1.8,135.6,-79.8,121.8,0,408,0,25,0,
0.2300,-24.0,107.7,124.5,-29.1,63.9,-78.3,106.5,-102.3,-2964.0,307.5,-11.4,253.8,187.2,-26.4,-61.5,-242.1,-6.0,-4.2,147.3,-193.8,-1.8,126.3,-81.6,119.7,0,414,0,26,0,
0.2333,-19.8,115.2,127.8,-21.3,68.1,-77.4,107.7,-94.5,-2964.0,310.8,-7.5,260.4,191.7,-33.3,-68.4,-236.4,-6.0,-4.8,150.6,-191.7,-1.8,127.8,-80.4,118.5,0,420,0,27,0,
0.2367,-19.5,113.7,126.3,-21.0,69.6,-73.2,110.1,-91.5,-2964.0,312.0,-1.2,264.0,183.3,-38.7,-72.3,-234.3,-6.3,-4.2,152.4,-192.6,-1.8,134.4,-81.3,123.6,0,426,0,28,0,
0.2400,-21.3,111.3,129.3,-23.1,68.7,-76.2,110.7,-95.1,-3038.1,304.8,-10.8,256.5,176.7,-39.0,-70.2,-234.0,-6.3,-4.5,148.5,-193.2,-1.8,123.3,-79.5,117.6,0,432,0,29,0,
0.2433,-22.8,107.1,127.2,-25.2,61.5,-82.5,108.3,-99.9,-2964.0,297.9,-15.9,251.1,176.7,-39.3,-75.6,-250.5,-6.0,-4.2,143.7,-199.8,-1.8,121.2,-87.9,114.3,0,438,0,30,0,
0.2467,-23.7,104.4,120.9,-28.8,58.8,-84.9,109.2,-100.2,-2964.0,289.2,-18.6,249.3,175.5,-31.8,-66.6,-242.1,-6.0,-4.8,140.7,-205.8,-1.8,111.3,-89.1,112.5,0,444,0,31,0,
0.2500,-21.0,112.5,129.9,-22.8,63.0,-78.9,109.2,-96.0,-2889.9,300.9,-6.0,258.9,183.6,-37.8,-70.5,-243.0,-6.3,-4.8,143.1,-202.5,-1.5,118.8,-87.0,117.6,0,450,0,32,0,
0.2533,-15.3,122.1,141.3,-9.9,73.5,-72.9,114.6,-88.5,-2964.0,309.6,6.0,270.0,182.1,-39.9,-78.9,-250.8,-6.0,-4.5,157.2,-186.0,-1.8,129.0,-90.9,132.6,0,456,0,33,0,
0.2567,-14.7,117.6,138.0,-12.0,66.9,-76.8,110.4,-91.5,-2889.9,309.3,6.3,267.9,182.4,-37.5,-82.5,-255.6,-6.3,-4.5,154.2,-189.3,-1.8,129.3,-93.3,121.5,0,462,0,34,0,
0.2600,-13.5,113.4,135.9,-12.3,64.8,-80.4,108.6,-91.5,-2964.0,308.4,2.1,264.3,186.3,-40.8,-76.8,-245.7,-6.3,-4.5,156.3,-190.8,-1.8,123.3,-85.5,112.8,0,468,0,35,0,
0.2633,-6.9,116.7,138.9,-9.6,69.3,-75.3,113.7,-87.6,-2964.0,313.5,4.8,267.6,182.4,-28.8,-65.1,-248.7,-6.3,-4.8,159.0,-186.3,-1.8,128.4,-88.5,119.4,0,474,0,36,0,
0.2667,-6.6,116.7,140.4,-7.5,74.1,-68.4,112.8,-82.5,-3038.1,313.2,14.1,277.5,186.3,-27.0,-63.9,-246.0,-6.3,-4.2,165.9,-177.9,-1.5,130.8,-85.8,128.4,0,480,0,37,0,
0.2700,-12.6,111.6,129.9,-16.5,67.2,-80.4,109.5,-93.3,-2889.9,308.4,9.9,268.8,198.3,-30.3,-61.5,-247.2,-6.3,-4.5,161.1,-189.0,-1.8,128.4,-85.5,132.3,0,486,0,38,0,
0.2733,-11.4,114.0,131.4,-15.3,72.0,-76.2,108.9,-91.5,-2889.9,307.8,19.5,273.6,196.8,-30.9,-68.7,-245.1,-6.3,-4.5,166.2,-182.1,-1.8,131.7,-86.1,133.5,0,492,0,39,0,
0.2767,-6.6,116.1,133.8,-13.8,74.1,-72.9,106.8,-93.0,-2889.9,323.4,16.8,279.3,196.8,-30.6,-57.3,-242.7,-6.0,-4.8,168.3,-180.6,-1.5,141.9,-89.7,133.5,0,498,0,40,0,
0.2800,-7.5,111.6,126.6,-21.0,69.9,-75.6,103.2,-94.2,-2889.9,308.1,10.5,270.3,193.5,-24.6,-39.9,-233.4,-6.0,-4.5,162.3,-188.1,-1.8,129.0,-93.9,126.3,0,504,0,41,0,
0.2833,-12.0,105.9,118.2,-30.6,62.4,-76.5,102.6,-97.5,-3038.1,306.0,6.3,264.3,182.4,-22.2,-37.8,-221.7,-6.3,-4.5,153.6,-194.1,-1.5,113.7,-90.6,122.1,0,510,0,42,0,
0.2867,-9.9,112.8,121.5,-25.5,68.7,-77.4,102.6,-94.5,-2889.9,311.1,17.7,273.6,191.1,-24.9,-64.8,-249.9,-6.3,-4.5,160.2,-186.6,-1.5,132.3,-102.9,127.8,0,516,0,43,0,
0.2900,-5.4,124.5,139.5,-13.8,84.3,-67.2,109.2,-86.1,-2889.9,334.8,25.8,287.7,206.7,-30.6,-75.6,-249.9,-6.0,-4.5,177.6,-177.3,-1.5,149.7,-96.0,132.9,0,522,0,44,0,
0.2933,-8.1,121.5,131.4,-16.2,76.2,-72.0,108.0,-90.3,-2889.9,315.9,16.8,281.1,198.6,-29.1,-58.5,-246.9,-6.3,-4.8,165.9,-183.9,-1.8,140.7,-98.7,130.2,0,528,0,45,0,
0.2967,-9.0,117.3,137.1,-15.6,73.2,-73.5,108.3,-90.9,-2964.0,319.2,12.6,275.1,194.7,-31.2,-57.0,-235.5,-6.3,-4.8,166.8,-188.4,-1.8,137.7,-95.7,126.9,0,534,0,46,0,
0.3000,-8.4,123.6,141.9,-6.3,78.6,-64.8,110.1,-84.0,-2889.9,327.6,18.9,282.3,204.3,-28.8,-74.4,-240.0,-6.3,-4.5,169.2,-177.0,-2.1,141.0,-93.9,132.3,0,540,0,47,0,
0.3033,-11.1,120.0,143.1,-7.5,82.8,-66.9,107.1,-84.0,-2741.7,325.2,23.1,278.4,199.8,-31.5,-78.9,-251.7,-6.6,-4.5,166.2,-177.3,-1.8,139.8,-97.2,117.9,0,546,0,48,0,
0.3067,-6.6,125.4,145.8,-3.9,82.8,-65.7,108.9,-81.6,-2889.9,321.0,19.8,279.3,204.3,-26.7,-70.8,-252.9,-6.0,-4.5,175.5,-176.4,-1.8,139.5,-99.0,126.0,0,552,0,49,0,
0.3100,-10.2,119.1,141.9,-7.5,75.9,-74.4,104.7,-86.7,-2964.0,321.0,15.3,278.1,201.6,-27.6,-60.9,-244.2,-6.3,-4.5,173.1,-184.2,-1.5,130.5,-103.2,122.7,0,558,0,50,0,
0.3133,-6.0,126.9,149.1,1.5,83.7,-67.2,108.6,-82.2,-2964.0,327.0,26.1,287.1,198.6,-25.5,-68.1,-248.7,-6.3,-4.5,178.5,-174.6,-1.8,140.1,-99.0,129.6,0,564,0,51,0,
0.3167,-8.1,126.0,148.2,-1.8,83.7,-64.8,105.3,-83.4,-2964.0,323.7,25.2,284.4,189.9,-31.2,-71.7,-249.6,-6.3,-4.5,177.9,-171.9,-1.8,140.1,-100.2,132.3,0,570,0,52,0,
0.3200,-12.0,122.4,145.5,-4.8,79.5,-66.3,105.9,-85.5,-2964.0,328.8,24.3,278.1,198.3,-35.7,-70.2,-244.8,-5.7,-4.5,171.3,-178.5,-1.8,135.6,-97.5,129.9,0,576,0,53,0,
0.3233,-16.8,117.0,135.6,-8.4,76.2,-71.1,100.2,-91.8,-2964.0,321.9,18.9,277.8,200.1,-38.4,-66.3,-248.4,-6.3,-4.5,167.7,-183.3,-1.5,134.1,-99.6,123.3,0,582,0,54,0,
0.3267,-10.8,116.1,136.8,-11.7,76.5,-68.7,105.3,-89.4,-2964.0,322.2,14.7,280.8,191.7,-27.6,-58.8,-240.6,-6.0,-4.5,164.7,-180.9,-1.5,135.9,-92.7,126.9,0,588,0,55,0,
0.3300,-12.9,117.3,133.8,-12.9,78.6,-70.8,104.4,-89.1,-2889.9,319.8,16.2,281.4,194.4,-22.8,-53.4,-234.3,-6.0,-4.5,169.2,-177.9,-1.8,137.1,-95.4,131.1,0,594,0,56,0,
0.3333,-8.7,117.0,133.2,-9.6,81.0,-67.8,106.8,-89.7,-2964.0,325.2,23.7,286.2,192.6,-29.7,-60.6,-232.2,-6.3,-4.5,171.9,-171.6,-1.8,150.0,-93.0,131.1,0,600,0,57,0,
0.3367,-13.2,112.8,129.9,-14.1,78.3,-74.1,102.0,-95.1,-2815.8,316.2,14.1,277.5,186.0,-28.5,-57.0,-235.5,-6.3,-4.2,164.4,-175.2,-1.8,130.8,-89.7,121.2,0,606,0,58,0,
0.3400,-9.3,113.7,132.9,-18.9,79.5,-67.2,105.0,-89.7,-2889.9,325.2,14.7,277.2,191.1,-27.9,-50.1,-234.9,-6.0,-4.8,168.9,-171.9,-1.8,147.0,-94.5,129.9,0,612,0,59,0,
0.3433,-15.3,118.2,141.6,-7.8,86.4,-66.0,103.5,-87.3,-2889.9,325.8,24.6,287.1,195.9,-30.6,-58.2,-234.3,-6.3,-4.5,177.6,-168.6,-1.8,143.1,-90.0,125.4,0,618,0,60,0,
0.3467,-14.7,115.5,139.2,-10.8,78.3,-73.2,106.8,-91.8,-2964.0,319.2,26.1,286.2,186.6,-32.1,-54.3,-231.3,-6.3,-4.2,171.6,-172.2,-1.8,146.7,-84.6,123.0,0,624,0,61,0,
0.3500,-14.7,114.0,136.2,-10.2,79.8,-69.3,106.5,-92.1,-2889.9,320.4,19.8,285.6,194.4,-35.4,-58.2,-232.2,-6.6,-4.2,172.5,-172.8,-1.5,145.2,-84.0,123.9,0,630,0,62,0,
0.3533,-15.9,111.3,131.4,-16.5,74.1,-72.0,108.3,-95.1,-3038.1,314.1,16.5,278.1,195.0,-37.2,-60.3,-228.3,-6.0,-4.5,172.2,-178.8,-1.8,136.2,-89.1,126.9,0,636,0,63,0,
0.3567,-15.0,112.5,125.4,-20.4,71.4,-72.0,108.3,-96.6,-2964.0,310.2,14.4,271.5,187.5,-34.8,-57.9,-218.7,-6.3,-4.2,171.3,-185.4,-1.8,134.1,-84.9,117.6,0,642,0,64,0,
0.3600,-14.4,112.5,132.6,-17.7,73.5,-70.5,108.6,-93.3,-2964.0,314.4,15.9,274.5,189.3,-36.0,-68.1,-238.8,-6.3,-4.8,176.7,-182.4,-1.5,128.7,-96.3,116.4,0,648,0,65,0,
0.3633,-15.3,112.5,131.4,-20.4,70.8,-77.1,111.0,-94.5,-3038.1,311.4,15.6,275.1,185.1,-36.9,-57.3,-228.3,-6.6,-4.2,165.3,-190.2,-1.8,129.9,-95.7,116.4,0,654,0,66,0,
0.3667,-8.7,120.3,139.5,-15.3,71.1,-74.4,111.0,-88.2,-2815.8,317.4,19.5,273.9,200.7,-35.1,-64.8,-239.1,-6.0,-4.5,168.0,-189.9,-1.8,133.8,-92.4,116.1,0,660,0,67,0,
0.3700,-8.4,118.8,137.1,-18.6,69.3,-73.2,111.6,-90.3,-2889.9,316.2,12.9,268.2,191.4,-28.5,-61.5,-234.6,-6.6,-4.5,170.1,-189.9,-2.1,132.6,-91.5,117.9,0,666,0,68,0,
0.3733,-6.0,120.0,138.6,-14.7,71.4,-67.2,112.8,-89.4,-2964.0,319.8,17.7,278.1,195.6,-23.7,-60.3,-231.9,-6.3,-4.2,172.2,-180.0,-1.8,134.7,-90.6,131.1,0,672,0,69,0,
0.3767,-5.1,119.7,133.5,-14.7,69.6,-66.6,114.3,-91.2,-2964.0,316.5,21.9,274.8,205.5,-21.6,-56.7,-233.1,-6.0,-4.2,172.5,-183.9,-1.5,132.9,-87.9,130.5,0,678,0,70,0,
0.3800,-0.9,122.7,134.4,-15.0,69.0,-68.4,112.5,-90.9,-3038.1,318.9,17.7,274.2,207.0,-23.1,-57.0,-242.7,-6.3,-4.5,170.1,-185.1,-1.5,136.2,-95.1,125.1,0,684,0,71,0,
0.3833,-0.3,124.5,138.3,-9.0,69.6,-67.2,112.2,-87.0,-2889.9,323.7,20.4,277.5,209.1,-20.1,-57.3,-243.0,-6.3,-4.5,175.5,-182.1,-1.5,142.8,-90.3,122.1,0,690,0,72,0,
0.3867,-2.7,126.6,140.7,-7.2,72.9,-66.3,107.1,-89.1,-2964.0,328.2,24.6,282.0,205.2,-22.2,-70.2,-244.8,-6.0,-4.8,175.8,-174.6,-1.5,140.1,-92.4,131.1,0,696,0,73,0,
0.3900,-3.3,127.5,141.3,-6.9,74.4,-60.3,110.7,-85.2,-3038.1,324.0,22.2,279.6,206.1,-29.4,-67.2,-237.3,-6.3,-4.5,175.8,-173.7,-1.5,138.3,-86.7,134.7,0,702,0,74,0,
0.3933,0.9,130.2,142.2,-10.5,74.1,-63.0,110.1,-87.3,-2889.9,320.7,19.8,279.6,212.4,-21.0,-65.7,-245.7,-6.0,-4.5,179.7,-175.2,-1.8,136.2,-90.0,131.1,0,708,0,75,0,
0.3967,-2.1,127.5,145.2,-7.8,74.7,-65.4,110.1,-85.8,-2889.9,330.6,26.7,285.0,209.4,-21.3,-60.0,-247.8,-6.3,-4.5,178.2,-171.9,-1.8,137.7,-90.3,132.0,0,714,0,76,0,
0.4000,1.2,128.4,143.7,-6.3,74.4,-62.1,108.9,-85.8,-2815.8,323.7,24.3,286.2,216.9,-14.7,-49.5,-245.4,-6.3,-4.5,177.0,-173.4,-1.8,133.8,-89.7,132.6,0,720,0,77,0,
0.4033,1.2,128.7,148.2,-5.7,78.9,-63.0,109.8,-81.9,-2964.0,335.4,27.6,289.5,218.1,-17.1,-62.7,-243.3,-6.3,-4.8,179.7,-171.0,-1.8,136.5,-90.0,130.5,0,726,0,78,0,
0.4067,0.0,128.1,143.1,-10.8,76.8,-68.1,105.3,-86.1,-2889.9,334.5,27.3,284.4,216.0,-14.7,-52.5,-238.5,-6.3,-4.2,181.8,-176.4,-1.8,133.2,-88.5,129.9,0,732,0,79,0,
0.4100,0.6,127.5,144.0,-10.2,75.3,-68.7,106.8,-85.2,-2964.0,328.2,21.6,282.6,207.6,-19.5,-51.6,-233.4,-6.6,-4.2,178.8,-174.9,-1.8,128.1,-92.7,129.3,0,738,0,80,0,
0.4133,-1.5,126.3,144.9,-9.3,75.6,-67.2,106.8,-86.4,-3038.1,328.8,20.4,280.8,209.4,-17.1,-41.4,-234.9,-6.0,-4.2,172.8,-176.1,-1.8,130.5,-87.0,124.8,0,744,0,81,0,
0.4167,-3.9,130.2,150.0,-5.4,79.8,-63.3,111.3,-82.5,-2889.9,336.9,24.6,284.7,219.0,-20.7,-51.0,-232.8,-6.3,-4.5,180.9,-175.5,-1.8,130.8,-85.5,132.6,0,750,0,82,0,
0.4200,-2.1,122.4,146.4,-7.5,79.2,-62.7,110.1,-82.2,-2889.9,325.2,25.5,282.0,214.2,-19.5,-60.3,-227.1,-5.7,-4.5,181.5,-174.3,-1.5,132.9,-81.3,130.8,0,756,0,83,0,
0.4233,-2.1,127.2,152.4,-0.3,87.6,-57.6,114.6,-78.6,-2889.9,326.1,28.5,287.1,208.5,-26.4,-71.1,-239.7,-6.0,-4.5,186.3,-168.9,-1.5,146.7,-84.0,130.2,0,762,0,84,0,
0.4267,-9.3,122.1,143.1,-5.7,83.7,-60.3,112.8,-81.9,-3112.2,315.9,27.9,279.6,205.2,-29.7,-66.0,-240.6,-6.6,-4.5,177.9,-172.8,-1.8,137.1,-86.7,124.2,0,768,0,85,0,
0.4300,-10.2,121.5,143.1,-7.2,79.8,-65.1,112.5,-81.9,-2889.9,317.1,18.9,276.0,195.9,-27.0,-58.5,-236.7,-6.0,-4.8,172.8,-179.1,-1.8,136.5,-87.3,126.0,0,774,0,86,0,
0.4333,-10.8,123.9,147.6,-4.5,81.3,-60.3,117.3,-83.7,-2815.8,317.4,17.4,282.3,195.9,-29.4,-67.8,-240.3,-6.0,-4.8,171.3,-176.4,-1.8,135.9,-84.0,128.7,0,780,0,87,0,
0.4367,-7.5,122.7,148.2,-6.9,79.5,-58.5,117.0,-79.8,-2815.8,320.4,23.4,282.9,199.8,-31.2,-62.1,-229.5,-5.7,-4.2,176.7,-170.7,-1.5,137.4,-78.0,136.8,0,786,0,88,0,
0.4400,-9.3,119.7,145.2,-9.9,77.1,-64.2,114.3,-85.8,-2815.8,314.1,19.2,278.1,201.0,-29.4,-56.7,-232.5,-6.3,-4.5,175.2,-174.3,-1.8,133.2,-81.0,128.1,0,792,0,89,0,
0.4433,-9.9,119.7,143.4,-7.2,79.8,-62.4,115.2,-82.5,-2889.9,313.5,27.3,285.9,199.8,-27.9,-64.2,-244.5,-6.3,-4.5,173.7,-167.7,-1.8,136.2,-81.6,133.8,0,798,0,90,0,
0.4467,-12.6,117.9,143.4,-4.5,83.7,-60.6,115.8,-84.0,-2889.9,310.8,21.6,281.4,199.8,-24.0,-55.8,-239.7,-6.3,-4.8,170.7,-170.1,-1.8,128.7,-83.1,135.0,0,804,0,91,0,
0.4500,-11.4,119.4,140.7,-0.9,86.7,-58.5,114.3,-81.6,-2815.8,315.9,26.4,289.5,202.5,-28.8,-66.0,-246.9,-6.0,-4.5,175.8,-160.8,-1.8,135.0,-85.2,134.4,0,810,0,92,0,
0.4533,-9.0,120.3,142.5,-5.4,84.6,-64.5,111.3,-84.3,-2815.8,321.0,20.7,283.8,199.5,-26.7,-62.7,-243.3,-6.3,-4.2,172.2,-167.4,-1.8,136.8,-85.2,126.3,0,816,0,93,0,
0.4567,-8.1,117.0,138.9,-6.3,81.9,-64.2,109.8,-86.4,-2964.0,310.5,18.3,279.3,202.2,-29.7,-64.5,-247.2,-6.0,-4.5,168.9,-168.0,-1.8,133.5,-84.3,132.3,0,822,0,94,0,
0.4600,-5.4,123.3,145.2,-1.8,82.8,-61.8,114.0,-80.4,-2889.9,325.2,21.3,284.7,202.5,-28.8,-62.7,-244.5,-6.0,-4.5,173.7,-166.2,-1.8,141.9,-82.5,135.9,0,828,0,95,0,
0.4633,-6.6,121.2,135.9,-9.0,74.4,-66.9,111.6,-89.1,-2964.0,314.1,14.1,281.1,194.1,-25.5,-54.6,-239.4,-6.0,-4.5,166.2,-171.6,-1.5,127.8,-84.3,130.8,0,834,0,96,0,
0.4667,-2.1,124.2,143.4,-7.8,75.9,-66.6,109.2,-84.9,-2889.9,315.3,13.5,280.5,208.2,-27.3,-60.3,-244.8,-6.0,-4.5,168.6,-171.3,-1.5,134.7,-88.2,132.3,0,840,0,97,0,
0.4700,-2.1,123.9,141.0,-10.2,75.0,-66.9,107.7,-85.5,-2964.0,319.5,10.5,273.6,211.5,-24.6,-60.6,-244.5,-6.3,-4.5,163.2,-177.0,-1.8,132.3,-86.7,124.8,0,846,0,98,0,
0.4733,-0.6,131.1,149.4,-8.7,73.8,-67.8,107.4,-84.6,-2815.8,314.4,11.4,273.6,214.2,-23.1,-56.7,-246.0,-6.0,-4.2,172.2,-177.9,-1.8,133.8,-90.0,126.0,0,852,0,99,0,
0.4767,-3.3,122.4,141.9,-15.6,73.5,-67.5,104.7,-88.8,-2964.0,318.9,12.0,276.0,212.4,-21.3,-57.9,-243.3,-6.0,-4.8,159.6,-178.8,-1.8,133.2,-95.1,122.1,0,858,0,100,0,
0.4800,0.3,125.4,142.8,-17.4,69.0,-68.7,104.7,-91.8,-3112.2,315.0,11.1,270.0,210.9,-22.8,-60.3,-235.8,-6.3,-4.5,159.3,-189.0,-2.1,126.3,-89.1,113.7,0,864,0,101,0,
0.4833,-3.3,121.2,138.0,-20.4,64.5,-71.4,102.9,-92.7,-2964.0,309.3,9.9,269.1,199.8,-28.8,-63.3,-237.3,-6.0,-4.5,161.4,-186.6,-2.1,117.9,-94.8,111.6,0,870,0,102,0,
0.4867,-3.3,124.2,138.0,-20.4,69.6,-74.1,107.4,-90.9,-2815.8,314.7,14.7,271.8,203.4,-21.9,-57.3,-240.6,-6.3,-4.2,170.7,-181.5,-1.8,120.6,-94.8,110.7,0,876,0,103,0,
0.4900,-3.9,126.3,144.3,-10.8,78.9,-61.8,111.6,-84.9,-2889.9,321.9,18.9,282.9,212.1,-42.0,-80.1,-244.8,-6.0,-4.5,174.6,-172.8,-1.8,123.0,-91.8,116.1,0,882,0,104,0,
0.4933,1.5,128.7,140.4,-12.0,77.4,-59.7,113.1,-84.3,-2964.0,311.4,11.7,274.5,222.9,-31.8,-71.4,-240.3,-6.3,-4.5,168.0,-180.6,-1.5,123.9,-87.6,117.6,0,888,0,105,0,
0.4967,-2.7,124.5,143.7,-11.1,76.8,-61.2,113.1,-83.7,-2964.0,320.1,14.1,280.5,208.8,-37.2,-75.3,-243.6,-6.3,-4.5,160.5,-177.6,-1.8,130.8,-86.7,132.3,0,894,0,106,0,
0.5000,-1.5,126.6,147.0,-11.7,77.1,-60.9,111.0,-81.3,-2889.9,321.0,16.2,284.7,218.7,-28.2,-73.5,-244.2,-6.0,-4.5,172.8,-171.3,-1.8,132.9,-82.5,127.5,0,900,0,107,0,
0.5033,0.3,131.4,148.8,-7.8,84.9,-58.8,113.1,-78.6,-2889.9,324.0,24.3,287.7,220.2,-29.4,-71.1,-242.1,-6.0,-4.5,181.2,-166.8,-1.5,137.1,-80.7,131.4,0,906,0,108,0,
0.5067,0.0,131.1,148.5,-8.1,85.8,-62.1,112.8,-81.3,-2964.0,324.6,29.4,286.5,219.6,-23.7,-57.9,-234.0,-6.0,-4.2,186.6,-165.0,-1.8,136.5,-76.5,137.4,0,912,0,109,0,
0.5100,1.5,129.0,144.3,-6.9,84.0,-64.8,110.4,-85.2,-2889.9,325.8,32.1,291.0,215.4,-26.4,-58.8,-234.6,-6.0,-4.8,183.9,-165.3,-1.8,140.1,-73.5,134.1,0,918,0,110,0,
0.5133,3.3,136.8,150.3,-3.9,87.6,-61.8,109.2,-83.1,-2815.8,332.1,36.9,296.4,211.5,-27.3,-67.8,-253.5,-6.3,-4.2,189.6,-163.2,-1.8,146.7,-79.8,140.1,0,924,0,111,0,
0.5167,3.3,135.6,153.0,2.4,89.1,-60.3,112.8,-81.6,-2964.0,337.5,40.5,300.6,210.0,-25.8,-63.9,-241.8,-6.3,-4.5,190.5,-158.4,-1.8,155.1,-74.1,141.3,0,930,0,112,0,
0.5200,4.5,136.2,153.6,-0.9,87.6,-61.5,105.9,-82.5,-2815.8,328.2,36.3,294.3,218.1,-18.0,-49.5,-242.1,-6.0,-4.2,184.8,-160.8,-1.5,145.2,-78.9,135.0,0,936,0,113,0,
0.5233,0.9,129.3,149.4,-1.8,81.3,-65.4,105.6,-80.7,-2889.9,331.5,26.1,288.0,219.0,-19.8,-51.3,-239.7,-6.3,-4.5,178.2,-164.4,-1.8,144.6,-76.8,131.7,0,942,0,114,0,
0.5267,3.3,134.1,159.0,2.4,92.7,-57.0,108.6,-74.4,-2889.9,342.0,37.5,300.0,223.2,-24.3,-71.7,-257.7,-6.0,-4.5,193.2,-158.1,-1.8,153.6,-75.6,138.9,0,948,0,115,0,
0.5300,-1.2,129.3,145.5,2.1,88.8,-59.4,108.9,-79.2,-2889.9,324.0,33.9,297.6,213.9,-18.6,-54.6,-244.8,-6.3,-4.5,180.6,-159.3,-1.5,152.7,-73.5,135.0,0,954,0,116,0,
0.5333,-3.9,129.9,150.3,1.2,87.6,-57.0,111.0,-79.8,-2964.0,331.2,32.7,294.3,211.5,-24.9,-53.4,-243.9,-6.0,-4.5,179.1,-163.8,-1.5,146.4,-76.5,136.2,0,960,0,117,0,
0.5367,-6.3,123.3,147.3,-0.3,86.7,-53.7,111.3,-80.1,-2889.9,330.9,27.0,286.8,206.4,-27.3,-59.7,-238.2,-6.3,-4.5,174.9,-164.4,-2.1,149.1,-74.4,131.4,0,966,0,118,0,
0.5400,-8.1,123.3,144.9,-2.1,88.5,-54.6,113.4,-78.9,-2815.8,325.2,24.3,285.9,204.6,-33.3,-59.1,-235.8,-6.0,-4.8,176.1,-164.1,-1.5,145.8,-71.4,127.8,0,972,0,119,0,
0.5433,-6.6,119.7,143.4,-2.7,84.3,-60.0,111.0,-79.5,-3038.1,324.9,20.7,284.1,207.6,-33.0,-60.9,-250.2,-6.6,-4.2,169.5,-162.6,-1.8,145.8,-71.7,133.5,0,978,0,120,0,
0.5467,-3.9,118.8,147.0,-4.2,84.3,-60.6,107.4,-78.3,-2964.0,325.8,19.8,280.5,207.6,-21.3,-52.5,-248.1,-6.0,-4.5,171.9,-166.2,-1.8,144.6,-72.0,134.4,0,984,0,121,0,
0.5500,-8.1,120.9,148.8,-5.4,81.9,-57.9,107.4,-79.8,-2815.8,324.9,18.9,290.4,207.9,-27.0,-59.7,-245.4,-6.3,-4.2,171.0,-160.8,-2.1,149.1,-70.5,138.0,0,990,0,122,0,
0.5533,-3.9,122.7,147.0,-3.3,85.5,-57.3,108.6,-78.3,-2889.9,329.1,19.8,287.4,214.2,-22.5,-62.1,-244.2,-6.0,-4.8,171.0,-163.5,-1.5,142.2,-69.9,141.3,0,996,0,123,0,
0.5567,-3.6,121.8,147.9,-6.0,81.9,-62.1,110.1,-80.1,-2889.9,324.6,12.6,279.9,215.7,-26.4,-60.0,-237.9,-6.3,-4.5,169.2,-167.4,-1.5,145.8,-75.9,129.0,0,1002,0,124,0,
0.5600,0.9,129.9,149.4,-4.8,84.0,-61.2,110.4,-79.8,-2889.9,328.8,20.1,285.0,220.2,-19.2,-57.0,-239.4,-6.3,-4.5,173.4,-165.3,-1.5,146.1,-72.3,127.8,0,1008,0,125,0,
0.5633,0.6,127.8,150.9,-4.5,81.9,-61.8,109.2,-81.3,-2964.0,328.8,24.9,289.5,217.8,-15.3,-51.3,-239.4,-6.3,-4.2,180.9,-162.0,-1.8,153.0,-73.8,129.3,0,1014,0,126,0,
0.5667,3.6,127.8,149.4,-2.7,83.1,-57.9,110.4,-82.8,-2815.8,335.4,21.0,287.7,213.6,-18.9,-57.9,-238.2,-6.0,-4.8,188.1,-161.1,-1.5,153.3,-73.8,136.8,0,1020,0,127,0,
0.5700,4.8,124.8,147.3,-4.2,85.5,-60.6,109.8,-80.7,-2964.0,331.8,18.3,286.2,208.5,-17.4,-53.1,-240.3,-5.7,-4.5,180.3,-159.9,-1.8,150.3,-72.6,140.1,0,1026,0,128,0,
0.5733,6.6,129.0,147.0,-10.2,84.6,-61.8,107.7,-83.4,-2964.0,337.2,15.6,281.4,216.6,-9.3,-46.5,-239.1,-6.0,-4.5,174.3,-166.2,-1.5,138.6,-73.5,136.5,0,1032,0,129,0,
0.5767,3.9,123.0,142.8,-10.5,84.6,-63.0,111.0,-81.6,-2889.9,326.7,20.7,278.4,217.8,-11.1,-44.7,-242.1,-6.0,-4.2,173.7,-167.4,-1.8,142.5,-79.8,133.8,0,1038,0,130,0,
0.5800,5.7,123.9,138.3,-11.4,86.7,-58.8,110.7,-83.4,-2889.9,327.3,16.8,279.0,216.6,-17.4,-54.9,-246.9,-6.3,-4.5,174.3,-167.7,-1.8,144.9,-74.1,135.0,0,1044,0,131,0,
0.5833,0.6,120.9,138.0,-11.1,84.9,-58.2,113.7,-85.5,-2964.0,323.7,16.8,282.0,213.0,-23.4,-60.0,-236.7,-6.0,-4.2,171.3,-167.7,-1.8,146.7,-70.5,134.1,0,1050,0,132,0,
0.5867,2.7,121.8,139.5,-8.4,84.3,-54.0,112.8,-84.3,-2964.0,326.4,12.6,282.6,211.8,-20.7,-51.6,-232.8,-6.3,-4.8,169.2,-165.0,-1.5,143.4,-62.4,132.9,0,1056,0,133,0,
0.5900,1.5,122.1,142.5,-9.0,83.7,-57.9,111.3,-82.2,-2964.0,325.2,13.2,278.7,211.5,-13.8,-49.8,-253.2,-6.0,-4.5,169.2,-163.2,-1.5,150.3,-69.6,128.7,0,1062,0,134,0,
0.5933,-1.8,121.5,141.0,-11.4,78.6,-56.7,111.0,-87.0,-2889.9,319.5,5.4,277.5,204.9,-21.9,-49.2,-236.1,-6.3,-4.8,168.9,-167.7,-1.5,142.8,-68.1,123.0,0,1068,0,135,0,
0.5967,1.8,125.4,144.3,-5.4,84.3,-56.1,116.1,-83.1,-3038.1,319.5,14.7,274.2,201.6,-24.0,-57.3,-245.4,-6.0,-4.5,168.6,-166.2,-1.8,138.0,-67.8,132.6,0,1074,0,136,0,
0.6000,0.6,124.5,150.6,-3.3,83.4,-55.8,117.6,-83.4,-2964.0,319.2,14.4,274.8,196.8,-29.7,-66.6,-247.2,-6.3,-4.8,173.4,-170.1,-1.8,140.1,-68.7,128.4,0,1080,0,137,0,
0.6033,-1.2,122.7,146.7,-8.1,77.4,-61.2,114.0,-88.8,-2815.8,322.2,15.3,276.6,208.5,-25.8,-68.4,-251.4,-6.0,-4.2,174.3,-169.8,-1.5,138.9,-73.2,130.5,0,1086,0,138,0,
0.6067,-0.3,124.2,147.0,-7.5,74.1,-62.7,112.8,-90.3,-2964.0,321.3,11.7,276.6,205.2,-33.0,-73.2,-253.8,-6.3,-4.2,176.1,-172.5,-1.5,140.1,-80.1,129.0,0,1092,0,139,0,
0.6100,-2.7,121.8,138.0,-14.4,69.3,-66.9,110.4,-89.7,-2889.9,317.7,10.2,274.8,202.2,-28.5,-69.6,-245.1,-6.0,-4.5,171.6,-176.4,-1.5,131.1,-75.0,126.9,0,1098,0,140,0,
0.6133,0.0,124.8,142.8,-9.6,67.2,-64.8,112.5,-89.1,-2964.0,321.3,18.6,275.4,204.3,-32.7,-69.9,-255.0,-6.3,-4.5,177.3,-176.1,-1.5,132.0,-82.2,123.3,0,1104,0,141,0,
0.6167,-0.3,119.4,138.9,-14.7,67.8,-71.7,106.8,-92.1,-2815.8,314.7,13.2,276.0,185.4,-30.3,-73.8,-253.8,-6.0,-4.5,166.2,-177.9,-1.8,127.8,-83.4,119.7,0,1110,0,142,0,
0.6200,3.6,123.0,143.7,-12.0,74.7,-65.7,109.5,-87.0,-2889.9,317.4,18.3,279.9,196.5,-28.5,-70.8,-254.1,-6.3,-4.2,172.5,-174.9,-1.8,129.3,-83.1,124.5,0,1116,0,143,0,
0.6233,-0.6,124.2,143.1,-12.3,72.3,-67.2,108.6,-89.4,-2964.0,317.4,15.0,279.0,209.1,-21.6,-59.1,-250.8,-6.0,-4.5,166.8,-173.4,-1.8,126.3,-82.8,118.2,0,1122,0,144,0,
0.6267,3.3,132.3,148.2,-4.8,80.4,-59.7,112.5,-83.4,-2889.9,324.0,23.4,285.9,213.6,-27.0,-66.0,-257.4,-6.0,-4.2,177.9,-169.2,-1.5,138.0,-82.8,123.9,0,1128,0,145,0,
0.6300,4.8,133.2,148.2,0.9,84.3,-55.8,112.8,-78.6,-2964.0,317.7,21.9,288.6,214.8,-25.8,-63.0,-256.8,-6.3,-4.8,186.3,-169.2,-1.8,135.0,-81.0,131.7,0,1134,0,146,0,
0.6333,3.3,131.7,152.1,2.1,85.8,-55.2,114.9,-75.9,-2815.8,323.1,19.5,288.3,212.1,-21.6,-70.2,-257.1,-6.6,-4.2,184.8,-167.1,-1.8,134.4,-84.6,137.4,0,1140,0,147,0,
0.6367,2.1,130.5,148.2,0.6,86.7,-50.1,116.1,-78.0,-2964.0,326.4,23.4,285.6,211.5,-16.8,-60.6,-252.9,-6.0,-4.5,183.6,-168.6,-1.8,138.0,-81.0,133.5,0,1146,0,148,0,
0.6400,-1.5,126.3,144.6,2.1,86.7,-56.4,114.9,-78.3,-2889.9,321.6,27.3,285.0,208.2,-27.6,-71.1,-254.7,-6.6,-4.5,181.2,-168.9,-1.5,142.8,-84.9,134.7,0,1152,0,149,0,
0.6433,-1.5,126.6,138.9,-1.8,80.4,-59.4,114.0,-80.7,-2964.0,324.0,20.7,282.3,202.5,-21.6,-61.8,-247.5,-6.3,-4.5,180.0,-170.4,-1.5,132.9,-81.0,136.2,0,1158,0,150,0,
0.6467,-5.7,123.0,136.5,-5.4,81.0,-61.8,111.6,-86.7,-2815.8,316.8,16.8,280.8,192.9,-29.7,-73.8,-254.7,-6.0,-4.2,174.6,-173.4,-1.8,135.3,-86.4,127.2,0,1164,0,151,0,
0.6500,-2.4,122.7,134.1,-8.4,78.0,-56.1,114.0,-86.1,-3038.1,320.1,13.5,275.4,193.8,-28.5,-72.3,-252.9,-6.3,-4.5,171.0,-177.0,-1.8,132.3,-81.6,128.4,0,1170,0,152,0,
0.6533,-3.0,121.2,137.1,-9.6,80.1,-57.3,116.4,-86.4,-2889.9,318.9,15.3,273.6,203.4,-29.7,-69.0,-250.8,-6.0,-4.5,166.2,-174.9,-1.5,127.2,-87.9,126.9,0,1176,0,153,0,
0.6567,-7.2,113.1,129.0,-18.3,68.4,-67.2,114.0,-95.1,-2815.8,309.3,3.9,264.0,196.8,-26.7,-54.6,-238.5,-6.3,-4.5,162.9,-185.4,-1.5,119.4,-84.3,114.9,0,1182,0,154,0,
0.6600,-6.6,111.0,126.9,-17.1,70.8,-65.1,113.7,-96.0,-2964.0,306.3,3.9,265.5,196.8,-32.4,-56.7,-232.5,-6.3,-4.5,160.8,-180.3,-1.8,125.4,-83.7,125.1,0,1188,0,155,0,
0.6633,-5.1,116.7,126.6,-14.4,76.8,-58.8,117.9,-90.0,-3038.1,312.6,3.3,272.4,187.2,-41.7,-71.1,-246.6,-6.6,-4.8,158.7,-181.5,-1.8,123.6,-79.5,128.1,0,1194,0,156,0,
0.6667,-2.1,120.3,131.7,-11.4,76.8,-59.7,118.8,-84.6,-2964.0,313.8,10.5,270.3,189.0,-39.3,-72.3,-251.7,-5.7,-4.5,162.9,-182.1,-1.8,131.7,-82.5,124.2,0,1200,0,157,0,
0.6700,0.3,124.2,134.1,-8.7,75.0,-60.6,118.8,-87.0,-2815.8,320.7,4.5,272.1,192.0,-37.8,-72.0,-239.7,-6.3,-4.8,165.9,-175.8,-2.1,126.3,-75.0,130.2,0,1206,0,158,0,
0.6733,0.9,121.2,133.8,-10.2,77.1,-58.5,119.4,-86.4,-2889.9,312.0,6.9,271.8,186.6,-37.2,-67.8,-239.4,-6.0,-4.2,162.9,-175.5,-2.1,126.9,-76.5,128.7,0,1212,0,159,0,
0.6767,-3.0,119.4,130.2,-12.6,75.6,-58.2,115.8,-90.6,-2889.9,311.1,8.4,268.8,190.8,-35.4,-61.2,-239.1,-6.3,-4.5,157.2,-178.8,-1.8,128.1,-80.1,126.6,0,1218,0,160,0,
0.6800,0.3,122.7,131.1,-12.6,78.6,-57.9,115.5,-86.7,-3038.1,318.9,15.9,273.3,192.6,-30.3,-66.0,-244.5,-6.0,-4.8,165.3,-175.8,-1.8,129.9,-80.7,124.8,0,1224,0,161,0,
0.6833,1.2,125.4,136.2,-6.0,80.4,-57.0,116.7,-84.3,-2889.9,328.8,15.6,276.3,196.8,-29.7,-72.3,-252.6,-6.6,-4.5,167.4,-172.2,-1.5,132.0,-86.1,125.4,0,1230,0,162,0,
0.6867,4.5,127.2,137.7,-2.7,85.5,-56.1,116.7,-78.0,-2964.0,317.7,13.2,274.8,201.3,-21.0,-63.6,-248.7,-6.3,-4.8,169.2,-172.5,-1.8,135.0,-82.5,123.9,0,1236,0,163,0,
0.6900,4.5,126.0,141.0,-6.0,84.9,-57.9,115.8,-80.4,-2964.0,324.6,11.1,274.5,200.1,-22.8,-61.8,-248.1,-6.3,-4.5,169.5,-170.7,-1.5,132.3,-89.4,123.0,0,1242,0,164,0,
0.6933,4.5,128.1,141.6,-1.2,83.4,-56.7,119.7,-80.4,-2815.8,321.3,9.9,282.6,205.2,-24.9,-57.0,-240.0,-6.3,-4.5,170.1,-167.4,-2.1,139.8,-87.0,126.9,0,1248,0,165,0,
0.6967,-1.8,119.7,129.6,-13.5,75.6,-63.3,108.0,-93.0,-2889.9,306.6,1.8,273.6,197.7,-27.0,-53.1,-242.4,-6.0,-4.5,162.6,-174.9,-1.8,132.3,-87.6,119.4,0,1254,0,166,0,
0.7000,2.4,124.8,135.6,-6.3,74.7,-60.3,112.5,-87.9,-2889.9,315.3,15.0,279.6,194.7,-21.6,-58.5,-250.2,-6.3,-4.2,170.4,-174.3,-1.8,141.0,-87.0,118.8,0,1260,0,167,0,
0.7033,3.0,124.5,137.7,-6.6,77.7,-58.2,115.8,-86.4,-2889.9,327.0,15.6,278.4,195.0,-19.5,-53.7,-245.7,-6.3,-4.2,172.8,-169.2,-1.5,136.2,-85.5,129.6,0,1266,0,168,0,
0.7067,1.2,123.6,137.1,-6.0,79.2,-60.3,114.0,-83.4,-2889.9,328.2,20.7,281.7,192.3,-26.7,-58.8,-237.3,-6.0,-4.5,174.0,-170.4,-2.1,136.8,-81.0,135.6,0,1272,0,169,0,
0.7100,1.2,122.4,135.0,-11.7,71.4,-64.2,116.7,-88.8,-2964.0,325.2,18.9,279.0,204.9,-17.4,-46.5,-230.7,-6.3,-4.5,167.4,-174.3,-1.8,137.1,-81.9,125.1,0,1278,0,170,0,
0.7133,0.9,123.3,139.2,-0.3,75.9,-61.2,119.4,-87.9,-2964.0,332.7,24.0,286.5,201.3,-18.9,-51.0,-236.7,-6.3,-4.8,174.6,-165.9,-1.8,148.5,-78.3,134.4,0,1284,0,171,0,
0.7167,-0.9,120.0,135.3,-5.7,78.6,-56.7,116.7,-87.9,-2889.9,338.1,20.7,284.1,198.3,-23.7,-55.2,-239.4,-6.3,-4.2,168.6,-167.1,-1.5,141.6,-84.0,132.3,0,1290,0,172,0,
0.7200,4.2,123.9,136.5,-3.0,78.6,-58.2,119.4,-88.5,-2815.8,325.2,16.8,277.5,199.2,-19.2,-43.5,-236.1,-6.0,-4.8,169.8,-168.9,-1.8,142.5,-80.1,134.7,0,1296,0,173,0,
0.7233,2.7,122.7,132.0,-9.6,70.5,-62.1,115.2,-90.0,-2889.9,314.1,5.1,267.3,206.7,-15.3,-39.6,-236.4,-6.3,-4.5,161.7,-180.3,-1.2,129.9,-82.8,127.5,0,1302,0,174,0,
0.7267,0.6,120.6,130.8,-8.4,73.2,-62.7,118.8,-87.3,-3038.1,320.4,6.3,274.5,198.0,-30.6,-65.4,-240.0,-6.3,-4.5,161.7,-172.5,-1.8,139.2,-75.6,127.2,0,1308,0,175,0,
0.7300,0.0,117.6,132.9,-6.0,77.1,-60.6,115.8,-86.7,-2889.9,317.4,12.0,277.5,195.3,-38.4,-73.5,-241.5,-6.0,-4.5,162.3,-171.6,-1.2,134.1,-75.6,135.6,0,1314,0,176,0,
0.7333,2.4,116.7,135.0,-5.7,74.7,-61.8,116.7,-90.0,-2964.0,312.9,10.8,275.1,195.3,-36.0,-67.2,-231.3,-6.0,-4.5,164.4,-174.0,-1.5,136.2,-72.6,131.1,0,1320,0,177,0,
0.7367,-0.6,120.9,137.7,-3.9,78.6,-59.1,116.4,-84.6,-2889.9,321.9,17.7,280.2,201.6,-40.8,-75.6,-255.0,-6.0,-4.5,171.0,-173.4,-1.5,132.9,-74.4,129.0,0,1326,0,178,0,
0.7400,-0.3,117.9,138.6,-5.4,79.5,-60.6,115.2,-86.4,-3038.1,316.2,11.7,277.5,195.0,-29.4,-67.8,-255.6,-6.3,-4.5,167.4,-175.2,-1.5,138.0,-80.1,127.5,0,1332,0,179,0,
0.7433,5.1,127.2,141.6,-0.9,81.0,-56.1,114.6,-82.5,-2815.8,315.6,10.8,277.8,189.3,-24.9,-68.1,-263.4,-6.0,-4.5,171.3,-172.2,-1.5,136.8,-81.9,123.6,0,1338,0,180,0,
0.7467,3.3,127.2,139.8,-1.8,81.6,-60.6,114.9,-81.9,-3038.1,314.7,13.8,275.7,191.4,-34.8,-76.8,-258.0,-6.3,-4.5,166.8,-174.9,-1.5,131.1,-88.2,122.7,0,1344,0,181,0,
0.7500,4.8,129.6,137.7,-3.0,79.2,-58.8,115.8,-78.3,-2964.0,318.0,15.3,277.2,195.3,-27.9,-71.7,-260.4,-6.3,-4.2,168.9,-171.9,-1.8,138.6,-87.3,126.9,0,1350,0,182,0,
0.7533,6.6,134.1,142.8,0.3,78.0,-59.1,116.4,-80.7,-2889.9,315.3,17.7,276.9,201.0,-24.9,-60.6,-255.3,-6.3,-4.5,169.8,-172.5,-1.8,133.2,-88.5,127.2,0,1356,0,183,0,
0.7567,3.9,131.1,141.0,-0.3,76.5,-59.4,114.6,-82.5,-2815.8,321.0,21.3,275.7,200.7,-25.8,-67.8,-263.7,-6.3,-4.5,172.8,-173.1,-1.8,134.1,-87.9,126.6,0,1362,0,184,0,
0.7600,3.9,131.4,144.0,0.6,81.3,-59.4,116.4,-83.1,-2889.9,324.0,22.8,277.2,196.8,-30.6,-69.6,-256.2,-6.0,-4.8,174.0,-172.8,-1.8,135.9,-83.7,133.5,0,1368,0,185,0,
0.7633,7.8,132.9,144.0,1.2,79.8,-58.8,113.4,-81.0,-2889.9,323.1,21.0,280.8,203.1,-28.2,-59.4,-248.7,-6.6,-4.2,173.1,-169.8,-1.8,141.9,-86.7,130.5,0,1374,0,186,0,
0.7667,4.8,128.4,141.6,-1.2,80.1,-60.3,111.9,-81.6,-2964.0,316.2,17.7,281.7,196.8,-32.1,-63.0,-256.5,-6.0,-4.5,169.8,-169.8,-1.8,138.6,-92.4,124.2,0,1380,0,187,0,
0.7700,6.6,133.8,140.1,-0.9,79.8,-57.9,114.3,-80.1,-2889.9,324.3,18.9,280.2,202.5,-22.8,-54.3,-249.0,-6.0,-4.5,170.4,-171.0,-1.8,134.1,-83.4,116.7,0,1386,0,188,0,
0.7733,3.6,126.3,134.4,-6.0,77.1,-59.4,114.6,-82.2,-2815.8,316.8,18.0,275.4,202.2,-30.0,-66.9,-245.4,-6.3,-4.2,170.7,-173.7,-1.8,129.6,-83.4,117.0,0,1392,0,189,0,
0.7767,6.3,133.5,144.0,-0.3,82.2,-59.1,117.6,-78.6,-3038.1,327.6,23.1,282.3,210.3,-21.6,-63.6,-251.7,-6.3,-4.2,174.6,-171.9,-1.8,144.3,-79.8,127.8,0,1398,0,190,0,
0.7800,2.7,126.0,136.2,-8.7,75.6,-68.4,113.4,-83.7,-2964.0,315.3,18.0,274.8,197.4,-29.7,-56.4,-249.3,-6.0,-4.5,169.2,-177.0,-1.5,134.4,-88.2,125.4,0,1404,0,191,0,
0.7833,0.6,125.4,133.5,-9.6,72.3,-69.3,113.1,-89.1,-3038.1,320.7,9.9,273.9,197.1,-30.3,-54.9,-252.9,-6.0,-4.5,163.8,-181.2,-1.8,132.6,-91.8,117.0,0,1410,0,192,0,
0.7867,3.6,125.1,140.4,-8.7,73.2,-70.8,113.4,-84.6,-2889.9,319.2,14.4,275.1,197.4,-27.0,-55.5,-246.9,-6.3,-4.5,169.8,-178.8,-1.5,134.4,-83.4,126.0,0,1416,0,193,0,
0.7900,-0.6,123.3,135.3,-12.9,70.2,-69.6,111.3,-87.0,-2964.0,324.9,8.4,269.1,197.7,-31.8,-59.7,-247.2,-6.3,-4.2,165.3,-182.7,-1.8,132.3,-82.8,123.6,0,1422,0,194,0,
0.7933,-1.5,128.1,138.0,-9.6,72.9,-65.1,116.7,-83.4,-2889.9,318.0,9.9,272.7,195.0,-33.6,-64.8,-247.5,-6.0,-4.5,163.5,-178.8,-1.8,135.3,-82.8,123.6,0,1428,0,195,0,
0.7967,2.4,128.1,137.1,-13.8,70.5,-64.8,112.2,-85.8,-3038.1,318.0,9.3,268.8,183.3,-25.8,-52.2,-243.6,-6.0,-5.1,159.0,-180.0,-1.8,131.7,-82.5,119.4,0,1434,0,196,0,
0.8000,0.3,123.6,137.1,-11.4,70.8,-69.6,117.0,-85.8,-2964.0,317.7,7.5,265.8,183.0,-33.6,-57.3,-225.9,-6.3,-4.5,161.1,-182.1,-1.8,135.6,-75.6,114.3,0,1440,0,197,0,
0.8033,0.6,124.5,140.7,-10.8,73.2,-64.8,117.6,-81.6,-3038.1,327.0,4.2,269.4,192.0,-33.9,-57.6,-235.2,-6.0,-4.2,156.6,-180.0,-2.1,135.3,-73.2,117.3,0,1446,0,198,0,
0.8067,2.7,126.3,141.6,-6.3,74.1,-61.2,116.1,-81.3,-2815.8,323.4,8.7,275.7,201.3,-27.3,-63.3,-255.3,-6.6,-4.2,165.0,-175.2,-1.8,142.8,-82.5,122.4,0,1452,0,199,0,
0.8100,4.5,126.3,134.4,-6.3,77.1,-60.3,117.6,-79.5,-2964.0,322.2,20.1,279.3,191.1,-27.9,-58.2,-251.4,-6.3,-4.5,165.6,-170.4,-2.1,140.1,-86.4,126.6,0,1458,0,200,0,
0.8133,4.2,123.3,138.0,-6.9,77.4,-57.9,124.5,-78.0,-2964.0,324.6,25.2,279.9,205.8,-25.5,-60.6,-251.1,-6.3,-4.5,172.5,-174.9,-2.1,141.9,-85.8,124.5,0,1464,0,201,0,
0.8167,3.9,122.1,128.4,-10.8,71.4,-63.6,114.3,-81.9,-2889.9,320.7,15.6,275.7,202.2,-24.0,-60.0,-254.4,-6.6,-4.5,163.5,-181.2,-1.5,140.4,-90.0,126.6,0,1470,0,202,0,
0.8200,4.5,120.9,131.4,-11.4,70.5,-69.3,116.4,-81.3,-2964.0,325.2,17.7,274.2,201.3,-21.9,-57.0,-249.9,-6.3,-4.5,165.3,-181.2,-1.5,137.1,-89.7,120.9,0,1476,0,203,0,
0.8233,-0.6,121.5,132.6,-10.2,69.9,-65.1,115.5,-82.5,-2964.0,326.7,14.1,272.4,205.5,-27.3,-64.5,-246.3,-6.3,-4.5,166.5,-182.7,-1.8,136.5,-89.4,120.9,0,1482,0,204,0,
0.8267,0.3,126.0,138.3,-8.7,74.4,-61.2,113.1,-80.7,-2964.0,324.0,10.8,272.7,201.0,-29.1,-61.2,-245.4,-6.6,-4.5,167.1,-179.7,-1.8,135.9,-89.4,114.3,0,1488,0,205,0,
0.8300,0.0,126.0,138.9,-6.6,73.2,-67.5,110.1,-78.6,-2889.9,322.5,19.8,273.6,201.0,-31.5,-61.5,-252.0,-6.3,-4.5,165.6,-179.4,-1.8,136.8,-94.5,120.0,0,1494,0,206,0,
0.8333,3.6,126.6,138.3,-9.0,74.1,-65.1,115.5,-76.2,-2964.0,325.5,14.4,274.8,199.2,-30.3,-51.9,-245.4,-6.0,-4.2,166.2,-177.3,-1.5,148.8,-87.9,126.0,0,1500,0,207,0,
0.8367,2.1,124.2,135.3,-10.5,71.1,-66.0,114.3,-76.5,-2964.0,319.2,10.8,274.5,195.6,-33.3,-57.0,-237.6,-6.3,-4.5,163.5,-180.6,-1.5,141.0,-94.2,127.8,0,1506,0,208,0,
0.8400,0.0,118.8,129.9,-13.8,68.4,-68.7,113.7,-79.5,-2964.0,315.9,9.9,274.5,190.2,-34.5,-55.2,-229.5,-6.3,-4.2,159.0,-179.7,-1.5,132.3,-92.4,122.4,0,1512,0,209,0,
0.8433,5.7,126.0,138.3,-8.4,77.1,-60.3,114.6,-72.6,-2889.9,322.2,21.3,285.3,187.2,-31.2,-59.7,-249.0,-6.0,-4.8,168.3,-171.6,-1.8,136.5,-95.7,123.0,0,1518,0,210,0,
0.8467,3.0,124.8,137.4,-6.9,78.6,-56.1,117.9,-70.2,-2889.9,318.3,20.1,283.2,195.6,-36.0,-63.0,-251.7,-6.0,-4.8,163.8,-173.7,-1.8,138.3,-90.3,123.9,0,1524,0,211,0,
0.8500,2.7,127.8,140.1,-3.6,76.5,-56.7,116.4,-68.7,-2964.0,325.2,22.2,282.6,203.7,-32.1,-65.7,-255.6,-6.3,-3.9,168.9,-174.6,-1.5,133.8,-90.6,121.2,0,1530,0,212,0,
0.8533,0.3,127.8,141.3,-4.2,79.8,-58.5,120.3,-70.8,-2964.0,320.7,15.9,279.9,197.1,-33.6,-66.0,-249.0,-6.3,-4.5,167.7,-174.9,-1.8,142.2,-82.8,121.5,0,1536,0,213,0,
0.8567,-2.4,124.2,135.9,-4.5,72.3,-66.9,114.3,-76.2,-2889.9,313.2,8.4,274.2,192.3,-33.0,-59.7,-241.2,-6.0,-4.5,157.8,-180.3,-1.8,123.3,-88.2,114.3,0,1542,0,214,0,
0.8600,-5.4,121.2,132.3,-10.2,72.9,-66.6,115.8,-82.8,-2964.0,311.4,3.6,270.0,192.9,-33.3,-63.0,-243.0,-6.3,-4.5,157.2,-179.4,-1.8,126.0,-89.4,119.4,0,1548,0,215,0,
0.8633,-1.8,128.7,137.7,-6.3,77.4,-66.0,115.2,-78.3,-2889.9,319.5,10.8,270.9,193.5,-27.9,-76.8,-251.7,-6.3,-3.9,161.4,-179.1,-1.8,131.1,-93.0,125.4,0,1554,0,216,0,
0.8667,-2.7,123.3,132.0,-5.7,75.3,-62.1,110.7,-81.9,-2964.0,320.4,15.6,271.8,194.7,-33.0,-72.9,-249.9,-6.3,-4.5,160.2,-180.9,-1.5,131.1,-92.4,118.8,0,1560,0,217,0,
0.8700,-2.7,124.8,135.9,-5.4,72.9,-61.8,113.4,-80.7,-2889.9,314.7,14.1,274.2,202.8,-27.9,-69.6,-247.8,-6.0,-4.5,165.3,-179.4,-2.1,129.6,-92.7,123.0,0,1566,0,218,0,
0.8733,2.7,123.6,136.5,-0.9,79.5,-59.1,114.0,-74.4,-2889.9,321.0,23.1,278.1,196.2,-24.9,-66.3,-249.6,-6.3,-4.5,172.2,-174.6,-1.5,133.8,-90.6,125.4,0,1572,0,219,0,
0.8767,5.1,128.4,138.3,1.2,82.2,-57.0,119.7,-72.3,-2964.0,324.6,23.1,276.6,203.1,-23.4,-62.7,-246.0,-6.3,-4.5,168.9,-176.1,-2.1,136.2,-87.3,122.7,0,1578,0,220,0,
0.8800,1.8,132.6,145.2,4.8,88.2,-50.4,119.4,-67.5,-3038.1,321.0,28.5,285.9,199.2,-28.8,-68.4,-246.3,-6.0,-4.2,174.6,-168.9,-1.8,138.0,-86.7,124.8,0,1584,0,221,0,
0.8833,3.0,130.8,148.2,3.9,85.8,-50.4,119.7,-68.1,-2889.9,326.4,24.9,284.4,198.6,-31.5,-71.7,-245.7,-6.3,-4.2,174.0,-167.7,-1.8,138.3,-86.7,129.3,0,1590,0,222,0,
0.8867,4.5,132.3,146.4,4.5,84.9,-52.2,117.0,-68.4,-2815.8,325.5,28.5,281.4,201.6,-30.3,-69.0,-252.3,-6.3,-4.5,171.6,-170.4,-1.8,139.2,-88.8,129.9,0,1596,0,223,0,
0.8900,0.3,131.1,140.1,0.6,83.7,-54.6,116.4,-68.7,-2815.8,321.6,19.2,275.4,195.9,-35.1,-74.7,-252.9,-6.3,-4.2,170.4,-174.0,-1.8,134.4,-87.9,128.4,0,1602,0,224,0,
0.8933,-2.7,128.7,137.7,1.8,83.7,-53.1,115.2,-72.0,-3112.2,315.9,15.0,276.9,192.3,-30.9,-66.3,-255.0,-6.0,-4.2,166.5,-175.5,-1.2,140.7,-94.8,122.7,0,1608,0,225,0,
0.8967,1.8,131.4,142.8,3.9,86.7,-54.0,112.8,-70.8,-2964.0,319.5,20.7,279.6,202.2,-27.9,-65.1,-257.1,-6.6,-4.5,172.5,-172.8,-1.8,144.6,-97.5,119.7,0,1614,0,226,0,
0.9000,2.1,127.5,141.3,2.4,79.5,-61.5,112.2,-75.3,-3038.1,318.6,22.5,279.6,196.5,-27.3,-65.7,-255.0,-6.3,-4.5,170.7,-175.5,-1.5,130.8,-85.5,115.2,0,1620,0,227,0,
0.9033,-1.8,126.3,140.7,-2.4,83.7,-62.7,111.0,-78.3,-2815.8,315.3,19.5,282.6,192.3,-34.5,-70.8,-248.4,-6.0,-4.5,167.7,-176.1,-1.5,138.0,-85.8,118.2,0,1626,0,228,0,
0.9067,2.4,122.7,133.8,-2.7,79.2,-61.2,109.8,-78.9,-2815.8,311.7,15.9,281.1,192.3,-30.6,-54.3,-234.3,-6.0,-4.5,160.8,-181.2,-1.8,132.0,-86.1,121.8,0,1632,0,229,0,
0.9100,4.5,125.4,143.4,-3.6,78.9,-60.3,110.7,-80.1,-2889.9,317.4,15.3,275.1,194.1,-24.3,-53.4,-240.0,-6.0,-4.8,162.3,-180.0,-1.8,128.7,-86.7,114.9,0,1638,0,230,0,
0.9133,9.0,130.8,147.6,5.1,85.2,-58.5,116.1,-73.8,-3038.1,330.0,22.5,286.2,201.3,-26.4,-53.4,-246.3,-6.0,-4.2,169.2,-170.4,-1.5,143.7,-80.1,119.7,0,1644,0,231,0,
0.9167,2.7,129.9,144.9,5.7,84.0,-56.1,116.1,-76.5,-2815.8,320.1,19.2,285.3,197.4,-25.5,-54.6,-248.7,-6.3,-4.5,175.8,-167.7,-1.8,141.0,-81.3,123.9,0,1650,0,232,0,
0.9200,0.0,128.1,145.8,1.5,86.7,-53.7,115.2,-76.8,-2964.0,324.6,20.7,282.9,192.6,-28.5,-65.7,-248.4,-6.0,-4.5,172.5,-163.8,-1.8,144.3,-84.0,135.9,0,1656,0,233,0,
0.9233,-4.2,121.8,134.7,-3.3,80.4,-64.8,113.4,-83.4,-2889.9,315.0,15.0,273.3,175.8,-25.5,-50.4,-236.4,-6.6,-4.5,163.8,-176.1,-1.8,134.4,-82.2,124.8,0,1662,0,234,0,
0.9267,-4.2,126.9,142.2,1.5,84.3,-61.5,118.2,-77.7,-2889.9,324.9,27.9,281.1,192.6,-26.4,-64.2,-231.0,-6.3,-4.5,174.0,-170.4,-2.1,137.7,-75.6,120.9,0,1668,0,235,0,
0.9300,-3.9,125.7,139.2,4.2,84.6,-55.2,117.6,-80.4,-2889.9,321.6,28.2,283.8,199.8,-25.2,-66.6,-237.9,-6.3,-4.5,176.4,-170.7,-1.8,137.4,-74.7,127.5,0,1674,0,236,0,
0.9333,-4.2,122.7,137.7,2.1,84.0,-57.3,120.6,-85.8,-2964.0,326.1,26.7,288.3,191.7,-24.6,-66.3,-227.4,-6.0,-4.5,172.8,-174.9,-1.8,137.7,-76.5,128.4,0,1680,0,237,0,
0.9367,-3.9,118.8,135.6,-2.4,82.2,-61.5,115.2,-88.8,-2815.8,312.3,19.8,283.5,192.9,-22.2,-57.3,-229.5,-6.6,-4.5,168.3,-174.6,-1.5,135.0,-77.4,127.2,0,1686,0,238,0,
0.9400,0.3,127.5,143.4,0.9,83.4,-62.1,118.8,-82.2,-2889.9,328.8,25.5,281.7,204.9,-23.4,-63.9,-241.5,-6.3,-4.5,177.0,-172.2,-1.5,140.1,-84.0,128.7,0,1692,0,239,0,
0.9433,1.8,132.3,142.5,2.7,84.3,-61.2,116.1,-79.5,-2964.0,319.5,24.9,281.1,213.0,-20.7,-56.7,-239.4,-6.3,-4.2,172.2,-174.9,-1.8,134.1,-84.3,128.4,0,1698,0,240,0,
0.9467,2.7,129.6,144.0,3.9,86.4,-58.5,116.7,-78.3,-2889.9,319.8,21.6,281.4,203.4,-15.6,-57.0,-242.7,-6.0,-4.5,168.0,-175.8,-2.1,134.4,-86.1,128.7,0,1704,0,241,0,
0.9500,1.5,125.7,139.8,0.6,78.6,-60.6,117.0,-82.5,-2964.0,323.4,14.1,277.5,196.2,-19.2,-51.6,-233.7,-6.3,-4.5,166.2,-177.6,-1.8,138.3,-86.4,120.9,0,1710,0,242,0,
0.9533,-1.5,127.8,142.5,2.4,81.0,-60.6,112.2,-85.2,-2815.8,334.2,18.3,281.7,203.7,-23.7,-66.6,-236.4,-6.0,-4.5,170.4,-174.6,-1.5,131.4,-84.9,125.1,0,1716,0,243,0,
0.9567,-3.6,129.6,144.0,1.8,78.0,-64.2,112.8,-87.0,-2889.9,325.2,18.9,279.9,203.4,-25.5,-63.3,-240.0,-6.3,-4.5,170.1,-177.0,-1.8,141.3,-79.5,127.8,0,1722,0,244,0,
0.9600,1.2,132.3,144.9,3.3,78.0,-66.0,111.3,-80.4,-2741.7,331.8,19.8,282.6,205.5,-19.2,-58.8,-239.7,-6.3,-4.5,174.3,-172.8,-1.8,145.5,-83.7,117.6,0,1728,0,245,0,
0.9633,-2.4,126.6,137.4,0.6,74.4,-66.6,111.6,-84.9,-3112.2,319.2,19.5,278.4,203.1,-25.5,-57.9,-229.8,-6.3,-4.5,176.1,-174.3,-1.8,141.0,-84.9,114.0,0,1734,0,246,0,
0.9667,-0.9,126.0,138.6,-3.6,74.1,-69.6,111.6,-89.4,-2741.7,318.6,21.3,277.2,190.5,-22.2,-48.3,-222.3,-6.6,-4.8,168.0,-176.4,-2.1,143.1,-81.0,118.5,0,1740,0,247,0,
0.9700,0.0,132.3,143.7,3.3,78.0,-62.1,115.2,-87.9,-2889.9,324.9,32.7,285.3,191.4,-20.7,-54.6,-222.3,-6.6,-4.8,178.5,-168.0,-1.5,145.2,-72.9,129.0,0,1746,0,248,0,
0.9733,1.5,131.4,144.6,6.3,84.0,-61.2,114.3,-82.2,-2889.9,334.2,31.2,291.9,202.5,-15.6,-53.4,-231.9,-6.3,-4.5,179.7,-163.2,-1.8,147.0,-75.3,138.6,0,1752,0,249,0,
0.9767,-3.0,126.3,145.2,0.9,79.5,-63.9,115.2,-85.2,-2964.0,325.5,24.9,286.5,201.9,-20.1,-51.0,-232.8,-5.7,-4.2,170.1,-174.3,-1.8,143.1,-77.7,129.0,0,1758,0,250,0,
0.9800,0.0,129.0,144.0,3.0,80.4,-60.6,113.4,-86.1,-2815.8,327.6,21.0,284.7,205.2,-25.5,-64.5,-237.6,-6.3,-4.5,168.9,-170.1,-1.8,150.9,-84.3,122.7,0,1764,0,251,0,
0.9833,-4.8,121.2,143.4,1.8,80.1,-64.8,111.0,-90.3,-2889.9,319.2,22.2,284.1,195.0,-33.3,-66.0,-235.2,-6.0,-4.5,168.9,-171.6,-1.8,144.3,-84.0,121.2,0,1770,0,252,0,
0.9867,-2.4,127.5,141.3,-2.1,78.3,-68.7,112.5,-87.9,-2964.0,325.5,22.2,277.8,196.8,-27.3,-55.8,-232.8,-6.3,-4.5,170.4,-175.8,-1.8,135.9,-89.4,121.2,0,1776,0,253,0,
0.9900,-0.6,126.9,141.0,-1.8,80.1,-62.1,116.7,-84.3,-2964.0,324.3,24.9,282.9,186.6,-30.3,-69.9,-246.3,-6.0,-4.2,168.0,-171.6,-1.8,138.0,-84.0,124.8,0,1782,0,254,0,
0.9933,-0.3,126.6,141.6,2.7,85.2,-59.4,117.0,-79.2,-2889.9,327.6,20.4,289.2,202.5,-24.3,-66.3,-243.3,-6.3,-4.2,166.5,-166.2,-2.1,144.0,-80.1,120.0,0,1788,0,255,0,
0.9967,-3.9,124.2,140.7,-2.7,81.9,-65.4,111.6,-84.3,-2964.0,316.5,12.6,278.7,192.9,-27.3,-67.2,-245.1,-6.3,-4.8,163.2,-173.4,-1.8,135.3,-78.9,116.7,0,1794,0,0,0,
1.0000,-1.8,126.6,140.7,2.1,90.0,-61.2,114.9,-79.5,-2964.0,322.8,21.9,286.8,195.0,-26.1,-60.9,-242.7,-6.3,-4.2,173.4,-166.8,-1.8,143.7,-74.1,120.6,0,1800,0,1,0,
1.0033,-1.5,130.5,150.9,11.4,95.7,-60.0,114.9,-73.2,-2964.0,326.1,33.0,297.0,203.1,-25.2,-59.1,-246.6,-6.3,-4.5,179.7,-159.6,-1.5,148.5,-77.1,132.0,0,1806,0,2,0,
1.0067,3.0,134.7,147.3,11.4,95.1,-57.3,118.5,-70.8,-2964.0,330.6,33.0,296.1,209.1,-17.7,-53.1,-235.5,-6.0,-4.2,179.1,-161.7,-1.5,146.1,-76.5,129.9,0,1812,0,3,0,
1.0100,-0.3,133.5,147.9,7.2,92.7,-56.4,115.8,-72.9,-2964.0,329.1,30.0,292.2,208.5,-27.9,-66.3,-238.8,-6.6,-4.5,178.8,-164.7,-1.8,150.0,-72.9,130.8,0,1818,0,4,0,
1.0133,-0.9,129.6,147.6,8.7,96.6,-50.4,115.2,-73.2,-2964.0,325.5,29.4,298.5,201.9,-31.2,-67.8,-246.6,-6.0,-4.5,178.2,-159.3,-1.5,146.1,-67.2,125.7,0,1824,0,5,0,
1.0167,-2.7,129.9,148.8,9.0,96.0,-51.3,118.2,-72.0,-2815.8,323.1,33.0,297.6,200.1,-24.0,-62.1,-237.0,-6.0,-4.5,177.0,-156.9,-1.8,140.7,-62.7,127.8,0,1830,0,6,0,
1.0200,1.2,134.4,154.5,16.8,96.3,-50.4,118.5,-70.5,-2815.8,332.7,37.8,301.5,203.4,-16.2,-56.4,-238.5,-6.3,-4.5,185.7,-156.3,-1.8,144.3,-63.9,135.3,0,1836,0,7,0,
1.0233,-0.3,130.2,148.8,11.1,95.7,-53.7,116.7,-73.5,-2815.8,324.0,32.1,297.6,210.0,-16.2,-52.2,-237.9,-6.6,-4.2,176.7,-156.9,-1.8,145.5,-68.1,133.2,0,1842,0,8,0,
1.0267,-0.3,132.6,153.9,16.5,99.6,-52.2,120.0,-72.9,-2889.9,330.9,40.8,298.2,210.6,-28.5,-69.3,-237.0,-6.3,-4.5,180.9,-153.9,-1.8,145.2,-68.1,139.5,0,1848,0,9,0,
1.0300,-1.2,130.8,151.8,12.3,95.4,-54.0,116.4,-77.4,-3038.1,331.5,28.8,295.8,210.0,-24.0,-63.9,-243.6,-6.3,-4.8,180.3,-159.9,-1.8,149.7,-78.3,124.8,0,1854,0,10,0,
1.0333,-0.9,131.4,151.5,15.9,95.4,-51.0,117.6,-76.5,-2889.9,331.5,34.2,301.2,208.5,-26.4,-60.6,-240.9,-6.0,-4.8,180.0,-154.5,-1.5,145.5,-76.2,131.7,0,1860,0,11,0,
1.0367,-1.8,128.4,152.1,15.6,94.2,-50.1,119.4,-73.8,-2889.9,331.5,27.0,291.3,203.7,-23.1,-55.8,-238.5,-6.0,-4.2,175.8,-156.9,-1.5,149.7,-72.3,129.0,0,1866,0,12,0,
1.0400,0.3,132.0,156.6,22.8,101.7,-46.5,122.7,-70.8,-2889.9,332.7,39.3,303.3,205.5,-23.7,-58.5,-235.5,-6.3,-4.5,188.7,-150.9,-1.8,150.6,-70.2,136.5,0,1872,0,13,0,
1.0433,0.0,135.3,160.5,22.8,104.1,-45.0,120.3,-72.6,-2889.9,330.6,36.9,305.7,209.7,-27.9,-61.2,-231.0,-6.3,-4.5,191.7,-155.1,-1.5,150.9,-70.8,145.8,0,1878,0,14,0,
1.0467,3.6,134.1,157.8,21.9,100.5,-50.4,119.4,-72.6,-2815.8,336.9,32.7,300.3,210.9,-20.7,-52.8,-229.2,-6.0,-4.8,185.1,-156.6,-1.8,158.1,-77.4,144.9,0,1884,0,15,0,
1.0500,-3.3,126.9,143.4,12.3,89.4,-59.4,110.7,-78.9,-3038.1,322.8,21.0,290.1,195.6,-24.3,-48.6,-225.0,-6.3,-4.5,168.9,-164.4,-1.5,143.1,-71.1,125.4,0,1890,0,16,0,
1.0533,-0.9,131.4,149.7,13.5,89.1,-58.5,117.3,-77.4,-2741.7,325.2,35.1,298.5,204.0,-27.6,-51.0,-231.6,-6.3,-4.5,181.8,-160.5,-1.8,142.5,-69.9,136.2,0,1896,0,17,0,
1.0567,0.0,138.3,150.3,13.2,91.5,-55.8,114.6,-71.4,-2889.9,335.7,30.6,299.4,213.0,-29.4,-66.6,-240.3,-6.3,-4.2,179.4,-158.4,-1.2,149.1,-74.7,135.9,0,1902,0,18,0,
1.0600,0.9,131.7,144.6,8.7,84.0,-63.3,117.3,-76.5,-2889.9,323.7,22.8,288.6,207.9,-16.5,-54.0,-245.1,-6.3,-4.2,171.0,-170.4,-1.5,132.3,-81.9,126.3,0,1908,0,19,0,
1.0633,1.2,133.8,148.2,11.7,88.8,-60.6,116.4,-76.8,-2964.0,328.5,20.4,290.4,201.6,-24.3,-62.4,-246.9,-6.3,-4.5,174.6,-166.2,-1.5,144.9,-81.3,125.7,0,1914,0,20,0,
1.0667,2.1,128.4,148.5,7.8,86.4,-64.2,112.2,-78.9,-2964.0,324.9,23.7,286.5,195.6,-25.2,-63.6,-240.0,-6.6,-4.5,177.0,-168.3,-1.8,141.0,-86.4,128.4,0,1920,0,21,0,
1.0700,2.1,126.0,145.5,3.9,84.0,-63.0,113.1,-80.7,-2964.0,326.4,19.8,284.4,195.3,-19.5,-52.2,-233.1,-6.3,-4.5,172.2,-171.9,-1.8,141.6,-88.8,120.6,0,1926,0,22,0,
1.0733,3.9,126.6,142.8,2.7,83.1,-66.0,113.4,-77.7,-2815.8,324.0,17.7,286.5,195.0,-19.2,-44.1,-236.7,-6.0,-4.8,168.0,-172.8,-2.1,139.8,-85.8,121.8,0,1932,0,23,0,
1.0767,-0.6,121.2,139.5,4.2,84.6,-63.0,111.3,-79.5,-2889.9,327.9,18.3,287.1,204.3,-22.5,-53.1,-231.0,-6.3,-4.5,167.7,-170.1,-1.8,140.4,-82.8,128.1,0,1938,0,24,0,
1.0800,-1.2,123.9,148.8,3.6,85.5,-63.9,112.2,-79.5,-3038.1,325.5,16.2,288.6,210.0,-21.3,-60.9,-231.3,-6.6,-4.5,171.6,-171.0,-1.5,141.9,-78.3,125.7,0,1944,0,25,0,
1.0833,-1.2,123.0,145.8,4.8,81.9,-64.8,110.4,-81.6,-2964.0,332.7,16.2,289.5,207.6,-15.9,-50.1,-240.0,-6.0,-4.2,175.2,-175.2,-1.8,144.0,-75.9,129.3,0,1950,0,26,0,
1.0867,0.9,129.9,149.7,7.5,84.0,-63.9,111.6,-75.6,-2815.8,332.7,23.1,293.1,209.7,-23.1,-60.0,-239.7,-6.6,-4.5,183.0,-168.0,-1.5,141.9,-77.1,132.9,0,1956,0,27,0,
1.0900,3.6,130.5,151.5,11.7,88.5,-61.5,115.2,-74.1,-2815.8,336.9,28.2,294.0,210.9,-17.1,-53.7,-231.3,-6.0,-4.5,182.1,-164.4,-1.8,150.3,-68.7,133.5,0,1962,0,28,0,
1.0933,2.7,130.5,146.4,6.3,84.0,-66.3,111.9,-79.8,-2964.0,327.6,17.7,288.9,198.0,-16.2,-39.6,-236.1,-6.3,-4.5,174.9,-165.9,-1.5,144.9,-68.4,128.1,0,1968,0,29,0,
1.0967,-0.3,126.9,145.5,7.5,80.7,-62.7,113.7,-81.0,-2889.9,332.1,18.6,286.8,204.6,-18.9,-52.8,-243.3,-6.0,-4.5,177.6,-167.7,-1.8,149.1,-76.8,133.5,0,1974,0,30,0,
1.1000,-1.2,123.3,144.3,1.8,77.7,-62.4,115.2,-83.7,-3038.1,323.4,11.7,276.9,207.0,-27.6,-66.3,-239.1,-6.0,-4.8,172.5,-171.9,-1.8,140.4,-79.5,128.4,0,1980,0,31,0,
1.1033,-2.4,123.6,142.2,-2.1,75.9,-63.6,116.1,-84.9,-2964.0,318.0,8.4,274.2,198.6,-30.3,-60.3,-243.0,-6.0,-4.5,167.1,-176.4,-1.5,138.3,-86.1,114.6,0,1986,0,32,0,
1.1067,-0.9,124.5,143.4,-2.4,75.3,-68.4,114.0,-84.9,-2889.9,314.4,9.6,279.6,200.7,-25.2,-55.8,-243.6,-6.0,-4.8,168.6,-178.5,-1.8,130.8,-80.7,119.1,0,1992,0,33,0,
1.1100,-2.1,126.3,147.6,4.8,83.1,-62.1,116.7,-80.4,-2964.0,327.3,16.8,286.5,206.4,-25.5,-70.5,-246.0,-6.3,-4.5,175.8,-173.7,-1.8,141.0,-77.4,122.1,0,1998,0,34,0,
1.1133,-3.3,126.0,149.4,4.5,84.3,-60.9,118.8,-81.3,-2889.9,322.2,15.3,285.6,208.8,-26.1,-69.9,-248.1,-6.3,-4.5,175.5,-172.2,-2.1,143.4,-75.0,130.2,0,2004,0,35,0,
1.1167,4.2,128.4,155.1,9.9,87.0,-60.0,121.2,-80.7,-2889.9,334.8,21.6,286.2,216.3,-22.2,-63.0,-248.4,-6.3,-4.8,180.9,-168.3,-1.8,143.7,-78.6,138.3,0,2010,0,36,0,
1.1200,4.2,131.7,150.3,6.9,84.3,-60.9,118.2,-79.8,-2815.8,327.3,20.1,286.8,219.3,-21.6,-66.0,-241.2,-6.3,-4.8,180.9,-169.8,-1.8,141.0,-78.0,139.2,0,2016,0,37,0,
1.1233,3.0,132.9,146.1,3.6,82.2,-61.2,118.5,-82.2,-2815.8,322.8,15.3,285.0,213.0,-24.0,-60.0,-239.4,-6.0,-4.2,179.4,-169.5,-1.8,139.8,-75.6,131.4,0,2022,0,38,0,
1.1267,1.8,129.6,142.5,2.7,82.2,-61.8,116.7,-82.8,-2889.9,314.4,11.7,283.5,204.9,-19.5,-55.8,-237.3,-6.0,-4.5,176.7,-171.0,-1.8,135.6,-77.7,128.4,0,2028,0,39,0,
1.1300,2.1,127.8,148.5,0.9,85.2,-60.3,116.7,-78.9,-3038.1,330.0,9.9,280.2,202.2,-29.1,-58.5,-241.5,-6.3,-4.5,177.9,-173.1,-2.1,146.7,-87.0,135.3,0,2034,0,40,0,
1.1333,-0.9,123.9,145.5,6.6,82.5,-56.7,116.4,-77.1,-2964.0,322.2,12.0,279.6,204.3,-25.8,-63.3,-245.1,-6.0,-4.2,175.5,-172.5,-1.5,137.4,-82.2,130.5,0,2040,0,41,0,
1.1367,-1.8,124.5,141.6,5.4,84.0,-57.3,114.6,-79.2,-2964.0,316.8,11.7,277.5,206.1,-25.8,-66.6,-247.2,-6.0,-4.8,168.6,-174.9,-1.8,130.8,-84.3,128.4,0,2046,0,42,0,
1.1400,-4.2,126.9,145.5,7.5,84.9,-55.5,117.0,-78.3,-3112.2,310.5,8.1,279.9,205.8,-32.1,-71.7,-246.9,-6.3,-4.5,170.7,-173.7,-1.5,127.2,-81.9,132.9,0,2052,0,43,0,
1.1433,-3.6,129.3,150.3,8.1,86.7,-54.6,119.1,-77.7,-3112.2,318.0,11.4,278.1,203.7,-37.2,-69.0,-246.9,-6.3,-4.5,174.0,-173.7,-1.8,131.1,-82.2,137.4,0,2058,0,44,0,
1.1467,-3.6,123.6,146.4,4.2,87.6,-57.6,119.7,-79.5,-2964.0,318.0,15.0,279.3,202.8,-32.4,-61.5,-240.3,-6.3,-4.5,179.1,-171.9,-1.8,138.3,-82.2,132.6,0,2064,0,45,0,
1.1500,-3.6,126.3,147.9,3.6,85.5,-55.5,116.7,-76.2,-3038.1,315.9,15.0,280.2,202.2,-35.1,-51.6,-228.0,-6.0,-4.8,174.3,-174.9,-2.1,133.5,-75.6,129.9,0,2070,0,46,0,
1.1533,-2.1,129.6,144.9,1.8,85.2,-57.9,113.7,-81.0,-3038.1,314.1,14.7,277.5,203.7,-25.2,-48.9,-240.9,-6.0,-4.5,177.3,-180.0,-1.8,130.2,-86.4,129.3,0,2076,0,47,0,
1.1567,-1.8,129.6,149.1,3.3,81.9,-60.0,117.0,-76.2,-3038.1,310.5,8.4,277.5,194.4,-33.9,-52.5,-242.7,-6.3,-4.2,168.3,-180.0,-2.1,128.1,-85.5,129.6,0,2082,0,48,0,
1.1600,-5.7,131.4,152.7,4.5,82.5,-61.2,117.9,-75.0,-2964.0,315.0,12.9,276.9,191.4,-36.9,-68.1,-250.2,-6.3,-4.5,173.4,-179.1,-1.8,126.3,-85.2,127.8,0,2088,0,49,0,
1.1633,-0.9,136.5,154.8,6.9,81.3,-61.2,116.7,-74.7,-2889.9,313.8,1.8,276.0,203.1,-24.0,-61.8,-246.9,-6.3,-4.8,168.3,-180.3,-1.8,128.1,-86.7,126.9,0,2094,0,50,0,
1.1667,-1.2,132.9,153.9,6.3,80.7,-63.0,117.3,-75.6,-3038.1,323.1,10.2,277.5,201.9,-34.8,-76.2,-245.4,-6.0,-4.2,177.0,-177.9,-1.8,131.4,-83.1,131.1,0,2100,0,51,0,
1.1700,-6.6,128.7,142.5,2.1,78.9,-68.4,117.0,-82.8,-3112.2,309.6,9.0,273.3,194.1,-36.3,-69.3,-241.5,-6.3,-4.2,167.7,-180.3,-1.8,127.2,-82.2,128.1,0,2106,0,52,0,
1.1733,-2.1,131.7,146.4,0.6,79.5,-65.4,118.8,-81.9,-3038.1,311.4,7.8,270.3,193.5,-33.6,-72.0,-240.9,-6.0,-4.2,169.2,-179.4,-1.5,128.7,-88.2,120.3,0,2112,0,53,0,
1.1767,-3.6,126.0,135.9,-0.9,78.3,-62.7,117.3,-82.5,-3038.1,304.5,-1.2,269.1,192.3,-33.0,-58.8,-237.3,-6.0,-4.5,162.0,-181.2,-1.5,125.4,-91.5,120.3,0,2118,0,54,0,
1.1800,-6.3,126.0,139.8,0.6,83.4,-63.0,119.7,-81.9,-3112.2,304.5,2.7,273.0,204.9,-34.5,-66.3,-230.7,-6.3,-4.8,173.1,-179.7,-1.5,122.7,-82.8,123.9,0,2124,0,55,0,
1.1833,-6.6,124.8,141.3,-0.9,78.9,-66.0,120.3,-83.7,-2964.0,303.3,-1.2,265.2,199.8,-42.9,-78.9,-240.6,-6.3,-4.5,165.6,-187.5,-1.8,114.3,-80.7,123.6,0,2130,0,56,0,
1.1867,0.3,129.3,144.9,3.6,82.2,-62.7,120.6,-81.6,-3038.1,308.1,9.0,270.0,200.1,-30.0,-66.6,-249.9,-6.6,-4.2,171.6,-181.5,-1.8,120.0,-83.4,132.6,0,2136,0,57,0,
1.1900,-1.5,129.6,141.9,2.1,82.2,-64.2,119.1,-79.5,-2964.0,312.3,11.4,274.5,200.4,-35.4,-66.9,-251.7,-6.0,-4.8,170.7,-182.1,-1.5,123.3,-83.1,129.3,0,2142,0,58,0,
1.1933,0.6,130.2,144.3,6.9,84.6,-59.7,123.0,-77.1,-3038.1,318.6,10.2,280.2,210.3,-31.8,-61.8,-246.0,-6.3,-4.5,170.7,-176.7,-1.8,124.8,-79.2,136.2,0,2148,0,59,0,
1.1967,1.5,125.4,140.4,5.1,82.5,-60.6,120.0,-77.4,-2964.0,309.0,9.3,274.5,204.6,-26.4,-64.5,-246.9,-6.3,-4.5,166.8,-180.0,-1.5,121.5,-78.6,128.7,0,2154,0,60,0,
1.2000,1.5,128.1,144.6,6.6,87.3,-56.1,122.4,-74.7,-2964.0,318.6,9.6,276.6,204.0,-27.6,-65.7,-246.0,-6.3,-4.5,169.8,-175.8,-1.8,120.9,-77.7,129.3,0,2160,0,61,0,
1.2033,1.8,128.7,148.8,9.0,87.3,-57.3,119.1,-75.9,-2889.9,315.3,10.2,274.2,213.9,-25.5,-56.7,-249.9,-6.3,-4.2,170.7,-174.0,-1.8,123.9,-81.9,118.2,0,2166,0,62,0,
1.2067,3.0,135.9,153.6,17.4,95.1,-54.6,122.1,-66.0,-2889.9,321.0,16.8,286.5,216.6,-24.9,-57.9,-246.0,-6.3,-4.2,181.2,-166.8,-1.5,135.6,-81.6,132.3,0,2172,0,63,0,
1.2100,4.2,132.0,152.7,9.6,87.6,-63.0,114.3,-76.5,-2889.9,321.3,15.3,285.3,205.5,-23.1,-48.0,-242.7,-6.3,-4.5,174.3,-178.2,-1.5,131.4,-83.7,132.0,0,2178,0,64,0,
1.2133,6.6,138.6,156.3,11.1,87.0,-54.3,119.1,-72.0,-2964.0,329.1,13.5,283.8,206.1,-18.9,-51.6,-250.2,-6.3,-4.5,182.4,-172.5,-1.2,131.4,-72.6,128.1,0,2184,0,65,0,
1.2167,9.9,141.3,149.7,12.9,93.0,-53.1,116.7,-74.1,-2964.0,323.1,20.4,278.4,211.5,-19.2,-53.4,-248.1,-6.0,-4.2,185.4,-173.4,-1.5,133.8,-72.6,131.1,0,2190,0,66,0,
1.2200,8.1,144.3,156.6,15.0,92.4,-53.1,119.4,-71.4,-2889.9,330.0,25.2,291.3,213.9,-22.8,-66.6,-244.8,-6.0,-4.8,189.9,-166.5,-2.1,141.0,-72.0,134.7,0,2196,0,67,0,
1.2233,4.2,139.8,154.8,12.6,92.7,-56.4,123.0,-69.9,-2815.8,319.8,20.7,291.0,212.4,-27.6,-67.8,-243.6,-6.3,-4.5,183.3,-168.0,-1.5,139.5,-67.2,138.0,0,2202,0,68,0,
1.2267,5.4,136.8,155.1,10.8,96.3,-57.0,122.7,-72.9,-2889.9,318.9,18.9,285.9,207.3,-26.7,-63.9,-245.7,-6.3,-4.8,181.5,-167.1,-1.8,142.8,-72.0,137.1,0,2208,0,69,0,
1.2300,0.9,128.7,146.7,7.2,91.8,-59.7,120.0,-77.1,-2964.0,311.1,17.1,283.2,204.9,-28.5,-57.3,-248.7,-6.0,-4.5,177.3,-170.4,-1.5,136.8,-78.9,134.4,0,2214,0,70,0,
1.2333,1.8,132.3,150.3,5.4,89.4,-60.0,124.2,-77.4,-2964.0,320.4,14.4,284.4,216.9,-30.6,-63.6,-255.0,-6.0,-4.5,180.9,-172.5,-1.8,134.4,-75.0,135.9,0,2220,0,71,0,
1.2367,2.4,138.3,155.1,9.0,89.1,-59.1,122.7,-72.6,-2964.0,322.5,13.2,286.2,216.3,-31.5,-70.2,-249.6,-6.3,-4.2,184.2,-172.8,-1.5,128.7,-73.8,128.4,0,2226,0,72,0,
1.2400,1.2,137.4,157.2,12.3,89.4,-53.1,125.7,-73.2,-2964.0,324.3,21.0,288.3,213.0,-25.2,-70.5,-244.5,-6.3,-4.5,186.3,-169.2,-1.5,129.6,-75.0,130.2,0,2232,0,73,0,
1.2433,4.5,139.2,160.5,14.7,93.3,-53.1,124.5,-67.5,-2964.0,326.1,26.7,288.9,229.8,-32.1,-72.9,-249.0,-6.0,-4.5,188.4,-169.5,-1.8,130.2,-76.2,129.6,0,2238,0,74,0,
1.2467,1.2,137.1,162.3,18.0,97.8,-51.0,122.7,-68.4,-3038.1,324.6,25.2,291.3,227.7,-40.8,-77.1,-252.3,-6.3,-4.5,188.7,-167.7,-1.8,139.8,-72.9,139.5,0,2244,0,75,0,
1.2500,3.3,135.9,157.8,16.8,97.8,-54.9,119.7,-71.1,-2889.9,320.1,25.5,285.6,218.1,-32.4,-72.9,-244.5,-5.7,-4.5,187.2,-168.6,-1.8,137.1,-71.1,136.5,0,2250,0,76,0,
1.2533,2.7,134.7,160.5,20.1,96.0,-55.5,119.1,-70.5,-2964.0,318.9,31.8,292.5,218.4,-29.4,-73.5,-251.4,-6.0,-4.5,189.0,-164.7,-1.8,135.3,-74.1,133.8,0,2256,0,77,0,
1.2567,2.1,134.4,158.7,18.0,93.3,-58.2,118.8,-69.3,-2964.0,321.3,29.4,290.4,218.1,-30.3,-67.2,-243.9,-6.0,-4.5,189.9,-163.8,-2.1,131.7,-75.6,134.4,0,2262,0,78,0,
1.2600,-2.7,134.1,157.2,17.1,91.8,-58.5,117.3,-70.5,-2889.9,318.6,23.1,285.0,216.6,-27.6,-70.2,-252.3,-6.6,-4.5,183.3,-168.6,-1.5,133.8,-75.3,130.8,0,2268,0,79,0,
1.2633,4.8,138.6,159.9,18.0,96.0,-49.8,121.8,-67.2,-2889.9,324.6,23.1,285.9,225.0,-24.6,-66.9,-248.4,-6.3,-4.2,188.4,-167.1,-2.1,136.5,-75.6,138.0,0,2274,0,80,0,
1.2667,4.5,136.5,157.8,17.7,93.3,-53.1,121.2,-70.8,-2964.0,325.8,19.8,288.9,218.1,-22.2,-56.7,-244.2,-6.3,-4.8,184.5,-165.6,-1.8,139.5,-72.3,130.2,0,2280,0,81,0,
1.2700,3.9,141.0,157.8,14.4,91.5,-53.1,120.0,-71.7,-2889.9,322.2,21.0,288.3,222.0,-29.1,-50.1,-237.6,-6.0,-4.5,188.4,-165.3,-1.8,139.5,-71.1,130.2,0,2286,0,82,0,
1.2733,7.2,142.5,155.1,15.3,96.0,-51.6,120.0,-73.2,-2964.0,331.5,23.4,292.5,223.8,-23.1,-67.2,-243.3,-6.3,-4.5,192.9,-165.0,-1.8,143.4,-68.7,142.8,0,2292,0,83,0,
1.2767,3.6,136.8,151.5,9.3,90.6,-53.1,119.7,-75.0,-2889.9,314.1,13.8,283.8,214.8,-24.0,-59.7,-236.7,-6.0,-4.5,183.3,-170.1,-1.8,136.8,-67.2,131.4,0,2298,0,84,0,
1.2800,2.7,133.8,149.1,11.4,90.0,-52.8,115.5,-78.0,-3038.1,314.4,16.2,279.3,214.2,-29.1,-62.4,-240.3,-6.3,-4.5,180.0,-168.3,-1.5,135.9,-67.5,133.2,0,2304,0,85,0,
1.2833,0.3,138.0,156.6,18.3,94.5,-50.4,115.8,-72.6,-2815.8,321.6,22.5,281.1,211.5,-30.0,-65.1,-255.9,-6.3,-4.5,189.6,-162.0,-2.1,144.9,-78.9,140.4,0,2310,0,86,0,
1.2867,-0.3,135.3,150.3,11.1,91.5,-53.4,120.0,-75.0,-2964.0,319.8,16.8,280.8,204.6,-30.0,-67.5,-252.6,-6.0,-4.5,183.6,-163.8,-2.1,132.9,-74.7,129.9,0,2316,0,87,0,
1.2900,5.4,139.8,155.7,15.3,92.1,-53.4,118.2,-67.5,-2889.9,319.8,21.6,284.4,213.6,-29.4,-63.0,-244.8,-6.0,-4.2,186.9,-163.8,-2.1,137.1,-72.9,133.5,0,2322,0,88,0,
1.2933,3.9,137.1,159.3,9.9,88.2,-59.7,118.2,-75.6,-2815.8,317.1,15.0,279.9,205.2,-22.5,-53.4,-243.0,-6.0,-4.5,179.7,-165.9,-1.8,132.9,-85.8,137.4,0,2328,0,89,0,
1.2967,3.9,137.4,159.6,11.1,90.3,-59.7,116.4,-73.5,-2964.0,319.8,21.3,280.8,214.5,-24.6,-56.7,-246.3,-6.6,-4.2,185.7,-168.0,-1.8,131.4,-79.8,133.8,0,2334,0,90,0,
1.3000,0.9,131.7,152.1,5.1,82.2,-66.9,113.4,-79.2,-2815.8,317.1,6.3,271.5,219.6,-21.6,-61.2,-249.0,-6.3,-4.5,179.4,-177.6,-1.5,128.7,-80.1,119.1,0,2340,0,91,0,
1.3033,-2.7,132.3,153.3,7.5,87.3,-61.2,112.8,-71.7,-2815.8,316.5,10.2,277.5,212.1,-29.7,-75.9,-256.8,-6.3,-4.5,182.4,-172.5,-1.8,131.1,-83.4,119.4,0,2346,0,92,0,
1.3067,-1.8,131.4,153.6,9.9,83.7,-62.7,114.9,-72.0,-2815.8,321.3,7.2,277.5,210.0,-25.2,-68.7,-252.3,-6.0,-4.5,178.5,-173.7,-1.2,128.7,-82.8,120.9,0,2352,0,93,0,
1.3100,-2.7,129.9,145.2,6.3,79.5,-67.8,111.6,-72.9,-2964.0,313.2,12.6,273.0,213.9,-32.1,-70.2,-258.6,-6.3,-4.2,179.4,-175.8,-1.8,123.3,-90.0,121.8,0,2358,0,94,0,
1.3133,-1.2,127.5,147.0,2.1,81.3,-70.2,111.6,-77.1,-2889.9,319.2,12.6,274.2,219.6,-32.1,-66.6,-255.9,-6.3,-4.2,175.2,-178.5,-1.5,127.5,-85.5,128.4,0,2364,0,95,0,
1.3167,3.3,129.3,144.0,1.5,84.0,-63.9,117.0,-71.7,-2889.9,317.7,11.1,280.5,207.0,-26.7,-58.5,-249.9,-6.0,-4.2,177.0,-175.2,-2.1,130.2,-84.0,125.1,0,2370,0,96,0,
1.3200,-0.3,130.8,144.9,3.9,85.5,-60.3,115.2,-74.1,-2815.8,320.7,16.5,283.2,201.3,-33.0,-65.4,-246.9,-6.0,-4.2,176.1,-171.0,-1.5,138.9,-80.1,129.9,0,2376,0,97,0,
1.3233,-3.6,129.6,144.9,3.0,85.5,-64.2,116.1,-71.4,-2815.8,317.7,10.8,278.1,210.6,-31.5,-58.2,-249.0,-6.0,-4.5,173.4,-173.1,-1.8,127.8,-81.0,133.5,0,2382,0,98,0,
1.3267,3.0,133.5,150.6,4.8,83.4,-67.5,114.3,-72.0,-2889.9,329.7,14.7,282.9,216.9,-21.9,-49.5,-247.8,-6.3,-4.5,177.9,-171.9,-1.8,138.0,-79.5,130.8,0,2388,0,99,0,
1.3300,4.8,135.0,148.2,7.5,85.5,-63.9,119.4,-67.8,-3038.1,323.7,16.8,281.7,211.8,-16.8,-42.6,-245.1,-6.3,-4.2,184.2,-170.4,-1.8,141.3,-75.3,135.9,0,2394,0,100,0,
1.3333,2.1,138.9,152.4,9.6,90.0,-58.8,119.1,-65.1,-2815.8,332.1,24.9,288.9,216.9,-16.5,-62.4,-243.9,-6.0,-4.5,193.5,-161.1,-1.8,149.1,-69.6,137.1,0,2400,0,101,0,
1.3367,0.3,129.3,147.3,6.3,87.9,-61.8,117.6,-69.6,-2889.9,323.1,21.3,285.9,220.2,-20.1,-60.6,-247.5,-6.3,-4.5,189.6,-165.3,-1.8,142.8,-74.1,136.2,0,2406,0,102,0,
1.3400,1.8,134.4,150.3,6.3,86.4,-59.4,114.6,-69.6,-2889.9,325.8,22.5,284.1,225.6,-15.6,-50.7,-246.9,-6.0,-4.5,189.0,-167.1,-2.1,141.0,-70.5,138.9,0,2412,0,103,0,
1.3433,2.1,135.6,150.9,12.3,88.5,-57.9,119.4,-68.1,-2964.0,327.6,21.6,285.0,226.2,-23.4,-63.3,-253.8,-6.3,-4.5,191.1,-163.2,-1.8,138.3,-73.8,135.6,0,2418,0,104,0,
1.3467,1.8,137.1,154.8,11.4,88.8,-57.6,115.8,-69.9,-2964.0,330.3,21.9,287.4,226.5,-21.3,-62.1,-250.8,-6.0,-4.5,187.5,-161.4,-1.5,145.2,-72.0,141.9,0,2424,0,105,0,
1.3500,0.9,135.0,150.3,12.9,90.6,-57.3,118.8,-71.1,-2964.0,325.5,20.4,284.7,222.3,-31.2,-63.6,-248.7,-6.0,-4.8,185.7,-160.8,-1.8,138.0,-71.4,136.5,0,2430,0,106,0,
1.3533,-2.1,130.8,145.2,6.6,90.0,-57.3,116.1,-75.0,-2815.8,315.6,12.0,280.5,203.7,-32.1,-68.1,-242.4,-6.0,-4.5,176.4,-164.1,-1.8,135.6,-68.1,131.4,0,2436,0,107,0,
1.3567,1.2,135.6,150.3,13.2,92.4,-56.7,119.1,-74.1,-2815.8,321.3,11.4,284.1,216.0,-27.0,-71.1,-244.5,-6.0,-4.5,181.8,-162.0,-2.1,132.9,-69.6,134.7,0,2442,0,108,0,
1.3600,-1.5,132.3,149.4,7.5,89.1,-61.2,114.3,-77.1,-2964.0,318.3,14.1,280.5,208.8,-23.7,-67.2,-244.2,-6.3,-4.5,181.5,-167.7,-1.8,130.8,-79.2,128.7,0,2448,0,109,0,
1.3633,-4.2,125.4,143.1,3.3,84.0,-64.2,111.6,-77.1,-2889.9,308.1,12.0,276.0,207.0,-31.5,-72.0,-246.0,-6.0,-4.5,174.0,-175.2,-2.1,122.1,-86.1,122.7,0,2454,0,110,0,
1.3667,-0.3,125.7,144.0,3.0,85.8,-65.1,114.6,-78.0,-2964.0,312.0,9.3,277.8,211.8,-29.4,-67.8,-243.6,-6.3,-4.5,177.0,-172.5,-1.5,125.1,-83.7,117.0,0,2460,0,111,0,
1.3700,-2.4,127.8,149.7,6.0,86.7,-59.1,115.2,-75.9,-2889.9,320.4,6.6,280.8,215.1,-29.7,-76.8,-246.3,-6.3,-4.8,178.5,-169.5,-1.8,130.8,-83.7,125.7,0,2466,0,112,0,
1.3733,-1.2,132.3,149.4,8.1,90.9,-62.7,117.0,-75.3,-2889.9,322.2,6.0,278.1,220.5,-22.5,-59.4,-249.6,-6.0,-4.5,180.6,-171.0,-1.5,125.7,-83.4,128.7,0,2472,0,113,0,
1.3767,-1.8,132.9,150.3,11.1,82.8,-63.3,115.2,-77.1,-2815.8,317.4,13.2,283.8,211.5,-23.7,-62.4,-249.0,-6.3,-4.5,176.1,-169.2,-1.8,129.3,-83.1,119.4,0,2478,0,114,0,
1.3800,-5.7,129.3,147.9,7.8,84.9,-63.6,115.2,-76.5,-2964.0,312.9,6.9,277.2,207.3,-31.5,-72.3,-248.7,-6.3,-4.5,174.3,-176.1,-2.1,124.8,-87.6,117.3,0,2484,0,115,0,
1.3833,-6.6,126.6,143.4,3.0,82.2,-65.1,111.0,-78.3,-2815.8,315.9,3.3,278.1,201.3,-30.3,-69.6,-242.1,-6.0,-4.5,174.3,-174.9,-2.1,131.4,-94.2,118.8,0,2490,0,116,0,
1.3867,-4.2,123.0,135.3,0.9,80.1,-69.0,110.1,-78.9,-2815.8,312.9,-1.5,270.6,195.3,-27.6,-61.2,-249.6,-6.3,-4.8,171.9,-179.7,-1.8,122.1,-84.9,111.9,0,2496,0,117,0,
1.3900,-5.1,124.5,138.6,1.8,81.6,-64.2,114.6,-78.3,-2815.8,310.8,5.1,271.5,195.0,-31.8,-69.3,-248.4,-6.0,-4.5,173.4,-177.6,-1.8,117.3,-79.5,120.6,0,2502,0,118,0,
1.3933,-6.9,125.4,143.1,4.5,84.0,-60.0,109.8,-74.7,-2889.9,315.9,7.2,276.0,200.1,-34.2,-81.3,-255.3,-6.0,-4.5,174.6,-176.1,-1.5,127.8,-83.1,120.9,0,2508,0,119,0,
1.3967,-7.5,123.0,141.3,0.3,78.9,-66.3,111.3,-73.8,-2889.9,304.2,-2.4,269.4,205.2,-39.3,-65.1,-244.8,-6.0,-4.5,167.1,-184.8,-2.1,117.9,-86.7,109.2,0,2514,0,120,0,
1.4000,-3.6,121.5,137.1,-2.4,78.0,-69.6,108.9,-75.3,-2889.9,303.6,-6.3,263.4,195.3,-41.4,-63.0,-240.9,-6.0,-4.5,168.9,-186.3,-1.8,114.0,-86.7,117.6,0,2520,0,121,0,
1.4033,-3.3,134.4,147.9,5.7,85.2,-65.1,116.4,-68.4,-2815.8,316.5,5.1,270.0,205.8,-40.8,-70.8,-247.2,-6.3,-4.5,177.9,-178.2,-1.8,121.8,-87.6,124.2,0,2526,0,122,0,
1.4067,-3.9,125.4,144.9,4.5,84.0,-67.8,110.1,-72.0,-2741.7,312.6,0.9,270.6,196.5,-32.4,-75.0,-250.5,-6.0,-4.5,171.0,-179.7,-1.5,121.2,-87.6,121.5,0,2532,0,123,0,
1.4100,-4.8,123.9,140.1,4.8,85.2,-70.8,111.9,-75.9,-2889.9,307.8,-1.2,269.4,201.6,-26.4,-70.2,-256.2,-6.0,-4.8,171.0,-179.7,-1.8,120.3,-87.6,119.4,0,2538,0,124,0,
1.4133,-3.6,128.7,146.7,9.9,92.4,-62.1,111.9,-72.3,-2815.8,311.1,3.9,275.4,203.7,-30.3,-70.2,-249.9,-6.0,-4.2,173.4,-175.8,-1.5,120.9,-88.2,122.4,0,2544,0,125,0,
1.4167,-1.8,126.3,136.8,0.0,80.1,-62.7,112.8,-75.9,-2889.9,304.5,-3.3,269.1,202.2,-29.1,-60.3,-240.9,-6.3,-4.2,166.5,-183.0,-1.8,114.6,-91.8,123.6,0,2550,0,126,0,
1.4200,-6.0,122.7,137.4,-5.7,76.5,-67.5,110.1,-80.4,-2889.9,306.6,-4.8,270.0,193.8,-31.2,-69.0,-249.0,-6.3,-4.5,165.3,-183.0,-1.8,123.9,-97.2,118.2,0,2556,0,127,0,
1.4233,-3.6,124.5,135.0,-6.3,76.2,-71.4,110.4,-80.4,-2889.9,308.4,-7.2,265.5,197.4,-32.4,-60.9,-243.6,-6.3,-4.5,164.7,-185.7,-1.5,114.0,-88.8,115.5,0,2562,0,128,0,
1.4267,-5.4,126.3,141.3,-0.6,78.9,-69.6,111.0,-78.0,-2964.0,310.5,-6.6,273.0,195.9,-36.3,-66.9,-243.9,-6.3,-4.5,171.6,-180.6,-1.8,120.9,-89.7,122.4,0,2568,0,129,0,
1.4300,-4.2,127.8,139.2,1.8,79.8,-67.5,111.3,-74.7,-2815.8,314.7,-1.5,272.7,209.4,-31.8,-71.1,-256.2,-6.6,-4.8,171.6,-175.5,-1.5,117.3,-93.0,122.1,0,2574,0,130,0,
1.4333,-3.6,129.3,140.4,2.4,81.9,-65.1,109.2,-73.5,-2964.0,313.2,-0.9,267.3,201.6,-26.1,-64.2,-248.1,-6.3,-4.2,171.6,-180.3,-1.8,122.7,-89.7,117.6,0,2580,0,131,0,
1.4367,1.8,132.0,146.1,7.8,83.4,-61.8,112.8,-73.2,-2815.8,318.6,8.1,270.6,208.8,-20.7,-57.6,-245.1,-6.0,-4.5,180.0,-183.3,-1.8,123.0,-91.8,110.4,0,2586,0,132,0,
1.4400,2.1,129.3,143.1,4.2,80.4,-69.0,108.3,-76.5,-2889.9,318.9,6.0,273.3,201.0,-25.5,-59.4,-244.2,-6.3,-4.5,175.5,-188.1,-1.8,125.4,-90.6,109.2,0,2592,0,133,0,
1.4433,0.9,132.0,143.7,5.1,81.3,-69.6,108.0,-73.8,-2815.8,318.6,7.5,278.1,208.5,-27.3,-67.8,-246.6,-6.0,-4.2,182.7,-180.6,-2.1,127.8,-86.1,123.9,0,2598,0,134,0,
1.4467,3.0,132.9,144.3,6.9,83.4,-66.3,113.4,-72.6,-2815.8,324.6,10.8,277.2,217.8,-18.9,-66.6,-241.8,-6.0,-4.8,183.9,-176.7,-1.5,130.5,-84.0,127.2,0,2604,0,135,0,
1.4500,4.8,137.7,150.6,8.1,83.1,-64.5,112.2,-72.3,-2964.0,328.5,12.3,281.1,221.7,-14.7,-62.1,-245.4,-6.3,-4.5,188.4,-174.0,-1.5,132.3,-94.5,130.5,0,2610,0,136,0,
1.4533,1.8,131.4,141.3,7.2,82.2,-69.9,111.0,-78.0,-2815.8,325.5,6.0,277.2,217.5,-20.7,-63.0,-243.9,-6.0,-4.5,179.4,-180.0,-1.8,127.2,-88.2,120.3,0,2616,0,137,0,
1.4567,0.0,132.0,144.3,7.8,80.4,-69.0,112.8,-76.2,-2889.9,316.5,5.1,273.6,206.4,-24.3,-61.8,-243.0,-6.3,-4.5,179.7,-178.2,-1.8,120.3,-88.2,122.4,0,2622,0,138,0,
1.4600,0.0,130.8,141.3,6.9,84.3,-63.6,112.5,-78.3,-2889.9,324.0,5.4,272.4,205.8,-24.3,-52.8,-233.7,-6.3,-4.5,174.9,-176.7,-2.1,127.8,-85.8,121.2,0,2628,0,139,0,
1.4633,-1.8,128.4,138.9,6.0,80.4,-63.3,109.5,-79.8,-2889.9,311.4,7.2,269.1,206.4,-24.9,-57.0,-237.9,-6.0,-4.8,177.0,-177.6,-1.8,121.8,-92.7,111.3,0,2634,0,140,0,
1.4667,0.9,132.3,134.1,3.6,75.0,-66.6,106.8,-78.6,-2815.8,318.9,-6.9,265.8,208.2,-15.3,-46.8,-237.0,-6.0,-4.5,168.6,-186.0,-1.8,112.2,-87.3,114.6,0,2640,0,141,0,
1.4700,-2.1,131.1,136.5,0.3,77.4,-68.4,108.0,-80.4,-2815.8,309.0,-9.0,263.4,198.9,-19.8,-44.1,-239.4,-6.0,-4.8,168.6,-185.7,-1.8,115.5,-95.7,119.7,0,2646,0,142,0,
1.4733,-3.3,129.0,139.2,5.1,81.9,-69.3,111.9,-77.7,-2815.8,315.9,-2.4,268.2,196.8,-36.6,-58.5,-234.6,-5.7,-4.2,170.4,-183.0,-1.8,119.1,-90.0,117.6,0,2652,0,143,0,
1.4767,-3.3,127.2,137.4,9.9,86.1,-58.5,120.3,-76.2,-2889.9,313.8,3.0,274.8,199.8,-33.3,-83.4,-240.0,-6.3,-4.5,172.2,-177.9,-2.1,114.6,-82.2,127.2,0,2658,0,144,0,
1.4800,-2.7,128.7,134.1,8.1,84.9,-58.2,117.0,-73.5,-3038.1,313.5,4.2,275.4,194.7,-30.3,-75.0,-243.0,-6.0,-4.2,172.5,-175.2,-1.5,119.4,-83.1,121.5,0,2664,0,145,0,
1.4833,-1.8,126.9,134.4,6.0,83.4,-61.5,119.1,-73.5,-2815.8,311.1,7.5,273.3,188.7,-31.2,-78.9,-252.9,-6.3,-4.5,171.6,-178.2,-1.5,115.8,-90.3,120.6,0,2670,0,146,0,
1.4867,-1.5,131.1,135.9,2.1,81.3,-63.6,115.2,-72.0,-2741.7,305.7,-1.5,268.8,180.9,-34.8,-78.6,-253.2,-6.3,-4.8,166.5,-186.9,-1.5,110.4,-92.1,116.4,0,2676,0,147,0,
1.4900,-3.9,128.1,133.5,3.9,81.6,-65.1,115.2,-76.5,-2741.7,300.6,-2.7,270.0,186.0,-39.3,-80.4,-256.5,-6.9,-4.5,166.8,-185.4,-1.8,105.9,-96.3,108.3,0,2682,0,148,0,
1.4933,1.2,132.3,140.1,10.5,86.1,-59.4,118.8,-68.4,-2964.0,315.3,3.6,275.1,200.1,-30.3,-81.0,-265.8,-6.0,-4.5,171.6,-178.8,-1.8,122.4,-91.2,124.5,0,2688,0,149,0,
1.4967,1.8,131.4,139.8,4.2,82.8,-65.4,116.4,-73.2,-2889.9,306.3,-6.3,265.8,204.3,-26.4,-67.8,-261.0,-6.0,-4.5,169.8,-184.8,-1.8,114.0,-97.5,119.4,0,2694,0,150,0,
1.5000,1.5,132.0,143.7,9.0,86.1,-61.5,118.2,-68.4,-2815.8,303.3,0.6,267.9,199.5,-32.4,-70.5,-246.0,-6.3,-4.5,173.7,-182.1,-1.5,111.9,-90.3,123.3,0,2700,0,151,0,
1.5033,3.3,138.0,148.5,16.2,88.5,-54.9,121.5,-62.4,-2815.8,300.9,4.2,273.6,201.3,-27.9,-70.8,-251.7,-6.6,-4.5,172.5,-179.1,-1.8,119.7,-91.5,121.2,0,2706,0,152,0,
1.5067,6.0,141.0,147.0,16.8,87.6,-57.9,119.7,-62.4,-2889.9,307.5,2.7,274.8,196.2,-30.3,-76.2,-263.1,-6.3,-4.5,169.5,-183.0,-1.8,116.1,-93.0,123.3,0,2712,0,153,0,
1.5100,7.5,140.7,149.1,17.1,88.2,-60.6,120.9,-60.3,-2889.9,312.0,7.8,276.9,194.4,-28.8,-78.3,-260.7,-6.3,-4.5,176.1,-179.4,-1.5,120.3,-94.8,114.3,0,2718,0,154,0,
1.5133,3.0,138.3,144.3,9.9,81.9,-61.8,116.7,-65.4,-2889.9,311.4,2.1,273.6,200.7,-24.6,-71.4,-251.1,-6.0,-4.5,171.9,-183.3,-1.8,116.1,-92.1,114.9,0,2724,0,155,0,
1.5167,1.2,130.2,144.6,8.1,79.8,-64.2,120.6,-66.0,-2889.9,305.7,-3.9,270.6,199.5,-32.1,-75.6,-253.2,-5.7,-4.8,169.2,-185.4,-1.8,116.4,-85.8,122.1,0,2730,0,156,0,
1.5200,-1.2,129.3,138.6,3.6,73.8,-65.1,119.4,-71.1,-2815.8,307.5,-6.3,266.1,200.4,-33.9,-74.7,-258.6,-6.3,-4.5,167.7,-189.6,-1.5,118.5,-85.2,123.9,0,2736,0,157,0,
1.5233,-2.7,129.9,134.1,1.2,75.6,-63.9,115.5,-69.6,-2889.9,302.4,-8.1,261.0,193.5,-31.8,-76.8,-258.3,-6.3,-4.2,163.8,-193.8,-1.5,116.4,-98.1,116.7,0,2742,0,158,0,
1.5267,-4.2,129.3,134.7,-2.1,76.8,-60.3,114.3,-70.5,-2964.0,298.8,-4.8,257.7,188.4,-38.1,-72.3,-254.7,-6.0,-4.8,163.2,-195.6,-1.5,110.4,-93.9,108.9,0,2748,0,159,0,
1.5300,-5.1,127.8,133.8,-1.2,75.9,-66.3,116.7,-69.0,-2964.0,298.8,-3.6,254.4,192.0,-41.4,-82.8,-261.9,-6.3,-4.5,164.1,-200.1,-1.5,107.4,-99.9,97.2,0,2754,0,160,0,
1.5333,-4.5,127.8,135.3,-0.3,72.0,-63.3,114.6,-70.2,-2889.9,301.5,-13.2,253.8,190.5,-37.5,-72.9,-257.4,-6.6,-4.8,165.9,-203.4,-1.8,106.8,-96.9,109.8,0,2760,0,161,0,
1.5367,-3.6,129.6,139.8,3.3,74.1,-67.2,117.9,-67.5,-2815.8,299.7,-9.0,258.6,192.6,-46.2,-76.8,-255.0,-6.0,-4.8,163.2,-194.4,-1.8,111.0,-93.3,114.3,0,2766,0,162,0,
1.5400,-3.9,130.5,141.3,6.9,77.7,-63.9,115.8,-63.0,-2815.8,293.7,-2.4,263.4,181.8,-46.2,-76.8,-258.3,-6.3,-4.5,165.0,-186.9,-1.5,107.4,-97.8,110.1,0,2772,0,163,0,
1.5433,-4.2,131.1,139.8,2.1,74.4,-61.5,116.1,-69.0,-2964.0,292.2,-9.9,256.2,180.9,-45.3,-74.7,-254.4,-6.0,-4.2,155.7,-192.9,-1.2,90.0,-96.0,111.6,0,2778,0,164,0,
1.5467,-7.5,124.8,137.1,-2.1,70.5,-66.9,114.6,-70.2,-3038.1,288.6,-13.5,248.4,181.5,-45.0,-66.6,-246.3,-6.3,-4.8,154.2,-201.6,-1.8,99.0,-98.7,104.7,0,2784,0,165,0,
1.5500,-6.0,127.8,137.4,0.6,73.5,-67.2,113.4,-69.6,-2889.9,288.3,-6.0,257.7,187.5,-50.4,-77.7,-252.9,-6.3,-4.2,158.1,-199.8,-1.8,100.5,-98.4,105.0,0,2790,0,166,0,
1.5533,-0.9,131.7,142.8,10.5,79.2,-58.2,117.6,-63.6,-2964.0,301.5,-2.1,263.4,185.7,-36.3,-87.9,-263.1,-6.3,-4.2,165.0,-192.6,-1.8,105.3,-97.2,111.6,0,2796,0,167,0,
1.5567,1.2,131.1,139.8,6.0,80.7,-59.7,118.2,-63.9,-2815.8,304.5,-8.7,263.7,169.8,-36.3,-78.0,-247.5,-6.3,-4.2,170.1,-191.4,-1.8,112.8,-91.5,114.3,0,2802,0,168,0,
1.5600,-0.3,132.3,139.5,8.4,84.6,-58.5,118.2,-69.0,-2889.9,302.7,1.5,263.1,159.0,-35.1,-73.8,-250.2,-6.3,-4.5,174.3,-185.1,-1.8,114.0,-94.5,114.9,0,2808,0,169,0,
1.5633,1.5,134.7,140.4,7.5,84.0,-55.8,117.6,-64.8,-2815.8,302.7,3.3,265.8,174.3,-33.3,-73.2,-257.7,-6.3,-4.8,174.3,-183.9,-1.8,120.6,-98.1,113.1,0,2814,0,170,0,
1.5667,1.5,135.6,140.1,7.8,80.7,-61.2,119.1,-63.9,-2815.8,300.6,-2.7,266.7,169.8,-36.9,-73.2,-255.6,-6.3,-4.8,169.8,-188.1,-1.8,114.0,-90.0,111.3,0,2820,0,171,0,
1.5700,2.4,131.4,136.8,8.4,78.0,-67.2,118.8,-68.1,-2889.9,295.2,-4.8,265.2,160.8,-27.3,-61.5,-249.6,-6.0,-4.5,167.4,-189.9,-2.1,106.8,-90.0,111.6,0,2826,0,172,0,
1.5733,-0.6,135.3,138.9,15.3,84.3,-62.1,120.6,-66.3,-2889.9,305.4,-3.3,271.8,170.1,-33.9,-69.3,-251.1,-6.3,-4.5,171.3,-183.0,-1.5,112.8,-87.6,109.5,0,2832,0,173,0,
1.5767,-2.4,135.3,136.2,9.9,80.7,-62.7,123.0,-69.0,-2889.9,301.5,-7.2,265.8,173.7,-39.3,-68.7,-248.7,-6.3,-4.5,169.2,-186.9,-1.5,111.3,-89.4,111.6,0,2838,0,174,0,
1.5800,-1.5,136.8,139.2,9.6,83.4,-61.2,116.7,-69.3,-2964.0,295.8,-2.1,269.1,166.5,-39.3,-75.9,-255.3,-6.3,-4.5,170.4,-183.9,-1.5,113.1,-90.3,111.0,0,2844,0,175,0,
1.5833,-0.3,135.6,140.1,12.9,83.4,-60.0,117.3,-66.0,-2815.8,302.1,1.2,270.9,163.2,-34.5,-69.0,-249.0,-6.0,-4.5,171.0,-183.3,-1.5,111.6,-91.5,114.3,0,2850,0,176,0,
1.5867,-1.2,132.0,138.0,12.9,81.6,-60.9,118.8,-65.1,-2964.0,300.3,-2.7,264.9,171.6,-38.1,-70.8,-252.0,-6.3,-4.2,165.0,-188.1,-1.5,106.5,-92.7,121.2,0,2856,0,177,0,
1.5900,-1.8,133.2,137.1,15.0,85.5,-59.7,116.1,-60.6,-2889.9,300.6,-4.5,263.7,179.4,-33.0,-73.2,-259.2,-6.3,-4.2,167.1,-186.3,-1.5,112.8,-105.3,122.4,0,2862,0,178,0,
1.5933,-1.5,136.2,141.0,17.7,86.7,-60.3,120.3,-61.2,-2964.0,296.4,-3.0,261.9,180.6,-40.2,-77.4,-251.4,-6.3,-4.5,169.2,-187.8,-1.5,114.9,-98.4,111.6,0,2868,0,179,0,
1.5967,-3.3,133.5,133.5,8.7,80.1,-63.3,119.4,-63.9,-2964.0,295.8,-9.6,251.7,176.1,-37.5,-69.6,-255.6,-6.3,-4.2,161.1,-194.7,-1.8,107.4,-106.2,108.3,0,2874,0,180,0,
1.6000,-5.4,129.0,132.9,6.6,77.7,-64.8,119.7,-67.5,-2889.9,289.2,-17.4,248.4,173.7,-45.9,-71.1,-249.6,-6.0,-4.5,155.4,-203.1,-1.8,105.0,-102.6,98.1,0,2880,0,181,0,
1.6033,-2.1,131.4,132.3,8.4,80.4,-61.5,122.4,-65.7,-2889.9,291.9,-17.1,250.8,180.0,-45.6,-80.1,-249.0,-5.7,-4.2,153.6,-198.9,-1.8,108.0,-96.9,108.3,0,2886,0,182,0,
1.6067,-1.8,138.3,137.4,10.5,80.7,-62.4,119.4,-66.3,-2741.7,294.0,-16.2,252.6,171.0,-47.7,-89.4,-270.3,-6.3,-4.5,159.6,-195.6,-1.8,104.1,-104.1,106.2,0,2892,0,183,0,
1.6100,0.3,135.6,136.5,9.6,79.8,-61.2,118.8,-63.9,-2964.0,294.0,-11.7,251.4,171.6,-41.1,-78.0,-257.7,-6.3,-4.5,157.8,-195.6,-1.8,105.3,-100.8,116.7,0,2898,0,184,0,
1.6133,0.3,130.8,133.2,7.2,78.0,-64.5,120.6,-66.0,-3038.1,286.5,-10.8,243.9,176.7,-39.3,-78.3,-262.5,-6.0,-3.9,157.2,-198.0,-1.5,96.9,-105.0,115.2,0,2904,0,185,0,
1.6167,-0.6,131.7,133.2,11.7,78.0,-59.7,122.4,-64.2,-2964.0,296.1,-10.2,254.1,182.7,-42.0,-79.5,-262.5,-6.3,-4.5,159.9,-195.3,-1.5,99.3,-107.1,118.5,0,2910,0,186,0,
1.6200,-2.4,133.5,135.0,13.8,80.4,-55.2,121.8,-60.0,-2889.9,295.8,-7.8,261.6,179.4,-36.0,-86.4,-259.2,-6.3,-4.2,164.4,-193.8,-1.8,105.9,-105.3,113.1,0,2916,0,187,0,
1.6233,-3.3,131.4,133.2,10.2,79.2,-55.5,122.7,-62.4,-2889.9,295.5,-8.4,258.6,174.9,-35.4,-86.4,-260.7,-6.0,-4.5,165.0,-194.7,-2.1,109.8,-111.9,115.5,0,2922,0,188,0,
1.6267,-1.5,133.5,139.5,15.0,85.8,-50.4,123.3,-60.3,-3038.1,301.8,-8.7,262.5,198.6,-34.2,-89.1,-263.1,-6.0,-4.8,170.4,-185.4,-1.8,121.5,-102.9,120.0,0,2928,0,189,0,
1.6300,-0.6,133.8,136.5,10.5,81.0,-60.9,118.2,-63.9,-3038.1,290.4,-13.8,257.4,195.9,-33.6,-83.7,-262.2,-6.3,-4.8,165.3,-192.3,-1.8,107.7,-100.2,117.9,0,2934,0,190,0,
1.6333,-4.5,128.4,136.2,7.5,81.0,-61.2,117.6,-66.0,-2889.9,284.1,-21.0,250.2,172.5,-45.0,-91.5,-263.7,-6.3,-4.5,158.4,-195.6,-1.5,107.7,-102.6,113.7,0,2940,0,191,0,
1.6367,-4.8,130.2,135.9,7.5,80.7,-55.2,118.5,-67.5,-2815.8,296.1,-13.8,259.8,178.8,-39.0,-81.9,-265.5,-6.0,-4.5,156.3,-191.7,-1.8,113.7,-107.4,115.2,0,2946,0,192,0,
1.6400,-3.3,132.3,138.3,9.9,88.2,-56.1,116.1,-64.5,-2889.9,301.5,-12.9,266.1,184.8,-34.5,-77.1,-273.0,-6.3,-4.2,162.3,-188.7,-2.1,107.1,-108.9,106.5,0,2952,0,193,0,
1.6433,-3.9,129.0,137.7,8.4,86.7,-58.8,114.9,-66.3,-2964.0,300.9,-17.4,261.9,182.4,-37.8,-76.5,-266.4,-5.7,-4.5,158.7,-192.6,-1.8,107.1,-101.4,119.4,0,2958,0,194,0,
1.6467,-4.2,130.2,135.6,11.7,88.5,-54.0,119.1,-63.9,-3112.2,310.2,-11.7,266.4,188.1,-48.0,-72.6,-252.9,-6.0,-4.2,165.0,-186.6,-1.8,111.0,-101.7,121.2,0,2964,0,195,0,
1.6500,-4.2,129.3,134.1,9.3,90.3,-51.3,123.6,-64.2,-3038.1,307.2,-8.1,269.4,176.1,-37.8,-75.0,-250.2,-6.0,-4.5,165.6,-184.8,-1.8,118.5,-94.8,124.8,0,2970,0,196,0,
1.6533,1.5,131.7,134.7,12.3,88.2,-55.5,122.1,-61.5,-2815.8,306.6,-4.2,268.5,186.0,-33.9,-81.3,-260.1,-6.3,-4.5,168.9,-184.5,-1.8,120.3,-100.2,133.5,0,2976,0,197,0,
1.6567,-0.9,133.5,137.4,9.9,87.0,-56.4,116.4,-63.3,-3038.1,303.3,-9.0,258.6,190.2,-33.9,-79.2,-267.9,-5.7,-4.5,165.3,-187.2,-1.8,110.7,-104.7,122.4,0,2982,0,198,0,
1.6600,0.9,130.5,134.7,7.5,85.5,-55.2,116.1,-66.9,-2964.0,300.3,-12.6,256.5,189.3,-33.3,-74.7,-260.1,-6.0,-4.5,162.9,-188.1,-1.5,110.1,-101.4,114.9,0,2988,0,199,0,
1.6633,2.4,130.8,132.6,3.9,77.1,-63.3,114.9,-69.9,-3038.1,295.8,-19.2,255.3,189.3,-29.7,-61.5,-255.6,-6.3,-4.5,160.8,-195.9,-2.1,112.5,-100.5,115.8,0,2994,0,200,0,
1.6667,-2.1,126.9,127.2,-0.9,74.4,-65.4,118.2,-69.6,-2815.8,295.8,-18.0,259.8,175.2,-26.4,-54.6,-241.5,-6.0,-4.2,156.6,-192.3,-1.8,108.6,-95.4,114.9,0,3000,0,201,0,
1.6700,0.9,131.4,135.0,7.5,84.3,-58.2,119.4,-65.4,-2889.9,307.8,-6.6,259.8,168.6,-36.9,-84.9,-254.4,-6.0,-4.5,165.0,-187.8,-1.5,114.9,-97.2,125.4,0,3006,0,202,0,
1.6733,0.9,133.2,138.6,10.5,87.0,-56.4,116.4,-64.2,-2815.8,305.1,-9.9,263.7,187.2,-39.9,-81.6,-261.9,-6.3,-4.5,165.6,-186.6,-1.8,116.4,-101.7,127.2,0,3012,0,203,0,
1.6767,3.0,138.3,146.4,18.6,92.1,-58.5,120.0,-58.5,-3038.1,306.6,2.7,273.3,200.1,-37.5,-80.7,-263.4,-6.3,-4.2,174.3,-178.8,-2.1,120.9,-90.6,130.8,0,3018,0,204,0,
1.6800,3.6,135.6,144.6,18.0,90.6,-53.7,119.7,-59.4,-2964.0,312.6,-3.0,273.3,194.7,-25.8,-72.9,-261.0,-6.3,-4.8,173.4,-174.3,-1.5,119.1,-90.3,133.2,0,3024,0,205,0,
1.6833,3.9,142.8,146.4,21.0,91.8,-54.3,118.8,-57.0,-3112.2,306.0,3.9,273.0,190.2,-26.7,-69.9,-258.9,-6.3,-4.5,176.4,-178.8,-1.8,120.3,-86.4,134.7,0,3030,0,206,0,
1.6867,4.5,140.4,144.9,17.1,90.9,-57.3,120.3,-60.0,-2815.8,312.9,-4.5,272.1,193.5,-25.8,-65.7,-257.7,-6.3,-4.5,172.8,-186.9,-1.8,119.4,-89.4,129.6,0,3036,0,207,0,
1.6900,0.0,139.8,141.3,14.1,87.0,-53.7,119.1,-63.0,-2889.9,304.5,-3.3,262.5,194.4,-30.0,-72.0,-261.3,-6.0,-4.5,171.9,-187.8,-1.5,113.4,-90.3,125.1,0,3042,0,208,0,
1.6933,6.3,145.5,148.2,16.8,89.1,-50.4,120.9,-58.2,-2889.9,311.1,9.3,277.5,209.1,-26.4,-68.7,-255.9,-6.0,-4.8,181.2,-178.2,-1.8,125.7,-86.1,133.2,0,3048,0,209,0,
1.6967,7.5,141.3,152.1,18.3,90.9,-50.7,120.6,-59.7,-2964.0,311.4,11.7,279.6,208.2,-22.5,-64.2,-259.2,-6.3,-4.8,177.0,-172.2,-2.1,133.8,-84.9,132.9,0,3054,0,210,0,
1.7000,7.5,143.1,146.7,16.2,86.7,-51.9,118.5,-60.6,-2889.9,311.1,2.4,269.1,199.5,-23.1,-62.1,-254.4,-6.0,-4.2,179.4,-181.5,-1.8,126.6,-87.9,125.4,0,3060,0,211,0,
1.7033,6.6,143.7,151.2,18.6,94.2,-45.6,123.0,-58.8,-2889.9,316.5,7.8,274.2,202.2,-26.1,-62.7,-256.5,-6.0,-4.8,184.5,-181.5,-1.5,130.2,-91.5,139.5,0,3066,0,212,0,
1.7067,5.1,147.9,153.3,24.9,97.8,-44.4,126.6,-55.8,-2815.8,318.0,19.2,286.8,209.1,-19.5,-63.3,-249.9,-6.0,-4.8,189.9,-170.4,-1.8,131.1,-82.2,138.3,0,3072,0,213,0,
1.7100,7.8,145.2,152.4,21.6,96.6,-44.4,124.5,-54.3,-2964.0,315.0,16.5,284.7,203.7,-28.5,-66.9,-246.9,-6.3,-4.5,186.9,-168.3,-1.8,129.3,-83.4,139.5,0,3078,0,214,0,
1.7133,4.8,145.5,155.1,22.8,100.5,-44.4,126.0,-55.5,-2964.0,312.0,14.4,287.4,197.7,-32.4,-66.3,-248.1,-6.3,-4.5,189.9,-166.5,-1.5,124.8,-80.7,147.0,0,3084,0,215,0,
1.7167,-1.2,139.5,150.9,17.7,93.6,-52.5,121.8,-60.0,-2964.0,320.1,11.4,285.0,202.5,-36.6,-71.1,-255.0,-6.3,-4.5,184.5,-170.7,-1.8,118.2,-84.9,140.1,0,3090,0,216,0,
1.7200,4.8,139.8,149.7,23.1,97.2,-50.4,124.5,-56.4,-2815.8,310.2,10.5,282.0,209.4,-30.6,-68.4,-253.5,-6.3,-4.5,180.9,-171.0,-1.5,118.2,-88.5,139.2,0,3096,0,217,0,
1.7233,3.9,137.1,145.8,16.8,97.2,-47.4,120.6,-59.4,-2889.9,310.2,6.0,280.2,195.0,-35.7,-64.8,-241.5,-6.0,-4.2,178.2,-173.4,-1.8,131.1,-85.5,137.4,0,3102,0,218,0,
1.7267,4.5,141.6,149.4,21.6,94.5,-45.9,121.5,-60.0,-2815.8,316.5,14.1,282.0,201.3,-24.6,-60.3,-255.9,-6.0,-4.5,184.5,-171.6,-1.2,123.9,-83.7,132.0,0,3108,0,219,0,
1.7300,2.4,140.1,149.1,15.3,92.7,-51.0,117.9,-62.4,-2964.0,309.6,8.4,280.5,199.2,-33.3,-78.3,-259.2,-6.3,-4.5,180.9,-173.4,-1.2,119.7,-86.1,136.2,0,3114,0,220,0,
1.7333,3.3,139.5,147.3,16.5,89.4,-51.6,120.0,-63.6,-2889.9,308.1,3.0,278.1,206.1,-29.7,-72.0,-249.9,-6.0,-4.5,183.3,-176.1,-1.8,114.9,-81.0,135.9,0,3120,0,221,0,
1.7367,3.9,141.9,148.2,18.3,92.4,-46.8,118.5,-60.3,-2889.9,316.5,4.8,281.1,194.7,-39.3,-83.1,-249.3,-6.3,-4.5,189.3,-175.5,-1.8,123.6,-81.6,136.5,0,3126,0,222,0,
1.7400,6.3,147.0,149.7,24.0,98.4,-43.8,122.4,-53.1,-2964.0,315.6,12.9,281.1,185.7,-25.2,-79.5,-270.6,-6.0,-4.5,189.6,-169.8,-1.8,129.0,-79.5,142.2,0,3132,0,223,0,
1.7433,9.6,145.5,147.9,22.2,99.3,-47.4,120.3,-58.5,-2815.8,316.2,10.5,286.2,191.7,-24.3,-74.4,-262.5,-6.3,-4.5,191.1,-171.3,-1.8,128.1,-76.5,147.0,0,3138,0,224,0,
1.7467,9.3,146.1,149.4,21.3,96.3,-46.2,117.3,-60.0,-2964.0,315.0,14.1,286.5,206.4,-23.1,-72.6,-271.5,-6.3,-4.5,191.1,-174.9,-2.1,130.8,-87.0,141.3,0,3144,0,225,0,
1.7500,8.1,145.8,151.5,14.7,95.1,-51.3,119.1,-63.0,-2889.9,311.4,10.8,279.6,198.6,-22.5,-68.4,-262.5,-6.3,-4.5,186.3,-172.5,-0.9,124.2,-79.8,138.6,0,3150,0,226,0,
1.7533,12.0,147.6,154.8,17.4,95.4,-51.9,120.6,-63.9,-3038.1,316.5,13.8,285.0,207.3,-21.0,-62.1,-254.1,-5.7,-4.5,192.9,-165.6,-1.5,125.4,-74.4,135.6,0,3156,0,227,0,
1.7567,10.5,149.4,158.7,20.4,96.6,-50.7,120.0,-61.2,-2889.9,319.8,15.6,285.6,218.7,-21.3,-70.5,-261.6,-6.3,-4.8,193.2,-161.7,-1.2,133.5,-75.6,135.3,0,3162,0,228,0,
1.7600,8.1,150.9,156.3,21.6,95.7,-46.8,120.9,-60.3,-2964.0,319.8,13.5,286.5,211.5,-21.3,-75.9,-271.2,-6.0,-4.5,191.4,-165.3,-1.8,135.3,-78.0,131.4,0,3168,0,229,0,
1.7633,7.5,140.7,147.0,13.8,87.0,-53.7,120.0,-68.1,-3038.1,312.0,2.4,278.1,198.3,-16.8,-55.8,-255.9,-6.6,-4.8,178.2,-176.4,-1.5,120.3,-80.4,127.8,0,3174,0,230,0,
1.7667,6.3,140.7,149.4,14.1,90.3,-52.8,121.5,-66.3,-2964.0,312.6,1.5,274.8,201.0,-25.5,-61.8,-258.6,-6.0,-4.2,181.8,-179.1,-1.8,118.5,-81.6,129.3,0,3180,0,231,0,
1.7700,6.9,139.8,144.6,21.3,98.1,-44.1,119.7,-60.3,-2889.9,321.6,9.6,282.3,204.3,-27.0,-71.4,-267.6,-6.0,-4.8,182.1,-170.7,-1.5,128.1,-82.8,143.4,0,3186,0,232,0,
1.7733,7.2,141.6,149.4,19.2,93.6,-45.6,121.8,-63.3,-2741.7,315.0,6.0,281.4,204.9,-26.7,-72.3,-266.4,-6.3,-4.5,181.5,-169.8,-1.5,125.7,-84.9,131.7,0,3192,0,233,0,
1.7767,4.2,140.7,150.3,18.0,94.2,-48.3,123.6,-65.7,-2889.9,312.6,13.2,281.1,205.5,-28.5,-70.8,-261.6,-5.7,-4.2,182.1,-171.0,-1.5,120.3,-83.7,126.6,0,3198,0,234,0,
1.7800,1.5,141.6,147.9,12.9,89.1,-51.0,119.7,-66.3,-3038.1,312.9,5.7,276.6,209.1,-36.6,-74.7,-258.3,-6.3,-4.5,181.5,-174.0,-1.8,123.0,-83.1,132.9,0,3204,0,235,0,
1.7833,3.0,143.1,156.0,21.9,92.7,-45.9,123.9,-59.4,-2964.0,320.1,12.0,285.3,213.6,-35.7,-76.5,-258.3,-6.3,-4.2,186.3,-168.3,-1.5,126.0,-80.4,140.1,0,3210,0,236,0,
1.7867,0.9,140.4,149.4,14.7,86.7,-54.6,117.3,-65.7,-2815.8,313.5,2.7,274.2,189.9,-21.0,-65.7,-254.7,-6.3,-4.5,178.8,-175.8,-1.8,127.8,-80.7,130.5,0,3216,0,237,0,
1.7900,-3.3,136.2,143.7,11.7,83.7,-60.0,114.6,-73.5,-2889.9,309.9,0.3,267.9,197.1,-27.6,-67.8,-253.8,-6.0,-4.2,172.5,-182.7,-1.5,118.2,-86.7,124.2,0,3222,0,238,0,
1.7933,0.0,136.2,148.5,16.8,87.9,-58.5,117.6,-70.5,-2964.0,317.1,5.7,276.6,204.0,-25.5,-65.7,-253.2,-6.0,-4.5,177.3,-175.5,-1.8,119.4,-88.2,130.2,0,3228,0,239,0,
1.7967,0.3,140.7,152.4,15.3,86.7,-57.0,117.3,-68.1,-2964.0,314.1,13.2,281.4,201.3,-24.9,-67.8,-255.3,-6.0,-4.2,181.8,-175.5,-1.5,128.1,-85.5,129.3,0,3234,0,240,0,
1.8000,3.0,141.9,150.9,18.9,89.4,-56.4,115.5,-67.5,-2964.0,319.5,17.7,282.0,207.3,-16.5,-62.4,-251.1,-6.3,-4.8,186.0,-171.0,-1.5,133.2,-89.4,137.1,0,3240,0,241,0,
1.8033,6.0,143.1,151.8,20.7,93.0,-57.0,118.2,-64.8,-2815.8,317.7,17.4,281.4,209.7,-16.5,-58.2,-246.6,-6.6,-4.5,186.6,-171.0,-1.8,126.6,-84.3,131.7,0,3246,0,242,0,
1.8067,7.5,148.8,157.2,24.3,93.3,-50.7,120.3,-59.7,-2815.8,327.0,18.3,287.7,210.6,-18.9,-58.5,-245.7,-6.3,-4.2,192.3,-166.2,-1.5,130.2,-82.5,136.2,0,3252,0,243,0,
1.8100,7.5,151.8,162.0,32.1,99.9,-48.9,121.5,-60.0,-2815.8,327.3,21.6,291.9,208.5,-25.5,-80.1,-253.5,-6.3,-4.2,197.1,-159.9,-1.8,134.4,-77.1,135.9,0,3258,0,244,0,
1.8133,8.1,155.7,160.5,27.6,96.0,-48.0,117.6,-60.0,-2964.0,324.3,14.1,289.8,215.1,-14.4,-69.6,-262.8,-6.3,-4.2,190.8,-162.6,-1.5,136.2,-86.4,141.6,0,3264,0,245,0,
1.8167,11.4,159.3,164.1,30.0,98.7,-44.1,118.8,-60.6,-2889.9,325.5,24.3,294.3,208.5,-9.9,-61.5,-259.5,-6.3,-4.5,197.7,-159.0,-1.5,135.3,-90.9,146.1,0,3270,0,246,0,
1.8200,9.0,158.4,162.3,28.2,99.9,-47.4,117.6,-61.5,-2889.9,327.0,29.4,293.4,216.3,-12.9,-63.0,-253.5,-6.3,-4.2,199.5,-155.1,-1.8,136.5,-79.5,138.6,0,3276,0,247,0,
1.8233,8.1,154.5,160.2,23.4,96.0,-48.3,117.6,-65.1,-2815.8,331.8,27.6,293.1,213.3,-7.2,-56.4,-257.1,-6.0,-4.8,198.3,-158.7,-1.8,139.2,-74.1,135.0,0,3282,0,248,0,
1.8267,9.0,156.9,161.1,22.2,99.3,-43.8,119.4,-61.5,-2889.9,326.7,23.4,296.4,205.8,-9.3,-53.1,-254.1,-6.0,-4.8,195.3,-161.7,-1.8,131.7,-75.3,134.4,0,3288,0,249,0,
1.8300,7.5,154.2,167.4,28.5,103.2,-38.1,121.5,-62.1,-2964.0,329.7,32.4,303.9,215.1,-16.5,-61.8,-258.0,-6.6,-4.8,202.2,-153.0,-2.1,139.8,-77.4,129.9,0,3294,0,250,0,
1.8333,10.2,153.9,165.9,29.7,104.1,-37.5,122.1,-61.2,-2964.0,332.4,32.4,304.5,213.6,-16.2,-63.6,-252.3,-6.0,-4.2,201.3,-149.1,-1.8,141.6,-77.7,144.0,0,3300,0,251,0,
1.8367,8.7,150.0,156.6,18.9,99.0,-48.3,121.5,-63.3,-2889.9,329.7,24.6,298.5,211.8,-13.8,-55.5,-250.8,-6.6,-4.8,198.6,-159.9,-2.1,137.4,-77.4,141.0,0,3306,0,252,0,
1.8400,11.1,146.1,155.7,22.5,102.3,-46.2,116.1,-63.6,-2815.8,328.8,22.2,299.4,214.5,-14.4,-59.4,-252.9,-6.3,-4.5,196.8,-161.4,-1.5,139.8,-74.1,143.4,0,3312,0,253,0,
1.8433,9.0,147.3,157.5,23.4,103.8,-43.8,119.1,-63.9,-3038.1,317.4,19.5,297.0,214.5,-18.6,-64.8,-250.5,-6.0,-4.5,196.2,-160.8,-1.5,140.4,-73.5,148.2,0,3318,0,254,0,
1.8467,8.1,147.9,156.6,24.3,103.5,-49.8,116.1,-61.8,-3038.1,322.5,22.2,298.2,212.1,-17.4,-66.3,-258.0,-6.3,-4.2,193.8,-154.5,-1.8,149.7,-82.8,152.7,0,3324,0,255,0,
1.8500,6.3,144.3,152.1,20.1,98.7,-49.2,117.9,-66.0,-2964.0,321.6,21.6,293.4,206.4,-26.1,-71.1,-250.8,-6.3,-4.5,192.0,-159.0,-1.8,135.6,-73.8,146.7,0,3330,0,0,0,
1.8533,0.9,143.1,152.1,18.6,94.8,-54.6,114.0,-67.5,-2815.8,315.3,16.5,287.1,207.0,-26.1,-75.9,-261.6,-6.0,-4.2,184.5,-163.2,-1.8,128.4,-75.0,139.5,0,3336,0,1,0,
1.8567,9.0,149.1,159.3,21.3,102.6,-49.2,116.1,-66.3,-2889.9,321.6,17.1,287.1,209.7,-18.3,-60.9,-258.9,-6.3,-4.2,186.3,-157.5,-1.8,135.9,-72.9,142.2,0,3342,0,2,0,
1.8600,1.8,143.4,150.9,17.4,98.7,-48.9,114.9,-67.2,-2815.8,320.1,16.2,292.2,205.5,-20.4,-62.7,-260.4,-6.0,-4.8,183.6,-160.5,-1.5,140.4,-78.9,136.8,0,3348,0,3,0,
1.8633,4.8,143.7,155.1,22.8,100.8,-48.6,118.2,-66.6,-2964.0,321.9,18.6,290.4,211.8,-21.6,-74.7,-261.0,-6.3,-4.5,188.4,-159.0,-1.8,135.3,-77.1,141.9,0,3354,0,4,0,
1.8667,5.7,147.3,159.9,24.0,100.8,-45.0,119.7,-66.3,-2964.0,336.0,17.1,294.3,216.9,-22.8,-72.0,-254.4,-6.0,-4.5,194.4,-159.0,-1.5,140.1,-78.3,145.5,0,3360,0,5,0,
1.8700,7.2,146.1,158.7,20.4,100.5,-46.5,119.4,-66.3,-2889.9,331.5,15.9,295.5,217.5,-16.5,-63.0,-253.8,-6.3,-4.5,199.5,-155.1,-1.8,142.2,-72.6,143.1,0,3366,0,6,0,
1.8733,7.2,148.2,160.8,21.3,101.1,-50.1,117.9,-65.1,-2889.9,330.9,15.6,291.6,212.7,-6.0,-58.5,-262.5,-6.0,-4.5,200.1,-157.8,-1.8,140.7,-73.5,141.9,0,3372,0,7,0,
1.8767,8.4,150.9,162.0,21.6,104.7,-45.6,119.7,-64.2,-2964.0,323.1,11.1,291.6,210.0,-13.2,-64.2,-257.7,-6.0,-4.5,201.3,-155.7,-2.1,141.3,-72.3,145.8,0,3378,0,8,0,
1.8800,5.1,151.2,162.9,19.8,103.8,-46.8,116.1,-65.1,-3112.2,334.2,17.7,300.0,215.4,-18.9,-72.0,-252.0,-6.0,-4.5,203.1,-159.0,-1.8,139.8,-67.2,143.4,0,3384,0,9,0,
1.8833,9.3,153.9,163.8,24.0,108.0,-48.3,117.3,-63.9,-2815.8,333.9,20.1,304.2,220.8,-17.4,-75.9,-262.2,-6.3,-4.5,204.6,-152.7,-1.5,151.8,-68.4,149.4,0,3390,0,10,0,
1.8867,9.3,154.2,164.4,23.4,102.9,-50.1,112.5,-60.6,-2815.8,328.5,16.5,298.2,228.0,-13.8,-63.3,-259.5,-6.0,-4.5,198.0,-159.3,-1.8,151.8,-74.7,138.9,0,3396,0,11,0,
1.8900,8.7,153.0,166.2,24.6,102.3,-49.8,111.3,-63.0,-2815.8,331.8,23.1,297.3,223.2,-14.4,-66.0,-268.5,-6.3,-4.2,201.6,-157.5,-1.8,148.2,-73.2,144.6,0,3402,0,12,0,
1.8933,9.0,151.2,162.6,22.2,97.2,-53.7,114.3,-64.5,-2889.9,336.3,18.3,296.1,207.3,-15.0,-59.7,-260.1,-6.3,-4.5,197.4,-158.7,-1.5,144.6,-66.6,135.0,0,3408,0,13,0,
1.8967,8.4,150.3,156.9,15.9,90.6,-56.1,111.9,-66.0,-3038.1,327.9,14.1,292.2,208.2,-16.5,-55.8,-253.8,-6.0,-4.2,195.6,-163.2,-2.1,141.3,-70.5,121.5,0,3414,0,14,0,
1.9000,11.4,150.3,156.6,16.8,93.3,-55.2,111.6,-64.5,-2964.0,333.3,14.7,293.4,216.6,-17.7,-64.2,-260.4,-6.0,-4.8,196.8,-159.6,-1.8,146.1,-73.2,135.9,0,3420,0,15,0,
1.9033,10.2,150.0,157.5,16.2,95.1,-53.4,111.9,-65.1,-2741.7,326.1,18.3,292.2,207.0,-13.5,-67.5,-258.0,-6.3,-4.2,198.3,-160.8,-1.8,145.5,-75.9,138.3,0,3426,0,16,0,
1.9067,5.7,142.8,151.2,7.2,89.7,-60.3,108.6,-70.2,-2889.9,317.7,7.5,281.7,195.6,-19.8,-63.9,-254.1,-6.0,-4.8,188.7,-170.4,-1.5,125.1,-78.0,134.7,0,3432,0,17,0,
1.9100,1.2,141.6,150.3,9.6,87.0,-58.2,111.3,-73.5,-2964.0,316.2,8.1,283.2,195.6,-25.5,-68.1,-258.0,-6.3,-4.2,186.6,-171.6,-1.5,127.8,-81.3,127.2,0,3438,0,18,0,
1.9133,4.5,141.3,152.4,9.6,86.1,-66.0,109.2,-69.6,-2964.0,325.8,7.8,279.3,206.4,-13.5,-49.2,-258.0,-6.0,-4.8,189.6,-175.2,-1.8,126.0,-79.8,119.4,0,3444,0,19,0,
1.9167,6.3,144.9,154.2,10.2,91.2,-62.1,114.0,-67.5,-2889.9,324.9,8.4,276.3,212.4,-20.4,-63.6,-251.7,-6.0,-4.8,189.6,-179.4,-2.1,133.2,-80.4,129.3,0,3450,0,20,0,
1.9200,2.1,143.7,152.1,8.7,90.6,-61.2,111.3,-73.8,-2964.0,317.7,5.4,275.4,210.9,-29.4,-76.5,-256.5,-6.0,-4.5,189.6,-176.4,-1.8,131.7,-85.2,125.7,0,3456,0,21,0,
1.9233,1.8,143.4,150.9,6.0,87.3,-63.3,111.9,-74.7,-2815.8,313.8,6.9,275.7,195.6,-21.3,-65.4,-251.4,-6.3,-4.2,187.8,-175.8,-1.5,125.1,-76.8,122.7,0,3462,0,22,0,
1.9267,7.8,146.4,162.3,12.6,89.4,-60.0,112.5,-67.2,-2964.0,331.2,16.8,286.8,211.2,-26.7,-63.0,-254.7,-6.3,-4.5,199.2,-170.1,-2.1,134.7,-79.2,135.0,0,3468,0,23,0,
1.9300,3.6,148.2,157.5,9.3,92.1,-55.2,116.1,-68.7,-3038.1,320.1,15.3,291.6,207.9,-10.8,-66.6,-249.6,-6.3,-4.8,189.9,-168.3,-1.5,137.1,-75.0,137.7,0,3474,0,24,0,
1.9333,5.7,147.9,160.5,12.9,95.1,-56.7,114.9,-65.7,-2964.0,325.8,15.9,290.4,215.7,-26.7,-72.9,-253.5,-6.3,-4.5,193.2,-167.4,-1.8,141.0,-79.5,134.7,0,3480,0,25,0,
1.9367,11.1,148.5,164.1,14.7,94.2,-54.9,117.3,-66.3,-2741.7,324.3,12.6,290.4,216.3,-12.6,-60.9,-254.4,-6.0,-4.5,195.0,-164.7,-1.5,145.5,-83.7,139.8,0,3486,0,26,0,
1.9400,11.4,151.8,163.2,16.8,99.3,-51.6,117.9,-62.1,-2741.7,326.1,18.6,291.3,206.1,-11.1,-51.3,-255.9,-6.3,-4.5,193.8,-163.2,-1.8,131.7,-75.3,137.1,0,3492,0,27,0,
1.9433,9.6,153.9,160.5,18.6,100.2,-51.9,117.6,-62.1,-2815.8,323.7,21.9,292.5,212.7,-3.6,-58.8,-250.5,-6.0,-4.8,195.0,-161.1,-1.5,133.5,-72.9,141.6,0,3498,0,28,0,
1.9467,9.0,150.9,159.6,19.5,101.7,-49.5,118.8,-59.4,-2964.0,329.1,21.9,293.7,216.6,-13.8,-67.2,-248.1,-6.6,-4.5,196.5,-158.1,-1.5,140.4,-68.1,138.9,0,3504,0,29,0,
1.9500,7.8,151.5,160.8,20.7,99.0,-51.3,114.6,-60.3,-2889.9,326.1,21.6,293.1,216.0,-12.6,-68.1,-262.5,-6.0,-4.8,196.8,-159.0,-1.5,142.5,-77.1,141.6,0,3510,0,30,0,
1.9533,7.8,147.3,150.3,16.5,94.2,-58.8,110.7,-63.6,-2889.9,319.2,13.5,285.9,210.6,-15.6,-60.3,-257.7,-6.6,-4.5,190.5,-165.6,-1.8,131.4,-84.9,121.8,0,3516,0,31,0,
1.9567,4.2,146.7,155.4,18.3,91.8,-57.9,111.9,-64.2,-2815.8,315.9,12.3,286.2,208.2,-20.1,-61.2,-253.8,-6.3,-4.8,192.0,-164.1,-1.5,133.2,-87.6,126.0,0,3522,0,32,0,
1.9600,2.4,143.4,153.3,13.5,91.8,-57.9,115.2,-66.3,-3038.1,312.3,8.4,280.5,205.8,-25.5,-64.2,-246.3,-6.3,-4.5,186.3,-170.4,-1.8,125.4,-83.7,138.0,0,3528,0,33,0,
1.9633,4.5,144.0,154.5,13.2,91.2,-57.0,116.7,-64.2,-2964.0,323.1,12.0,285.9,211.8,-28.5,-83.4,-257.4,-6.3,-4.5,186.0,-168.3,-1.8,129.6,-76.5,129.3,0,3534,0,34,0,
1.9667,7.5,145.2,152.1,15.9,87.9,-54.9,116.4,-64.8,-3038.1,314.4,9.9,287.4,209.7,-27.6,-77.4,-260.1,-6.0,-4.5,189.9,-167.4,-1.8,128.4,-79.2,126.6,0,3540,0,35,0,
1.9700,6.9,144.9,151.2,12.9,87.0,-54.9,118.8,-67.8,-2815.8,311.7,7.2,283.2,204.3,-25.2,-69.9,-255.6,-6.6,-4.5,187.5,-167.4,-1.8,123.3,-85.5,127.5,0,3546,0,36,0,
1.9733,3.9,143.1,150.0,14.1,91.5,-53.1,120.0,-66.9,-2741.7,311.1,7.8,283.2,198.3,-28.8,-77.1,-260.4,-6.3,-4.5,188.4,-165.9,-1.8,125.4,-83.1,126.3,0,3552,0,37,0,
1.9767,-1.5,136.5,143.7,9.6,82.5,-61.2,114.3,-72.0,-2964.0,302.1,-0.6,274.2,187.2,-29.4,-72.0,-262.8,-6.6,-4.5,177.6,-174.9,-1.5,120.3,-95.1,119.1,0,3558,0,38,0,
1.9800,3.0,143.1,150.9,15.6,90.6,-55.2,117.9,-67.2,-3186.3,309.0,9.6,284.7,204.6,-29.1,-73.5,-260.1,-6.0,-4.5,188.4,-165.9,-2.1,131.1,-92.4,141.9,0,3564,0,39,0,
1.9833,1.2,143.1,152.7,14.7,91.2,-57.6,117.0,-68.1,-2889.9,318.9,12.0,286.8,215.1,-32.1,-74.7,-266.4,-6.6,-4.5,192.0,-167.1,-1.8,124.8,-78.3,127.2,0,3570,0,40,0,
1.9867,6.9,148.8,159.6,18.0,94.5,-55.8,117.0,-64.8,-2889.9,325.5,15.6,288.3,220.2,-37.2,-84.3,-265.2,-6.3,-4.2,198.9,-163.2,-1.5,128.4,-74.4,127.8,0,3576,0,41,0,
1.9900,8.1,141.9,151.2,8.4,83.1,-60.9,116.7,-65.7,-2815.8,316.5,10.2,280.8,209.4,-28.2,-79.5,-258.9,-6.0,-4.8,191.1,-174.6,-1.5,131.4,-76.5,132.6,0,3582,0,42,0,
1.9933,7.8,146.1,152.4,17.1,93.6,-57.3,115.5,-67.2,-2964.0,319.2,17.7,291.0,209.4,-25.5,-78.6,-261.3,-6.3,-4.8,198.3,-163.2,-1.5,135.3,-76.5,137.1,0,3588,0,43,0,
1.9967,8.4,146.4,153.9,13.5,90.3,-58.8,116.7,-63.3,-2964.0,319.5,16.8,289.5,213.9,-21.3,-73.5,-257.4,-6.3,-4.5,192.9,-164.4,-1.8,135.3,-75.3,132.6,0,3594,0,44,0,
2.0000,6.3,144.6,153.6,13.8,90.3,-56.7,113.7,-62.7,-3038.1,323.4,11.7,282.6,215.4,-23.4,-71.1,-258.3,-6.0,-4.5,188.7,-167.4,-1.8,132.9,-77.1,125.4,0,3600,0,45,0,
2.0033,3.6,145.5,154.8,10.2,92.1,-56.7,111.0,-65.1,-2889.9,310.5,8.4,281.4,200.1,-29.1,-77.4,-261.9,-6.3,-4.2,193.5,-165.6,-1.5,130.2,-78.6,126.3,0,3606,0,46,0,
2.0067,2.1,141.3,154.2,16.2,96.3,-53.4,113.1,-63.0,-2815.8,314.1,7.5,284.7,203.4,-30.0,-79.2,-261.3,-6.3,-4.5,192.0,-162.6,-1.8,141.0,-78.3,135.6,0,3612,0,47,0,
2.0100,3.6,138.6,150.3,11.1,92.7,-52.5,113.7,-63.9,-2964.0,311.1,10.2,285.6,212.4,-24.3,-65.4,-261.3,-6.3,-4.8,189.0,-161.7,-1.8,133.5,-80.1,134.4,0,3618,0,48,0,
2.0133,5.1,141.3,155.4,12.9,93.3,-50.7,117.9,-63.0,-2964.0,316.5,6.3,285.9,212.1,-28.8,-64.2,-249.3,-6.3,-4.5,189.0,-168.3,-1.8,127.8,-76.2,132.6,0,3624,0,49,0,
2.0167,5.1,144.0,159.9,18.3,93.6,-55.5,116.4,-61.2,-2964.0,324.6,17.1,288.9,210.3,-32.7,-70.8,-254.4,-6.0,-4.8,196.8,-164.4,-1.8,129.9,-76.2,126.3,0,3630,0,50,0,
2.0200,9.3,143.7,156.3,14.1,93.3,-59.7,115.8,-63.6,-2815.8,318.9,13.8,288.6,207.0,-22.2,-74.1,-270.3,-6.0,-4.2,200.1,-161.7,-1.8,134.7,-85.5,132.0,0,3636,0,51,0,
2.0233,9.6,140.1,148.8,10.5,90.9,-59.4,118.5,-65.4,-2815.8,313.8,12.0,282.9,211.2,-24.6,-62.7,-259.2,-6.3,-4.8,195.3,-164.4,-1.5,123.9,-87.9,122.1,0,3642,0,52,0,
2.0267,7.8,137.4,146.1,9.0,88.2,-59.1,114.3,-72.0,-3038.1,318.9,8.4,279.9,204.3,-26.4,-62.1,-257.4,-6.3,-4.2,194.1,-168.9,-1.5,121.8,-92.1,109.5,0,3648,0,53,0,
2.0300,9.3,138.9,151.5,6.0,87.6,-59.7,112.8,-69.0,-3112.2,313.8,10.8,284.7,209.7,-19.8,-56.1,-259.5,-6.0,-4.5,186.9,-169.2,-1.5,122.4,-94.5,115.5,0,3654,0,54,0,
2.0333,9.3,141.6,157.5,11.7,87.0,-57.6,114.0,-66.3,-3038.1,312.9,10.2,282.3,218.4,-22.2,-64.2,-257.7,-6.0,-4.5,194.1,-168.0,-1.2,117.6,-87.9,132.6,0,3660,0,55,0,
2.0367,6.9,137.4,149.1,4.2,83.1,-66.0,115.8,-71.7,-2964.0,314.7,6.6,275.4,206.1,-26.7,-58.8,-254.4,-6.3,-4.2,193.5,-175.2,-1.5,118.8,-83.7,126.6,0,3666,0,56,0,
2.0400,7.2,136.2,146.7,2.4,81.0,-69.0,110.1,-70.2,-2889.9,308.7,5.4,276.6,209.1,-26.1,-58.8,-244.8,-6.0,-4.5,193.2,-175.5,-1.8,115.5,-78.0,128.1,0,3672,0,57,0,
2.0433,5.4,140.4,152.1,8.7,86.7,-59.4,112.8,-66.9,-2964.0,305.4,7.5,281.1,213.9,-25.2,-69.9,-250.5,-6.0,-3.9,195.3,-169.2,-1.8,126.3,-85.8,130.5,0,3678,0,58,0,
2.0467,9.6,148.2,158.4,19.5,95.1,-55.5,115.5,-61.2,-3038.1,324.6,22.5,286.8,213.6,-21.9,-70.5,-260.1,-6.3,-4.5,205.8,-165.3,-1.8,121.5,-81.9,126.9,0,3684,0,59,0,
2.0500,11.1,144.3,156.3,15.9,94.8,-54.6,115.2,-61.5,-2889.9,316.8,19.2,283.8,204.9,-27.6,-75.0,-260.7,-6.0,-4.5,202.8,-167.1,-1.8,127.2,-78.6,131.1,0,3690,0,60,0,
2.0533,9.6,146.4,160.8,18.0,95.7,-57.6,111.6,-61.8,-2964.0,316.8,13.5,291.9,208.8,-25.8,-65.1,-255.9,-6.6,-4.5,203.7,-160.8,-1.8,130.2,-84.3,135.6,0,3696,0,61,0,
2.0567,6.3,143.4,160.5,15.9,94.5,-58.5,111.9,-61.8,-2741.7,318.0,20.1,295.5,212.1,-29.7,-61.5,-254.7,-6.0,-4.2,202.2,-159.3,-1.8,132.6,-93.0,139.5,0,3702,0,62,0,
2.0600,9.9,150.3,164.7,21.6,96.9,-54.6,115.5,-59.1,-3038.1,321.3,28.5,298.8,221.4,-25.2,-70.8,-252.9,-6.3,-4.5,204.6,-158.4,-1.8,138.3,-84.3,136.8,0,3708,0,63,0,
2.0633,12.0,147.3,160.2,17.4,93.0,-60.6,112.2,-62.4,-3112.2,316.8,24.9,294.3,214.2,-14.1,-57.9,-242.4,-6.3,-4.8,201.9,-162.3,-1.8,126.6,-83.7,129.9,0,3714,0,64,0,
2.0667,11.4,148.2,163.5,20.4,93.0,-60.9,112.5,-65.1,-3038.1,322.2,24.3,295.2,211.2,-21.9,-64.2,-250.8,-6.6,-4.5,208.2,-160.5,-1.8,125.7,-85.8,129.9,0,3720,0,65,0,
2.0700,12.9,148.5,162.6,24.9,93.3,-57.6,113.7,-61.8,-2815.8,329.1,33.9,301.8,214.8,-18.3,-67.8,-251.4,-6.0,-4.5,210.9,-158.1,-1.5,140.4,-83.4,135.6,0,3726,0,66,0,
2.0733,9.3,146.1,163.2,19.2,93.0,-62.1,114.9,-63.9,-2889.9,326.7,27.9,294.0,215.1,-18.3,-68.4,-250.2,-6.0,-4.5,204.3,-162.0,-1.8,141.3,-82.8,131.1,0,3732,0,67,0,
2.0767,12.9,149.4,165.9,21.0,97.2,-56.4,115.8,-62.4,-3038.1,331.5,32.7,292.8,218.4,-6.9,-56.1,-247.2,-6.3,-4.5,211.8,-159.6,-1.8,137.7,-74.7,138.3,0,3738,0,68,0,
2.0800,10.2,146.1,169.2,20.7,96.3,-55.5,117.3,-65.1,-3112.2,338.7,29.7,287.1,232.2,-6.3,-56.4,-249.3,-6.3,-4.2,208.8,-160.5,-1.8,140.4,-77.1,142.5,0,3744,0,69,0,
2.0833,6.3,145.2,166.5,15.3,93.9,-58.5,111.3,-69.9,-3038.1,332.7,22.8,282.0,222.0,-13.5,-54.3,-250.8,-6.3,-4.5,202.5,-163.8,-1.8,140.7,-89.4,142.2,0,3750,0,70,0,
2.0867,7.2,147.3,162.9,11.7,91.8,-61.8,111.3,-74.1,-2964.0,328.5,19.8,285.0,221.4,-15.9,-57.0,-250.8,-6.3,-4.2,205.5,-163.5,-1.5,129.9,-79.2,132.6,0,3756,0,71,0,
2.0900,5.1,142.5,161.1,11.4,91.5,-61.2,116.1,-72.6,-2815.8,328.8,21.6,290.4,219.0,-22.2,-67.5,-248.7,-6.0,-4.5,204.0,-166.8,-1.5,133.5,-78.6,124.2,0,3762,0,72,0,
2.0933,6.3,143.7,155.7,7.5,85.8,-61.5,111.3,-72.9,-2964.0,322.5,15.9,286.2,223.2,-21.3,-60.9,-246.3,-6.6,-4.5,195.3,-168.9,-1.5,127.5,-75.6,128.7,0,3768,0,73,0,
2.0967,8.4,146.7,163.2,11.7,86.1,-58.2,113.7,-71.7,-3038.1,322.2,22.2,288.0,237.3,-28.8,-66.9,-248.4,-6.3,-4.5,199.8,-166.5,-1.2,125.7,-71.7,130.8,0,3774,0,74,0,
2.1000,11.1,149.7,161.1,11.4,90.6,-57.6,118.2,-68.4,-2964.0,323.4,17.1,292.5,230.7,-29.1,-71.1,-244.8,-6.3,-4.5,202.8,-160.5,-1.5,129.6,-67.8,137.7,0,3780,0,75,0,
2.1033,13.8,147.0,163.8,13.5,90.6,-55.5,125.7,-63.9,-2964.0,324.3,21.6,292.8,225.9,-23.4,-75.6,-246.0,-6.0,-4.8,206.4,-160.2,-1.8,137.1,-63.6,142.2,0,3786,0,76,0,
2.1067,8.4,143.4,154.2,9.0,84.6,-57.0,120.0,-71.1,-2815.8,318.3,12.9,289.2,223.2,-21.0,-66.0,-246.3,-6.0,-4.2,198.3,-163.2,-1.5,135.9,-67.8,129.3,0,3792,0,77,0,
2.1100,8.7,143.4,154.5,8.7,87.9,-59.4,119.7,-69.3,-3112.2,320.7,16.8,290.4,212.4,-18.0,-64.2,-240.9,-6.3,-4.5,203.4,-164.4,-1.8,134.4,-69.6,139.5,0,3798,0,78,0,
2.1133,12.3,144.9,158.4,12.9,87.6,-60.0,117.0,-69.9,-3186.3,332.4,26.7,289.8,213.3,-17.1,-66.6,-250.5,-6.3,-4.5,206.1,-161.4,-1.5,139.8,-67.5,140.1,0,3804,0,79,0,
2.1167,15.9,150.0,167.1,17.4,95.7,-54.3,116.7,-63.3,-3038.1,326.1,33.3,295.8,215.1,-13.8,-57.6,-253.2,-6.0,-4.5,208.8,-152.1,-1.8,147.3,-73.5,141.6,0,3810,0,80,0,
2.1200,14.1,153.9,168.9,20.1,99.6,-51.0,119.1,-62.1,-2815.8,347.4,31.2,302.4,222.0,-17.1,-69.6,-252.0,-6.6,-4.2,209.1,-148.8,-1.5,149.7,-68.1,145.8,0,3816,0,81,0,
2.1233,15.0,152.4,170.7,19.2,101.4,-48.6,125.4,-63.9,-2889.9,340.2,31.8,303.3,234.0,-5.1,-55.2,-238.5,-6.0,-4.5,211.5,-149.7,-1.8,149.7,-60.9,142.2,0,3822,0,82,0,
2.1267,14.1,144.9,162.9,12.6,93.9,-51.6,122.7,-69.0,-2964.0,336.9,24.9,293.7,236.1,-9.0,-57.3,-239.7,-6.0,-4.8,202.2,-154.2,-1.5,144.3,-64.2,141.6,0,3828,0,83,0,
2.1300,14.4,144.6,161.7,12.6,93.6,-49.2,118.2,-66.9,-3260.4,326.4,24.9,293.4,234.6,-13.5,-72.0,-246.3,-6.0,-4.2,198.3,-155.7,-2.1,140.4,-66.6,137.4,0,3834,0,84,0,
2.1333,16.8,149.1,163.8,17.7,97.5,-48.3,119.7,-66.0,-3038.1,333.9,35.7,300.0,231.9,-15.3,-66.0,-256.2,-6.3,-4.2,206.7,-153.0,-1.5,149.7,-76.2,154.8,0,3840,0,85,0,
2.1367,10.5,145.2,160.2,9.9,90.9,-56.1,114.6,-69.6,-2889.9,327.0,27.6,290.7,220.8,-24.3,-69.6,-252.0,-6.3,-4.8,203.7,-158.1,-1.8,147.9,-78.3,142.2,0,3846,0,86,0,
2.1400,10.5,146.4,154.2,8.7,89.1,-55.8,113.7,-68.1,-2964.0,325.8,22.8,291.6,217.2,-24.0,-69.3,-255.9,-6.3,-4.5,197.7,-157.5,-1.2,134.7,-76.8,142.8,0,3852,0,87,0,
2.1433,5.1,141.9,154.2,4.5,84.3,-59.7,108.3,-72.9,-3038.1,323.4,20.1,287.1,201.0,-30.3,-69.6,-263.1,-6.0,-4.5,197.1,-163.5,-1.8,128.4,-76.5,134.4,0,3858,0,88,0,
2.1467,9.9,140.4,153.0,7.2,88.5,-59.4,110.1,-71.1,-3186.3,324.6,22.2,288.3,213.0,-24.6,-70.5,-263.1,-6.0,-4.5,199.5,-160.8,-1.8,133.8,-79.5,137.7,0,3864,0,89,0,
2.1500,11.7,141.0,156.3,4.5,90.3,-59.7,109.2,-68.7,-3038.1,317.7,17.1,287.1,211.2,-24.9,-66.3,-249.3,-6.0,-4.5,198.6,-161.1,-1.8,136.5,-71.7,137.1,0,3870,0,90,0,
2.1533,14.4,145.2,155.7,7.8,91.8,-57.6,114.6,-68.1,-3038.1,316.2,18.9,293.1,219.6,-20.1,-63.9,-249.6,-6.0,-4.2,201.0,-156.6,-1.5,133.8,-77.4,141.9,0,3876,0,91,0,
2.1567,11.1,146.7,162.9,9.6,93.6,-51.6,114.0,-70.5,-2889.9,324.6,20.7,300.6,221.1,-24.9,-65.4,-249.0,-6.0,-4.5,201.9,-152.7,-1.8,132.3,-79.5,135.0,0,3882,0,92,0,
2.1600,8.4,144.9,159.6,7.2,88.5,-55.2,116.4,-73.5,-2964.0,317.7,15.0,290.4,225.0,-29.1,-65.4,-246.0,-6.0,-4.5,196.8,-158.1,-1.8,125.1,-76.2,129.0,0,3888,0,93,0,
2.1633,8.1,139.8,159.3,2.4,81.3,-62.4,112.8,-74.7,-3038.1,322.2,11.1,280.2,214.5,-24.0,-56.1,-241.8,-6.0,-4.5,186.9,-165.9,-1.8,126.6,-74.7,123.9,0,3894,0,94,0,
2.1667,7.8,146.4,165.0,9.3,89.4,-61.8,113.4,-72.0,-3038.1,336.6,22.5,288.6,223.2,-36.0,-65.1,-244.5,-6.6,-4.5,204.6,-162.6,-1.8,136.2,-76.5,137.4,0,3900,0,95,0,
2.1700,8.4,139.2,160.2,9.3,91.2,-57.0,114.6,-72.3,-2964.0,332.4,15.0,296.4,212.7,-19.5,-65.4,-241.8,-6.3,-4.5,204.6,-159.3,-1.8,142.2,-75.0,147.9,0,3906,0,96,0,
2.1733,8.1,138.9,153.3,0.9,84.6,-63.6,109.5,-79.8,-2964.0,319.5,17.7,283.5,221.7,-12.6,-54.0,-245.4,-6.3,-4.2,202.5,-165.6,-1.5,132.9,-75.9,132.6,0,3912,0,97,0,
2.1767,4.8,138.6,159.3,3.6,86.7,-62.1,107.1,-75.6,-2889.9,331.2,24.9,289.8,219.9,-20.7,-74.4,-249.0,-6.3,-4.8,202.8,-158.1,-1.5,145.8,-82.8,138.9,0,3918,0,98,0,
2.1800,6.6,143.7,160.2,4.5,86.1,-63.3,110.4,-76.2,-3112.2,326.4,27.0,290.1,222.6,-21.6,-73.2,-246.9,-6.0,-4.2,205.5,-159.9,-1.8,144.9,-69.6,130.8,0,3924,0,99,0,
2.1833,2.4,141.9,158.1,2.4,84.6,-60.9,106.2,-77.1,-3038.1,325.5,24.0,287.4,215.1,-18.6,-66.6,-246.0,-6.6,-4.5,204.3,-160.2,-1.5,139.5,-66.3,138.6,0,3930,0,100,0,
2.1867,10.8,143.4,158.7,3.9,86.4,-59.4,112.2,-75.0,-2964.0,330.0,25.5,284.4,219.0,-12.9,-54.3,-238.8,-6.6,-3.9,207.3,-160.5,-1.5,135.3,-62.1,143.1,0,3936,0,101,0,
2.1900,10.8,138.9,155.7,3.0,84.9,-60.9,110.1,-75.3,-2964.0,319.8,17.7,281.1,218.7,-10.2,-48.6,-233.1,-6.0,-4.5,200.1,-162.9,-1.8,133.2,-66.6,138.6,0,3942,0,102,0,
2.1933,12.0,142.8,162.0,10.8,90.3,-59.4,111.6,-70.5,-3038.1,330.3,27.9,294.9,226.8,-12.0,-59.4,-260.1,-6.0,-4.5,209.1,-154.2,-1.5,142.8,-73.8,138.0,0,3948,0,103,0,
2.1967,11.1,144.0,163.2,9.9,91.5,-58.8,108.3,-74.4,-3112.2,329.4,22.5,292.8,217.8,-16.8,-63.6,-253.8,-6.3,-4.8,205.5,-157.2,-1.8,139.5,-74.4,138.3,0,3954,0,104,0,
2.2000,12.9,143.4,159.9,8.7,89.1,-57.0,110.7,-73.5,-2964.0,324.0,23.7,287.4,218.4,-12.0,-53.1,-249.0,-6.3,-4.2,207.3,-159.6,-1.8,143.4,-68.7,140.4,0,3960,0,105,0,
2.2033,6.6,137.1,153.0,-6.3,80.1,-68.4,104.1,-81.9,-2964.0,321.6,11.4,277.2,209.1,-15.3,-45.9,-241.2,-6.3,-4.2,192.6,-172.8,-1.8,129.0,-74.4,129.0,0,3966,0,106,0,
2.2067,12.9,142.2,154.5,3.6,87.6,-56.7,114.3,-74.4,-2964.0,327.3,24.3,287.7,201.9,-22.5,-58.2,-251.4,-6.3,-4.5,202.8,-160.8,-2.1,143.4,-69.3,136.8,0,3972,0,107,0,
2.2100,12.9,139.2,155.4,3.9,87.9,-58.8,110.4,-74.1,-2964.0,327.9,21.6,282.0,204.0,-14.7,-54.3,-255.9,-6.0,-4.2,201.3,-166.5,-1.5,135.6,-75.9,135.0,0,3978,0,108,0,
2.2133,15.6,148.2,168.0,15.3,94.8,-48.6,117.3,-69.0,-3038.1,340.5,28.5,290.1,221.7,-15.0,-72.6,-260.1,-6.3,-4.8,213.9,-153.9,-1.8,149.7,-65.7,145.5,0,3984,0,109,0,
2.2167,11.1,144.0,163.5,8.4,90.0,-50.1,117.9,-74.4,-3038.1,327.9,22.8,289.8,225.9,-15.3,-68.4,-250.8,-6.3,-4.2,200.4,-157.8,-1.5,146.1,-65.1,135.6,0,3990,0,110,0,
2.2200,14.1,147.0,164.1,10.8,89.4,-47.1,118.8,-72.0,-2889.9,329.7,27.6,289.5,230.4,-14.4,-69.3,-258.9,-6.0,-4.5,209.4,-159.9,-1.8,148.8,-71.7,135.6,0,3996,0,111,0,
2.2233,9.6,143.4,160.5,11.4,89.1,-51.0,118.8,-73.8,-2964.0,338.1,19.2,288.6,219.6,-12.0,-63.9,-252.9,-6.0,-4.5,207.3,-159.0,-1.8,149.4,-66.9,146.4,0,4002,0,112,0,
2.2267,11.7,145.2,158.4,11.7,95.4,-52.2,120.9,-72.3,-3038.1,342.9,33.3,293.1,227.4,-18.0,-70.2,-256.2,-6.0,-4.5,211.5,-154.5,-1.8,148.8,-63.9,153.3,0,4008,0,113,0,
2.2300,15.0,147.3,158.4,9.6,90.9,-50.7,118.2,-72.3,-3112.2,330.9,28.5,291.6,213.9,-14.4,-71.1,-248.7,-6.0,-4.2,203.4,-158.7,-1.8,140.7,-59.1,143.7,0,4014,0,114,0,
2.2333,18.3,151.5,161.4,12.9,92.7,-47.7,123.0,-67.2,-3038.1,345.0,31.8,296.7,218.1,-10.2,-60.9,-249.0,-6.3,-4.5,210.6,-154.5,-1.8,147.6,-55.2,143.1,0,4020,0,115,0,
2.2367,16.2,147.9,157.8,10.5,89.7,-49.2,120.9,-67.5,-2815.8,333.6,28.5,297.0,224.7,-7.2,-60.0,-249.0,-6.0,-4.5,208.2,-153.0,-1.5,149.1,-51.3,139.5,0,4026,0,116,0,
2.2400,18.6,153.0,161.1,12.6,96.3,-45.3,120.6,-63.9,-2964.0,337.8,30.0,296.7,225.6,-3.9,-59.1,-253.2,-6.3,-4.8,210.6,-151.8,-1.8,152.7,-54.3,139.5,0,4032,0,117,0,
2.2433,19.8,154.5,163.8,17.7,95.7,-42.0,123.6,-59.4,-3038.1,339.6,25.2,300.9,226.5,-6.0,-67.2,-254.1,-6.3,-4.2,209.1,-146.4,-1.8,155.1,-51.3,151.2,0,4038,0,118,0,
2.2467,18.0,148.5,155.4,10.8,90.3,-50.4,119.1,-68.4,-3112.2,333.0,19.5,290.7,217.5,-4.5,-55.8,-252.0,-6.3,-4.8,204.3,-159.0,-1.8,145.8,-52.8,136.2,0,4044,0,119,0,
2.2500,19.2,145.2,152.7,9.0,86.1,-57.3,115.2,-71.4,-3186.3,333.0,16.5,289.8,213.9,-3.9,-60.0,-254.4,-6.3,-4.5,199.2,-160.2,-2.1,148.5,-55.2,141.3,0,4050,0,120,0,
2.2533,11.1,141.9,149.7,4.8,86.1,-59.1,120.0,-71.1,-2889.9,329.1,16.2,285.3,213.3,-13.5,-66.9,-254.4,-6.6,-4.8,194.7,-162.3,-1.8,146.1,-58.5,138.0,0,4056,0,121,0,
2.2567,13.2,144.0,152.1,9.3,89.4,-52.2,117.3,-65.1,-2964.0,328.2,18.9,290.4,204.0,-9.3,-65.7,-249.9,-6.3,-4.5,199.2,-157.2,-1.8,143.4,-52.5,145.5,0,4062,0,122,0,
2.2600,12.6,144.0,147.9,6.6,90.6,-56.1,114.3,-66.3,-3038.1,332.4,15.0,287.7,202.5,-8.7,-56.7,-250.5,-6.3,-4.8,194.4,-159.0,-1.8,142.8,-60.9,136.2,0,4068,0,123,0,
2.2633,11.7,141.9,146.7,4.5,89.7,-55.5,117.0,-69.0,-3112.2,328.2,18.3,287.7,207.9,-13.5,-65.1,-248.7,-6.3,-4.5,195.6,-157.8,-1.8,143.4,-62.4,145.8,0,4074,0,124,0,
2.2667,9.6,136.8,141.3,-5.1,85.2,-60.6,111.6,-75.0,-3038.1,321.3,8.1,282.3,209.4,-15.0,-54.3,-243.3,-6.3,-4.5,189.9,-163.2,-1.8,129.6,-68.7,134.7,0,4080,0,125,0,
2.2700,12.0,141.0,149.1,4.5,88.2,-52.2,113.7,-70.2,-2889.9,325.8,13.5,289.2,199.5,-14.4,-62.1,-249.0,-6.3,-4.5,197.7,-156.0,-1.8,148.2,-70.8,146.4,0,4086,0,126,0,
2.2733,12.6,141.6,150.9,7.5,90.6,-55.5,118.2,-69.0,-2964.0,334.2,19.8,287.7,208.8,-12.3,-64.2,-254.4,-6.0,-4.5,198.3,-157.8,-1.8,141.0,-63.0,138.0,0,4092,0,127,0,
2.2767,12.3,138.9,144.0,4.8,85.5,-59.1,115.2,-72.3,-2889.9,323.7,12.6,281.7,213.3,-14.4,-67.5,-258.0,-6.3,-4.5,192.0,-163.2,-1.5,137.1,-60.9,132.9,0,4098,0,128,0,
2.2800,6.6,132.0,141.9,-0.9,82.5,-62.4,111.3,-73.2,-3112.2,311.7,9.0,275.7,202.8,-21.6,-71.4,-263.7,-6.3,-4.8,185.7,-172.5,-2.1,125.1,-68.1,134.4,0,4104,0,129,0,
2.2833,9.3,135.0,141.3,-0.3,82.2,-58.8,117.6,-69.0,-2964.0,318.9,3.9,273.9,209.4,-23.1,-64.2,-254.1,-6.3,-4.2,185.4,-174.6,-1.8,129.6,-68.4,123.6,0,4110,0,130,0,
2.2867,5.1,131.1,138.6,-4.2,76.2,-62.7,114.9,-70.5,-3038.1,318.3,1.5,271.2,202.2,-33.3,-70.8,-259.8,-6.0,-4.8,180.3,-174.3,-1.8,123.0,-75.0,124.5,0,4116,0,131,0,
2.2900,4.5,129.0,131.4,-8.1,71.1,-67.5,113.1,-74.4,-2889.9,299.7,-2.1,266.4,189.6,-17.7,-54.6,-244.2,-6.3,-4.8,176.4,-182.1,-2.1,117.6,-74.4,123.0,0,4122,0,132,0,
2.2933,9.6,136.8,135.6,-6.9,75.3,-66.6,115.8,-73.5,-2889.9,311.4,1.2,270.0,195.3,-14.4,-66.3,-257.1,-6.0,-4.5,178.8,-178.2,-1.5,115.2,-75.9,128.1,0,4128,0,133,0,
2.2967,9.0,134.1,138.3,-7.2,72.6,-67.5,114.0,-72.3,-3260.4,310.8,-1.5,270.9,202.2,-17.1,-70.8,-255.6,-6.0,-4.5,177.9,-176.4,-1.5,120.0,-77.7,123.6,0,4134,0,134,0,
2.3000,9.6,133.8,140.4,-2.1,76.8,-68.4,116.1,-70.2,-3038.1,312.9,4.8,268.2,201.3,-13.2,-64.2,-254.7,-6.0,-4.5,178.8,-177.0,-1.5,125.1,-79.5,125.7,0,4140,0,135,0,
2.3033,11.7,136.5,141.6,-5.7,74.4,-65.7,110.7,-70.2,-2964.0,308.4,2.7,266.4,198.3,-8.7,-56.1,-252.0,-6.3,-4.2,180.9,-181.2,-1.5,119.1,-81.6,121.8,0,4146,0,136,0,
2.3067,10.8,138.3,145.5,-5.4,77.7,-66.9,114.6,-70.2,-2889.9,314.7,6.0,268.5,194.4,-14.7,-66.3,-262.8,-6.3,-4.5,185.7,-180.3,-1.8,120.6,-78.9,121.5,0,4152,0,137,0,
2.3100,6.0,133.5,140.4,-6.3,75.0,-65.7,109.5,-68.4,-3038.1,310.8,3.6,273.6,187.2,-21.9,-64.2,-263.1,-6.3,-4.5,180.0,-180.6,-1.8,126.9,-77.1,120.3,0,4158,0,138,0,
2.3133,12.0,142.2,145.8,3.0,81.0,-62.4,114.3,-64.8,-3038.1,323.4,14.1,279.6,213.6,-13.8,-66.9,-266.7,-6.3,-4.5,186.0,-176.1,-1.8,129.3,-76.8,123.6,0,4164,0,139,0,
2.3167,9.6,140.4,144.6,-0.9,81.3,-61.5,112.5,-69.3,-3112.2,318.6,9.6,278.4,208.2,-16.5,-69.6,-259.2,-6.3,-4.2,182.7,-177.3,-1.8,127.2,-79.2,132.6,0,4170,0,140,0,
2.3200,12.0,147.6,147.9,0.6,85.2,-61.5,114.3,-68.7,-2815.8,321.9,8.1,277.2,215.7,-10.5,-65.1,-257.1,-6.0,-4.5,187.2,-174.9,-1.8,133.5,-78.3,131.4,0,4176,0,141,0,
2.3233,10.5,140.1,138.3,-4.2,74.7,-66.3,118.5,-70.2,-2815.8,319.5,8.1,274.2,202.8,-15.3,-63.9,-252.9,-5.7,-4.5,180.3,-174.6,-2.1,133.5,-78.6,128.7,0,4182,0,142,0,
2.3267,9.0,138.9,141.3,-7.8,71.1,-65.7,117.0,-72.0,-3038.1,312.0,6.9,269.1,193.5,-18.9,-58.2,-249.3,-6.3,-4.2,182.7,-183.6,-1.8,131.4,-84.0,129.0,0,4188,0,143,0,
2.3300,6.3,136.5,135.3,-12.0,67.5,-65.4,114.0,-74.7,-3112.2,307.2,0.9,263.4,193.2,-26.4,-60.9,-255.3,-6.6,-4.8,180.9,-183.3,-1.5,128.4,-89.1,132.6,0,4194,0,144,0,
2.3333,9.9,138.9,140.4,-9.9,71.1,-68.1,115.2,-70.8,-3112.2,312.3,2.1,267.0,209.1,-25.2,-68.4,-264.3,-6.3,-4.5,186.6,-180.0,-2.1,123.3,-75.9,129.0,0,4200,0,145,0,
2.3367,9.0,137.4,137.7,-10.2,69.9,-69.0,111.3,-74.4,-2889.9,308.1,1.5,268.5,200.7,-19.2,-65.1,-270.9,-6.0,-4.5,181.2,-178.5,-1.8,119.7,-77.7,120.0,0,4206,0,146,0,
2.3400,2.4,131.4,133.2,-12.9,69.6,-74.4,109.5,-75.6,-2964.0,298.5,-4.2,258.9,183.6,-23.7,-60.6,-272.4,-6.3,-4.5,171.3,-183.9,-1.5,120.3,-79.8,116.1,0,4212,0,147,0,
2.3433,3.3,132.0,129.0,-10.5,73.2,-68.4,114.0,-73.5,-3038.1,306.9,-4.5,263.4,186.9,-27.9,-68.1,-270.6,-6.0,-4.8,171.6,-181.8,-1.5,115.2,-76.2,121.8,0,4218,0,148,0,
2.3467,9.6,136.8,137.7,-3.9,75.3,-61.2,122.1,-66.9,-2964.0,307.8,0.6,270.0,197.7,-28.2,-86.4,-272.1,-6.0,-4.8,182.4,-174.6,-2.1,124.8,-72.0,120.9,0,4224,0,149,0,
2.3500,8.1,136.5,132.6,-6.0,75.0,-62.1,121.5,-71.4,-3112.2,303.0,-0.9,265.5,195.0,-24.3,-80.4,-266.7,-6.0,-4.2,175.2,-179.4,-1.8,118.8,-72.6,114.9,0,4230,0,150,0,
2.3533,6.6,134.7,130.8,-8.7,74.1,-67.8,117.9,-70.5,-2815.8,296.7,-2.4,261.6,190.8,-28.5,-76.5,-263.7,-6.3,-4.8,170.7,-181.5,-1.8,118.5,-71.7,111.9,0,4236,0,151,0,
2.3567,8.7,141.3,133.2,-2.7,79.2,-63.6,114.0,-68.7,-2889.9,304.5,0.3,272.1,190.8,-16.8,-78.9,-267.9,-6.3,-4.5,174.6,-174.3,-1.8,129.0,-75.3,113.1,0,4242,0,152,0,
2.3600,11.7,142.8,138.9,0.3,79.5,-61.2,118.5,-66.6,-2964.0,313.8,4.2,275.7,184.8,-15.0,-68.1,-271.5,-6.3,-4.5,182.4,-172.2,-1.5,121.8,-80.7,123.3,0,4248,0,153,0,
2.3633,17.7,146.4,145.2,4.5,78.6,-57.0,123.9,-62.1,-3186.3,317.7,8.7,279.6,198.0,-15.9,-72.6,-260.7,-6.3,-4.8,185.4,-168.3,-1.5,133.5,-72.9,124.5,0,4254,0,154,0,
2.3667,13.2,138.6,135.9,-7.8,72.3,-70.5,116.4,-70.2,-3038.1,307.2,-5.1,269.4,197.1,-18.3,-71.7,-267.0,-6.3,-4.5,177.9,-179.1,-1.8,124.5,-75.6,108.9,0,4260,0,155,0,
2.3700,12.9,138.0,133.2,-5.7,75.3,-68.7,119.7,-68.4,-2889.9,301.5,-7.5,267.3,203.4,-18.6,-75.6,-269.7,-6.0,-4.2,174.9,-180.9,-1.8,126.3,-80.1,120.9,0,4266,0,156,0,
2.3733,7.8,135.6,132.6,-6.3,75.3,-67.5,116.1,-71.1,-2889.9,302.4,-5.4,262.5,190.2,-22.5,-78.6,-273.0,-6.3,-4.2,171.3,-182.7,-2.1,127.5,-83.1,118.5,0,4272,0,157,0,
2.3767,6.6,135.3,133.5,-8.1,72.0,-68.7,118.2,-72.0,-2964.0,306.6,1.2,269.7,185.7,-27.3,-78.6,-271.8,-5.7,-4.5,168.3,-183.9,-1.8,123.3,-76.8,114.9,0,4278,0,158,0,
2.3800,7.8,142.5,137.7,-4.8,75.0,-66.3,119.4,-68.1,-3038.1,301.2,2.1,273.3,188.4,-23.4,-66.6,-265.5,-6.0,-4.2,172.8,-180.3,-1.5,119.7,-75.6,116.1,0,4284,0,159,0,
2.3833,8.1,136.8,135.0,-1.5,73.5,-61.2,119.1,-65.4,-2889.9,300.9,0.9,268.5,190.8,-28.2,-76.8,-269.7,-6.0,-4.5,173.1,-183.6,-1.5,115.8,-77.7,121.5,0,4290,0,160,0,
2.3867,9.9,139.5,137.1,-1.5,75.0,-63.6,123.6,-60.0,-2889.9,297.0,-6.0,266.7,187.8,-19.5,-70.8,-265.5,-6.0,-4.5,175.2,-178.5,-1.8,117.0,-79.5,113.1,0,4296,0,161,0,
2.3900,5.4,136.5,132.0,-6.6,69.6,-64.5,121.5,-66.0,-2815.8,303.6,-7.5,263.7,187.2,-32.1,-70.8,-266.1,-6.3,-4.8,172.2,-180.9,-1.8,108.9,-83.1,118.5,0,4302,0,162,0,
2.3933,5.7,138.6,133.5,-5.4,72.0,-67.5,120.3,-66.0,-2964.0,299.1,3.0,270.0,189.0,-28.2,-70.8,-263.1,-6.6,-4.5,177.3,-180.3,-1.5,120.9,-81.6,107.1,0,4308,0,163,0,
2.3967,9.9,136.5,136.2,-5.4,73.8,-66.0,120.3,-67.5,-2964.0,297.6,2.1,272.1,189.6,-20.4,-66.6,-261.0,-6.0,-4.5,174.9,-177.6,-1.8,117.3,-82.2,103.2,0,4314,0,164,0,
2.4000,8.7,137.7,134.7,-5.1,72.6,-65.4,120.3,-66.0,-3112.2,298.2,-3.0,267.6,188.1,-30.9,-75.3,-258.6,-6.3,-4.5,173.7,-178.5,-1.8,121.5,-76.8,108.3,0,4320,0,165,0,
2.4033,2.7,134.4,128.1,-9.3,69.0,-66.6,119.1,-73.2,-2815.8,300.0,-8.4,265.2,172.8,-28.8,-73.2,-267.0,-6.6,-4.8,169.8,-180.3,-1.8,110.4,-74.1,119.4,0,4326,0,166,0,
2.4067,3.6,139.2,135.0,-7.2,72.0,-66.3,120.6,-69.3,-2889.9,300.6,-6.0,271.2,166.5,-30.3,-69.9,-261.3,-6.0,-4.5,174.6,-178.5,-1.5,117.0,-70.5,115.8,0,4332,0,167,0,
2.4100,4.8,139.2,135.0,-7.2,70.5,-62.1,121.2,-70.8,-2964.0,298.5,0.0,272.7,178.5,-24.6,-66.6,-269.7,-6.0,-4.2,171.3,-177.6,-1.5,120.9,-77.1,117.3,0,4338,0,168,0,
2.4133,5.7,137.1,139.5,-3.0,71.1,-62.4,118.8,-70.8,-3038.1,300.9,5.4,276.3,179.4,-26.7,-67.2,-263.1,-6.3,-4.5,176.7,-174.0,-1.8,132.3,-72.0,105.9,0,4344,0,169,0,
2.4167,8.1,135.0,133.2,-5.1,71.1,-61.5,120.3,-75.6,-2964.0,301.8,3.0,276.3,184.5,-25.8,-61.8,-256.5,-6.3,-4.5,176.7,-173.1,-1.5,120.3,-64.2,111.0,0,4350,0,170,0,
2.4200,13.2,138.9,138.0,2.7,78.6,-61.8,120.0,-67.8,-2889.9,307.8,11.4,280.5,196.5,-20.7,-58.8,-255.0,-6.0,-4.2,184.2,-167.4,-2.1,130.8,-60.6,120.9,0,4356,0,171,0,
2.4233,8.7,137.1,134.1,-2.4,72.9,-66.3,116.1,-70.8,-2815.8,306.9,2.7,273.3,195.9,-18.6,-52.8,-257.7,-6.3,-4.2,178.5,-173.1,-1.8,127.5,-65.7,123.3,0,4362,0,172,0,
2.4267,10.5,140.7,140.4,3.9,81.3,-61.2,117.9,-68.4,-2964.0,312.3,13.8,282.0,192.3,-24.3,-73.8,-258.3,-6.3,-4.2,186.9,-166.2,-1.8,133.5,-66.6,123.0,0,4368,0,173,0,
2.4300,6.3,136.8,136.8,-6.0,71.4,-71.1,111.0,-75.9,-3038.1,314.4,1.5,271.8,193.2,-28.2,-68.7,-262.8,-6.3,-4.5,181.5,-176.4,-2.1,124.2,-74.1,120.6,0,4374,0,174,0,
2.4333,8.7,137.4,132.9,-4.2,73.8,-65.1,111.9,-73.5,-2889.9,304.8,1.2,277.2,187.8,-12.6,-59.4,-257.7,-6.0,-4.5,173.7,-174.0,-1.8,123.6,-72.9,120.6,0,4380,0,175,0,
