# Mains_Frequency_(Hz) =,60,,,,,,,,,,,,,,,,,,,,,,,,,,,
# Sample_Frequency_(Hz) =,300,,,,,,,,,,,,,,,,,,,,,,,,,,,
# Filter_Delay_(ms) =,43.3,,,,,,,,,,,,,,,,,,,,,,,,,,,
# Sensor_Data_Units =,uV,,,,,,,,,,,,,,,,,,,,,,,,,,,
# Headset_Name =,DSI-24 SN:1580,,,,,,,,,,,,,,,,,,,,,,,,,,,
# Data_Logger =,DSI-Streamer-v.1.08.31,,,,,,,,,,,,,,,,,,,,,,,,,,,
# Date =,4/20/2018,,,,,,,,,,,,,,,,,,,,,,,,,,,
# Time =,11:41:14,,,,,,,,,,,,,,,,,,,,,,,,,,,
# Patient_ID =,X F 01-MAY-1999 X,,,,,,,,,,,,,,,,,,,,,,,,,,,
# Record_ID =,Startdate 20-APR-2018 EEG_XX X X,,,,,,,,,,,,,,,,,,,,,,,,,,,
# Filter =,Non-Filtered,,,,,,,,,,,,,,,,,,,,,,,,,,,
# Comments =,,,,,,,,,,,,,,,,,,,,,,,,,,,,
# Reference location:,Pz,,,,,,,,,,,,,,,,,,,,,,,,,,,
# Trigger Source,Wireless,,,,,,,,,,,,,,,,,,,,,,,,,,,
# Channel_Number =,ch_1,ch_2,ch_3,ch_4,ch_5,ch_6,ch_7,ch_8,ch_9,ch_10,ch_11,ch_12,ch_13,ch_14,ch_15,ch_16,ch_17,ch_18,ch_19,ch_20,ch_21,ch_22,ch_23,ch_24,Trigger,Time_Offset,ADC_Status,ADC_Sequence,Event,Comments
Time,P3,C3,F3,Fz,F4,C4,P4,Cz,CM,A1,Fp1,Fp2,T3,T5,O1,O2,X3,X2,F7,F8,X1,A2,T6,T4,Trigger,Time_Offset,ADC_Status,ADC_Sequence,Event,Comments
0.0033,-4.2,124.8,227.7,113.1,221.7,-90.3,28.5,-37.8,-2741.7,221.4,470.4,711.9,12.9,-163.8,-65.4,-230.4,-6.0,-4.5,648.0,-1536.9,-1.8,84.0,-108.3,141.6,0,6,0,238,0,Start Data Acquisition
0.0067,-9.6,117.0,221.4,105.3,215.1,-94.2,23.1,-44.4,-2593.5,213.6,467.7,705.9,3.9,-171.9,-69.9,-232.5,-6.3,-4.5,644.4,-1540.2,-1.5,85.2,-106.8,145.8,0,12,0,239,0,
0.0100,-7.8,117.0,219.3,102.9,210.6,-99.0,21.6,-46.5,-2519.4,206.4,464.1,700.8,3.0,-169.5,-60.3,-225.6,-6.3,-4.2,642.3,-1548.3,-1.8,79.5,-104.4,147.0,0,18,0,240,0,
0.0133,-6.3,116.4,214.5,102.0,210.9,-95.7,23.7,-47.1,-2741.7,200.7,456.0,699.3,-3.3,-171.0,-54.9,-223.5,-6.6,-4.2,632.4,-1544.4,-1.8,82.5,-101.1,153.3,0,24,0,241,0,
0.0167,-9.3,119.7,214.5,102.9,211.8,-96.0,27.0,-46.2,-2741.7,204.0,457.2,704.4,-1.2,-165.6,-40.8,-216.9,-6.0,-4.2,630.3,-1542.0,-1.2,87.9,-102.3,151.5,0,30,0,242,0,
0.0200,-2.7,126.9,221.4,109.5,217.2,-93.0,26.1,-38.7,-2667.6,206.4,461.1,708.6,2.4,-158.7,-42.3,-225.6,-6.3,-4.2,637.2,-1536.6,-1.5,89.1,-108.3,157.5,0,36,0,243,0,
0.0233,-3.9,129.0,228.6,114.6,220.5,-87.6,24.6,-37.5,-2667.6,211.8,468.9,711.3,9.6,-159.3,-41.1,-227.1,-6.3,-4.5,646.5,-1533.0,-1.5,101.4,-109.2,165.9,0,42,0,244,0,
0.0267,-4.2,135.3,236.1,123.0,229.2,-82.2,24.0,-32.1,-2593.5,226.5,486.3,724.5,12.3,-155.7,-45.6,-236.1,-6.6,-4.8,660.6,-1521.0,-2.1,109.8,-104.7,165.0,0,48,0,245,0,
0.0300,-4.8,133.8,238.5,119.4,229.8,-84.6,25.8,-34.2,-2741.7,224.7,489.3,724.8,19.8,-156.0,-38.7,-218.7,-6.0,-4.5,663.3,-1521.0,-1.5,103.2,-94.8,168.6,0,54,0,246,0,
0.0333,-0.3,135.9,237.9,122.1,228.9,-82.2,24.6,-31.2,-2741.7,225.9,479.1,723.3,29.1,-153.3,-36.3,-215.1,-6.3,-4.5,657.3,-1521.9,-1.5,104.7,-102.3,174.0,0,60,0,247,0,
0.0367,1.8,132.9,232.5,115.8,222.6,-87.9,18.0,-35.4,-2667.6,218.4,472.2,716.1,23.1,-145.2,-24.3,-219.6,-6.3,-4.8,646.8,-1529.7,-1.5,95.4,-114.9,168.3,0,66,0,248,0,
0.0400,9.6,139.5,240.3,125.4,231.0,-81.3,15.9,-26.7,-2667.6,225.0,480.0,725.4,30.3,-135.9,-16.8,-239.7,-6.3,-3.9,656.4,-1521.6,-1.5,115.5,-131.1,179.4,0,72,0,249,0,
0.0433,13.2,146.4,249.3,129.9,236.1,-75.6,21.0,-22.5,-2741.7,238.8,495.0,732.6,38.7,-135.9,-26.1,-228.0,-6.0,-4.5,674.4,-1515.6,-1.5,113.1,-114.6,168.0,0,78,0,250,0,
0.0467,15.0,152.4,258.3,141.0,243.0,-71.1,26.7,-19.8,-2667.6,254.4,502.8,740.1,44.4,-131.1,-39.0,-227.1,-6.0,-4.2,683.7,-1509.0,-1.8,117.9,-103.5,166.8,0,84,0,251,0,
0.0500,14.7,151.2,256.5,133.5,234.3,-78.6,18.6,-26.1,-2667.6,252.3,499.5,734.1,47.4,-128.1,-22.8,-236.7,-6.3,-4.5,682.5,-1513.5,-1.5,112.5,-117.6,168.6,0,90,0,252,0,
0.0533,17.7,156.0,255.3,136.8,238.8,-73.8,23.7,-21.9,-2593.5,253.5,499.2,732.9,49.5,-129.3,-31.8,-239.7,-6.0,-4.5,682.5,-1512.3,-1.8,109.5,-118.8,168.6,0,96,0,253,0,
0.0567,21.6,153.9,250.8,134.4,238.5,-70.2,19.2,-20.4,-2741.7,245.1,489.9,723.9,45.9,-129.6,-29.7,-243.9,-6.0,-4.5,671.7,-1517.1,-1.5,116.4,-117.6,193.5,0,102,0,254,0,
0.0600,18.9,159.3,255.6,139.5,241.8,-72.9,20.7,-19.5,-2667.6,253.2,494.7,728.4,43.8,-128.1,-44.1,-242.7,-6.3,-4.5,674.4,-1514.4,-2.1,116.4,-105.3,183.3,0,108,0,255,0,
0.0633,16.8,157.2,256.8,142.8,244.2,-75.0,26.4,-19.5,-2741.7,247.8,492.3,740.4,40.5,-134.1,-41.4,-252.0,-6.3,-4.8,672.6,-1503.0,-1.8,119.1,-101.7,184.2,0,114,0,0,0,
0.0667,16.5,154.2,252.6,137.7,240.0,-77.7,28.8,-21.0,-2741.7,234.3,487.5,737.1,36.6,-134.7,-33.6,-232.2,-6.3,-4.5,665.7,-1507.5,-1.8,113.4,-101.4,178.2,0,120,0,1,0,
0.0700,20.1,152.7,257.7,144.0,243.0,-75.3,29.1,-12.6,-2667.6,244.5,491.7,738.6,45.3,-136.2,-41.4,-232.5,-6.3,-4.8,670.2,-1505.7,-1.8,112.2,-102.6,176.7,0,126,0,2,0,
0.0733,23.1,160.2,265.8,147.9,247.5,-73.5,31.5,-9.9,-2593.5,252.3,497.7,737.7,51.3,-134.4,-53.1,-238.5,-6.3,-4.2,682.5,-1504.5,-2.1,126.3,-95.7,185.1,0,132,0,3,0,
0.0767,22.5,161.1,269.4,146.7,245.4,-76.5,28.5,-12.0,-2519.4,258.0,505.2,736.5,48.9,-135.6,-51.0,-247.2,-6.3,-4.2,687.0,-1508.1,-2.1,113.4,-103.2,173.4,0,138,0,4,0,
0.0800,18.9,157.8,260.7,139.2,239.1,-84.0,26.1,-13.8,-2815.8,236.4,494.4,724.2,40.8,-132.6,-32.1,-229.2,-6.3,-3.9,678.6,-1519.5,-1.8,109.5,-107.4,168.6,0,144,0,5,0,
0.0833,23.4,156.0,253.8,136.2,234.0,-87.3,20.7,-18.0,-2593.5,238.2,487.8,715.8,37.2,-130.2,-34.5,-236.4,-6.0,-4.8,669.6,-1529.7,-1.8,100.5,-111.0,157.8,0,150,0,6,0,
0.0867,23.1,153.3,251.1,129.6,230.1,-94.2,18.9,-22.2,-2815.8,229.5,479.4,713.1,36.9,-129.9,-36.0,-242.1,-6.3,-4.2,660.3,-1529.4,-1.8,97.2,-117.3,145.2,0,156,0,7,0,
0.0900,16.8,150.6,248.1,129.9,230.1,-87.6,17.1,-27.0,-2667.6,234.9,483.6,717.9,36.9,-133.2,-39.6,-236.4,-6.3,-4.5,660.0,-1524.9,-1.8,87.6,-113.1,148.8,0,162,0,8,0,
0.0933,25.2,155.1,251.4,133.2,231.3,-88.5,22.8,-20.7,-2667.6,229.8,480.0,719.7,37.8,-130.2,-42.3,-229.8,-6.3,-4.5,660.3,-1520.4,-1.5,87.3,-97.2,161.7,0,168,0,9,0,
0.0967,21.9,154.2,246.3,131.7,232.8,-85.5,24.9,-21.3,-2815.8,230.7,476.4,720.3,33.0,-131.7,-55.5,-241.2,-6.6,-4.5,655.5,-1519.5,-1.5,96.6,-99.9,163.8,0,174,0,10,0,
0.1000,14.4,146.1,241.2,124.5,228.3,-84.6,31.2,-20.7,-2667.6,227.4,464.7,711.9,36.3,-138.0,-58.8,-234.3,-6.3,-4.8,642.6,-1522.2,-1.8,98.7,-96.6,164.1,0,180,0,11,0,
0.1033,14.1,149.1,241.5,126.0,229.5,-78.9,34.8,-22.8,-2667.6,228.6,471.6,719.1,36.3,-135.3,-51.6,-217.5,-6.0,-4.5,649.8,-1515.0,-1.8,103.2,-93.3,172.8,0,186,0,12,0,
0.1067,13.8,150.9,250.8,131.4,233.4,-76.5,33.6,-27.0,-2667.6,248.4,497.4,732.9,38.7,-132.6,-47.4,-220.2,-6.0,-4.5,676.5,-1505.7,-1.8,115.8,-90.3,180.9,0,192,0,13,0,
0.1100,9.6,144.6,245.7,124.5,229.2,-81.3,31.2,-33.6,-2593.5,242.4,495.6,726.6,35.1,-133.2,-40.5,-212.1,-6.0,-4.2,672.3,-1517.1,-1.8,118.8,-78.9,167.7,0,198,0,14,0,
0.1133,9.9,146.1,241.8,123.6,228.6,-79.5,34.8,-34.2,-2593.5,236.1,482.4,714.9,35.7,-132.3,-34.5,-204.0,-6.3,-4.8,659.1,-1519.2,-1.5,112.5,-74.4,175.8,0,204,0,15,0,
0.1167,4.8,139.8,234.6,117.6,225.6,-77.1,33.9,-36.9,-2741.7,231.0,470.7,711.0,35.4,-132.6,-24.9,-207.0,-6.3,-4.5,646.8,-1519.8,-1.8,118.5,-77.1,178.2,0,210,0,16,0,
0.1200,2.1,134.4,229.5,117.0,224.4,-75.0,35.1,-39.3,-2593.5,234.3,463.2,711.9,26.1,-141.6,-35.1,-209.4,-6.3,-4.5,641.4,-1517.7,-1.8,116.1,-74.1,175.8,0,216,0,17,0,
0.1233,-0.3,135.6,233.7,116.7,229.8,-74.7,33.9,-38.7,-2667.6,231.6,475.8,722.4,24.3,-143.7,-42.6,-200.7,-6.0,-4.8,652.8,-1512.3,-1.8,112.5,-73.2,180.3,0,222,0,18,0,
0.1267,3.9,136.5,240.6,122.1,228.9,-74.4,33.6,-37.8,-2667.6,240.9,491.4,730.5,30.0,-135.3,-30.3,-206.1,-6.3,-4.5,666.0,-1507.5,-2.1,118.2,-74.4,178.8,0,228,0,19,0,
0.1300,1.5,135.0,237.6,118.5,228.6,-75.6,30.0,-42.0,-2593.5,239.7,496.8,732.0,33.6,-129.3,-11.7,-206.4,-6.3,-4.5,673.2,-1504.5,-1.2,122.7,-81.3,188.1,0,234,0,20,0,
0.1333,0.3,134.4,237.3,118.2,229.2,-76.5,30.6,-38.7,-2667.6,242.7,486.6,724.8,31.2,-138.3,-20.1,-200.4,-6.3,-4.5,665.4,-1510.5,-1.5,114.0,-74.4,187.2,0,240,0,21,0,
0.1367,1.5,141.3,245.4,127.2,240.0,-66.9,39.3,-31.8,-2667.6,248.4,495.6,733.5,38.7,-136.2,-29.7,-196.5,-6.0,-4.5,674.4,-1500.6,-1.8,133.5,-69.9,196.2,0,246,0,22,0,
0.1400,5.1,144.3,253.8,133.5,241.2,-65.7,40.8,-28.2,-2593.5,252.0,501.6,739.8,42.3,-131.1,-27.6,-194.7,-6.3,-4.5,675.3,-1495.8,-1.8,136.2,-73.8,198.0,0,252,0,23,0,
0.1433,4.2,144.0,247.8,128.7,240.3,-65.7,36.6,-27.6,-2667.6,248.7,492.0,736.5,45.3,-126.9,-20.4,-191.4,-6.3,-4.5,667.8,-1497.9,-1.5,130.2,-73.2,197.4,0,258,0,24,0,
0.1467,11.4,153.9,260.4,141.6,249.3,-60.0,30.3,-20.4,-2593.5,260.7,504.0,749.1,55.5,-117.0,-17.7,-234.9,-6.0,-4.8,681.0,-1485.3,-1.8,144.0,-93.0,206.7,0,264,0,25,0,
0.1500,11.1,152.4,265.8,145.2,255.6,-54.9,34.8,-18.3,-2593.5,271.8,516.0,758.7,59.7,-117.0,-21.9,-216.0,-6.3,-4.5,692.1,-1479.9,-1.8,139.8,-90.3,210.6,0,270,0,26,0,
0.1533,12.0,158.1,268.8,143.4,250.5,-54.3,35.1,-20.4,-2667.6,268.5,515.7,750.0,63.9,-120.0,-17.7,-203.7,-6.3,-4.8,696.6,-1484.1,-1.5,143.7,-81.3,207.6,0,276,0,27,0,
0.1567,11.7,162.9,270.0,143.7,255.0,-53.7,36.6,-22.5,-2593.5,273.6,518.1,759.9,65.1,-112.5,-17.4,-216.3,-6.6,-4.5,701.1,-1475.4,-1.5,149.7,-88.5,210.9,0,282,0,28,0,
0.1600,20.1,169.8,281.1,154.2,257.4,-49.5,36.0,-16.5,-2519.4,291.3,534.0,763.2,77.4,-106.2,-25.2,-234.9,-6.0,-4.5,721.2,-1473.6,-1.5,146.1,-91.2,200.4,0,288,0,29,0,
0.1633,16.2,165.9,273.6,145.2,252.6,-54.0,34.5,-20.7,-2519.4,281.4,522.0,748.2,75.9,-107.7,-15.6,-223.2,-6.3,-4.2,706.8,-1487.1,-2.1,138.6,-88.5,191.1,0,294,0,30,0,
0.1667,17.7,161.4,268.8,140.7,248.1,-58.2,33.9,-17.4,-2593.5,268.5,511.8,741.9,66.6,-113.7,-21.6,-223.5,-6.6,-4.5,700.2,-1489.5,-1.8,139.8,-92.7,190.8,0,300,0,31,0,
0.1700,17.1,158.7,267.9,145.8,253.8,-57.6,32.1,-15.9,-2667.6,260.4,519.9,759.6,63.6,-118.5,-19.5,-219.3,-6.6,-5.1,701.1,-1475.7,-1.8,135.0,-90.0,199.2,0,306,0,32,0,
0.1733,13.8,153.6,265.5,144.3,252.6,-65.1,32.1,-19.5,-2667.6,262.8,519.3,759.6,59.1,-127.2,-24.3,-220.5,-6.3,-4.5,700.8,-1475.4,-2.1,145.2,-97.5,208.8,0,312,0,33,0,
0.1767,15.9,158.1,268.8,145.5,253.8,-70.8,27.3,-19.2,-2519.4,261.3,518.7,759.9,60.3,-135.9,-52.5,-241.5,-6.3,-4.2,696.6,-1476.0,-1.5,139.2,-94.5,194.7,0,318,0,34,0,
0.1800,11.1,150.6,254.4,133.5,242.1,-82.2,23.1,-23.7,-2667.6,245.4,497.4,739.2,62.7,-140.4,-39.3,-231.9,-6.3,-4.8,681.9,-1492.2,-1.5,113.7,-86.1,179.4,0,324,0,35,0,
0.1833,12.6,147.9,254.1,130.2,235.8,-85.2,21.3,-26.4,-2667.6,243.3,493.8,726.6,42.3,-132.6,-41.4,-242.1,-6.3,-4.2,673.5,-1500.6,-1.5,117.9,-101.7,174.3,0,330,0,36,0,
0.1867,11.4,147.0,251.7,126.3,236.4,-87.3,18.0,-30.3,-2667.6,235.2,493.8,728.4,45.9,-139.8,-45.0,-238.8,-6.3,-4.5,675.3,-1502.4,-1.5,109.5,-101.4,177.0,0,336,0,37,0,
0.1900,14.1,148.8,255.3,128.1,237.6,-84.9,18.0,-27.0,-2593.5,239.1,498.3,738.0,43.8,-141.3,-53.1,-242.7,-6.3,-4.5,683.1,-1495.8,-1.5,110.7,-91.8,173.4,0,342,0,38,0,
0.1933,16.5,150.3,253.8,128.1,238.5,-84.6,17.7,-29.1,-2667.6,244.5,495.0,735.6,46.8,-132.6,-40.2,-244.2,-6.6,-4.8,679.8,-1498.8,-1.8,99.9,-98.4,169.5,0,348,0,39,0,
0.1967,12.3,143.7,247.8,122.7,229.5,-86.1,20.1,-32.1,-2593.5,235.8,492.0,728.1,37.8,-134.1,-41.4,-223.2,-6.0,-4.8,671.1,-1504.8,-1.8,108.3,-90.9,168.0,0,354,0,40,0,
0.2000,10.2,145.8,245.1,120.9,230.7,-83.7,24.0,-33.3,-2667.6,232.5,492.6,726.3,38.7,-135.0,-34.5,-227.4,-6.0,-4.5,672.9,-1504.5,-1.5,106.8,-82.5,173.4,0,360,0,41,0,
0.2033,9.6,144.6,243.6,118.2,230.7,-82.2,26.1,-36.6,-2815.8,237.0,489.6,722.4,37.8,-131.7,-30.0,-220.5,-6.0,-4.8,665.7,-1507.5,-1.5,110.4,-81.3,167.7,0,366,0,42,0,
0.2067,8.4,145.8,245.7,122.1,233.7,-75.6,30.3,-35.4,-2593.5,237.9,487.5,726.0,35.1,-136.5,-39.6,-224.4,-6.0,-4.8,666.6,-1500.0,-1.8,110.4,-78.9,169.5,0,372,0,43,0,
0.2100,8.4,142.2,241.2,121.2,233.1,-71.1,32.1,-39.0,-2593.5,238.8,486.9,730.5,34.8,-134.4,-40.2,-222.0,-6.3,-4.5,661.2,-1495.5,-1.8,118.8,-75.3,185.4,0,378,0,44,0,
0.2133,5.7,140.4,241.5,120.0,229.5,-73.2,30.6,-38.4,-2519.4,243.3,487.2,727.8,40.8,-126.0,-15.6,-212.4,-6.0,-4.8,661.5,-1497.0,-2.1,117.6,-78.6,185.1,0,384,0,45,0,
0.2167,3.0,135.9,234.9,118.2,229.5,-76.2,32.1,-39.3,-2815.8,229.2,481.8,728.7,38.4,-126.9,-23.4,-206.7,-6.3,-4.5,652.2,-1495.2,-1.8,107.1,-72.3,188.7,0,390,0,46,0,
0.2200,5.4,140.1,241.5,125.4,238.2,-66.3,36.0,-34.2,-2741.7,247.8,492.6,740.7,42.3,-135.0,-46.2,-213.3,-6.3,-4.5,666.9,-1484.7,-1.8,129.9,-73.8,192.6,0,396,0,47,0,
0.2233,2.1,134.1,238.5,121.8,234.9,-72.0,36.3,-36.0,-2593.5,247.8,489.3,730.2,35.4,-136.8,-42.3,-196.2,-6.0,-4.5,665.4,-1497.0,-1.8,130.8,-71.1,191.4,0,402,0,48,0,
0.2267,-0.3,132.3,238.5,120.6,229.8,-74.7,34.2,-37.8,-2593.5,241.5,487.8,724.8,31.2,-143.4,-33.3,-202.8,-6.6,-4.5,666.9,-1498.8,-1.5,123.9,-66.0,183.6,0,408,0,49,0,
0.2300,-1.5,130.8,235.2,121.2,230.4,-76.8,33.9,-37.2,-2519.4,240.0,485.4,726.6,37.8,-136.8,-23.4,-203.4,-6.3,-4.5,662.4,-1497.3,-1.8,123.3,-68.4,182.4,0,414,0,50,0,
0.2333,-6.3,132.3,241.5,123.6,231.9,-73.2,36.3,-37.2,-2741.7,245.7,492.9,730.2,38.7,-146.7,-36.3,-203.4,-6.0,-4.2,668.4,-1491.6,-1.5,123.0,-67.5,187.8,0,420,0,51,0,
0.2367,-6.9,135.0,241.5,123.0,237.3,-69.3,33.6,-33.0,-2593.5,246.3,490.5,734.1,34.2,-149.4,-38.7,-206.1,-6.3,-4.5,666.6,-1488.3,-1.8,132.3,-68.4,187.2,0,426,0,52,0,
0.2400,-8.1,134.1,240.9,127.2,243.0,-66.9,32.1,-30.9,-2593.5,232.8,495.3,740.7,27.9,-158.1,-53.7,-218.1,-6.0,-4.2,667.8,-1480.8,-1.8,129.3,-72.9,188.1,0,432,0,53,0,
0.2433,-3.6,137.4,245.4,127.8,248.1,-64.8,32.4,-30.3,-2519.4,252.6,497.1,740.1,38.1,-150.0,-51.6,-216.3,-6.3,-4.5,672.6,-1481.1,-1.5,139.2,-74.4,187.8,0,438,0,54,0,
0.2467,-2.7,139.5,246.6,131.4,245.4,-67.2,31.2,-26.7,-2593.5,249.3,503.1,746.1,42.6,-150.3,-45.0,-209.4,-6.0,-4.5,672.3,-1477.5,-1.8,133.2,-81.0,185.4,0,444,0,55,0,
0.2500,-5.4,140.1,244.5,127.2,245.7,-66.3,29.1,-31.5,-2445.3,244.5,498.3,746.7,40.2,-154.2,-36.9,-215.7,-6.3,-4.5,672.9,-1479.9,-1.8,129.6,-88.8,190.8,0,450,0,56,0,
0.2533,0.3,148.8,257.1,139.8,253.2,-57.0,31.5,-24.6,-2445.3,262.2,508.2,756.6,46.5,-147.3,-45.6,-234.9,-6.6,-4.5,683.1,-1469.1,-1.5,141.0,-99.6,200.1,0,456,0,57,0,
0.2567,2.1,156.6,260.1,142.2,256.8,-54.9,33.0,-20.1,-2371.2,265.8,510.3,755.7,55.5,-143.1,-53.7,-229.8,-6.3,-4.5,689.4,-1468.8,-1.8,140.4,-84.3,199.2,0,462,0,58,0,
0.2600,6.3,153.3,261.3,142.5,254.7,-63.0,31.2,-20.4,-2593.5,264.3,517.2,757.5,56.7,-140.4,-39.0,-222.0,-6.6,-4.5,694.2,-1469.1,-2.1,134.7,-91.5,192.3,0,468,0,59,0,
0.2633,4.2,154.5,259.8,140.4,254.4,-59.7,30.6,-19.5,-2519.4,260.1,513.3,757.8,52.5,-143.4,-32.7,-219.0,-6.3,-4.5,693.9,-1470.6,-2.1,136.2,-92.7,190.2,0,474,0,60,0,
0.2667,7.5,159.6,268.5,142.8,255.9,-56.4,32.7,-12.9,-2741.7,266.4,517.5,759.6,54.3,-142.2,-36.0,-229.2,-6.3,-4.5,695.4,-1467.0,-1.8,145.5,-98.1,195.3,0,480,0,61,0,
0.2700,7.2,159.3,265.5,142.5,257.1,-58.8,28.2,-14.7,-2445.3,274.2,513.9,758.7,67.5,-136.5,-25.8,-227.4,-6.0,-4.5,692.7,-1467.6,-1.8,148.8,-99.6,200.7,0,486,0,62,0,
0.2733,12.0,163.2,277.2,152.7,261.6,-61.5,30.0,-9.9,-2519.4,277.2,531.0,768.3,69.9,-134.4,-40.2,-223.5,-6.3,-4.5,712.8,-1457.7,-1.5,159.6,-101.7,205.8,0,492,0,63,0,
0.2767,15.0,166.5,279.6,153.0,258.0,-68.7,27.9,-12.9,-2519.4,268.8,534.6,766.8,70.5,-125.7,-22.5,-218.7,-6.3,-4.5,718.5,-1461.3,-1.8,144.0,-90.0,191.1,0,498,0,64,0,
0.2800,16.2,164.1,279.6,153.3,254.7,-73.2,24.6,-12.9,-2519.4,283.5,531.6,761.4,72.6,-125.4,-27.0,-232.2,-6.6,-4.5,712.2,-1469.7,-1.8,144.0,-101.4,188.1,0,504,0,65,0,
0.2833,17.1,164.4,272.1,146.1,250.2,-74.7,20.7,-12.9,-2593.5,271.8,516.0,745.8,72.6,-134.7,-39.9,-228.6,-6.0,-4.2,697.8,-1478.4,-1.8,138.6,-96.6,176.7,0,510,0,66,0,
0.2867,24.3,166.5,274.8,148.8,252.0,-74.1,21.6,-10.2,-2519.4,278.4,518.1,747.6,66.9,-118.5,-30.9,-224.7,-6.3,-4.5,703.8,-1476.9,-1.8,137.7,-96.6,171.3,0,516,0,67,0,
0.2900,25.5,171.3,279.6,150.3,253.8,-76.5,15.0,-11.7,-2519.4,277.2,526.2,759.3,78.9,-113.4,-21.6,-223.2,-6.3,-4.5,711.3,-1466.7,-1.5,143.4,-103.8,172.8,0,522,0,68,0,
0.2933,25.2,168.3,273.0,143.1,247.5,-79.2,16.2,-18.0,-2519.4,273.0,524.1,757.8,70.8,-109.8,-17.4,-209.1,-6.0,-4.8,702.0,-1470.6,-1.8,130.2,-98.4,180.6,0,528,0,69,0,
0.2967,25.8,161.4,261.3,131.1,237.0,-88.5,10.2,-18.9,-2519.4,249.0,505.8,738.3,59.1,-106.2,1.2,-210.0,-6.3,-4.8,683.7,-1488.6,-1.5,115.8,-100.5,172.2,0,534,0,70,0,
0.3000,23.7,164.4,262.8,132.9,240.0,-77.7,15.6,-15.9,-2445.3,266.4,505.5,735.9,65.4,-108.3,-22.2,-231.6,-6.3,-4.5,683.1,-1487.4,-1.8,128.1,-103.5,174.3,0,540,0,71,0,
0.3033,24.0,162.0,258.9,128.4,237.0,-76.2,15.9,-16.8,-2445.3,252.9,501.9,733.2,63.6,-113.7,-35.7,-230.4,-6.3,-4.5,683.1,-1491.9,-1.5,130.2,-91.2,172.8,0,546,0,72,0,
0.3067,25.2,164.1,258.9,127.8,238.2,-75.0,16.8,-17.4,-2593.5,255.9,504.3,734.7,58.2,-105.0,-20.1,-231.6,-6.3,-4.5,681.9,-1485.9,-1.8,120.3,-96.6,178.5,0,552,0,73,0,
0.3100,24.9,160.5,254.7,129.3,236.1,-73.5,20.4,-20.1,-2445.3,262.5,503.1,734.7,55.5,-104.4,-30.6,-226.5,-6.0,-4.5,681.9,-1489.8,-1.5,128.7,-86.7,184.8,0,558,0,74,0,
0.3133,18.6,157.2,251.4,125.7,238.8,-66.3,21.0,-22.2,-2593.5,254.1,496.8,731.1,53.7,-114.9,-41.4,-221.4,-6.0,-4.5,675.3,-1485.6,-1.5,138.3,-94.2,196.8,0,564,0,75,0,
0.3167,18.9,152.1,249.9,126.0,237.0,-67.2,23.4,-25.2,-2519.4,258.9,494.7,736.8,58.2,-108.3,-30.0,-215.1,-6.3,-4.5,669.9,-1486.8,-1.5,137.4,-84.6,187.5,0,570,0,76,0,
0.3200,13.5,148.2,247.2,120.3,231.9,-69.6,26.4,-30.3,-2519.4,250.8,495.0,732.0,52.8,-109.2,-21.9,-210.0,-6.3,-4.5,673.8,-1488.9,-1.8,126.0,-77.7,179.4,0,576,0,77,0,
0.3233,11.1,144.9,246.0,120.6,230.1,-69.3,24.9,-33.9,-2519.4,252.3,500.7,734.7,53.1,-112.5,-22.5,-209.7,-6.6,-4.8,679.2,-1486.8,-1.8,120.3,-73.2,180.9,0,582,0,78,0,
0.3267,12.3,153.6,251.7,126.6,233.1,-69.0,28.8,-32.7,-2593.5,267.9,507.0,738.3,60.0,-129.3,-50.1,-218.4,-6.3,-4.5,684.9,-1481.1,-1.8,132.3,-74.4,186.6,0,588,0,79,0,
0.3300,8.1,142.5,242.1,113.7,229.2,-72.0,27.9,-36.9,-2519.4,250.8,488.4,725.4,42.0,-115.8,-38.4,-213.9,-6.3,-4.5,667.8,-1494.3,-1.8,120.0,-74.7,176.4,0,594,0,80,0,
0.3333,1.5,135.3,231.3,103.5,220.2,-77.1,31.2,-41.1,-2519.4,237.0,476.7,712.5,33.0,-129.6,-35.1,-212.4,-6.0,-4.8,653.1,-1502.7,-2.1,113.7,-76.2,182.4,0,600,0,81,0,
0.3367,2.4,136.2,235.5,107.7,222.0,-77.7,29.7,-39.6,-2519.4,244.5,481.8,713.7,37.2,-130.5,-36.6,-218.7,-6.0,-4.5,660.9,-1499.4,-1.8,131.1,-68.4,189.6,0,606,0,82,0,
0.3400,0.9,132.9,239.7,107.7,222.6,-76.2,30.0,-42.0,-2371.2,243.9,494.4,721.2,37.8,-132.3,-24.3,-208.2,-6.3,-4.5,672.9,-1494.3,-2.1,133.8,-74.4,199.8,0,612,0,83,0,
0.3433,2.7,133.8,238.8,111.9,221.1,-77.1,31.8,-43.2,-2371.2,246.3,501.6,727.5,42.0,-126.3,-14.1,-201.0,-6.0,-4.5,673.8,-1491.9,-1.8,135.0,-74.1,184.2,0,618,0,84,0,
0.3467,1.2,133.5,242.4,114.9,225.6,-74.1,30.6,-42.0,-2445.3,247.2,498.3,730.5,36.0,-132.9,-22.2,-204.3,-6.0,-4.5,674.1,-1488.0,-1.8,129.3,-73.5,186.3,0,624,0,85,0,
0.3500,-1.8,133.8,245.1,124.5,239.4,-58.8,33.9,-33.9,-2445.3,257.7,499.8,743.7,34.8,-135.0,-31.2,-209.1,-6.0,-4.5,668.4,-1472.4,-1.8,138.9,-70.5,201.3,0,630,0,86,0,
0.3533,-6.6,135.3,249.6,132.6,247.8,-55.8,35.4,-25.2,-2445.3,249.3,501.0,747.9,37.2,-154.8,-64.5,-220.8,-6.3,-4.5,670.8,-1467.0,-1.8,139.5,-66.0,204.9,0,636,0,87,0,
0.3567,-1.2,141.6,258.9,140.1,251.7,-50.7,40.2,-18.9,-2445.3,257.1,510.0,752.4,44.1,-148.5,-46.2,-218.7,-6.3,-4.2,675.9,-1461.0,-1.8,146.7,-75.9,209.4,0,642,0,88,0,
0.3600,-2.1,144.0,264.3,145.8,257.7,-53.4,31.8,-19.8,-2445.3,258.3,525.3,760.2,48.9,-150.6,-41.4,-219.6,-6.3,-4.5,695.1,-1456.5,-1.5,147.0,-86.7,206.1,0,648,0,89,0,
0.3633,-2.4,146.1,269.1,149.4,258.3,-51.0,34.2,-19.8,-2371.2,266.4,535.2,769.5,48.3,-148.5,-26.4,-211.8,-6.3,-4.5,705.0,-1451.1,-1.8,150.3,-85.2,209.1,0,654,0,90,0,
0.3667,-2.1,148.2,269.4,152.1,263.1,-52.8,31.2,-16.2,-2445.3,260.1,529.8,768.0,45.3,-146.4,-31.8,-224.1,-6.3,-4.5,699.0,-1452.6,-1.8,142.2,-92.1,204.0,0,660,0,91,0,
0.3700,3.0,156.6,277.5,161.4,271.8,-39.9,36.9,-6.0,-2445.3,272.4,537.6,771.3,54.6,-149.1,-58.2,-231.3,-6.3,-4.5,705.0,-1445.4,-1.8,156.9,-83.4,211.5,0,666,0,92,0,
0.3733,7.8,158.4,282.6,163.8,275.4,-44.7,34.2,-2.7,-2519.4,273.0,537.9,766.8,61.2,-146.4,-49.2,-240.3,-6.3,-4.5,713.4,-1445.7,-1.8,162.6,-97.2,214.2,0,672,0,93,0,
0.3767,6.3,163.8,285.3,166.8,276.6,-39.9,39.9,4.2,-2519.4,272.4,535.5,759.0,59.7,-157.5,-67.8,-237.0,-6.3,-4.5,713.7,-1451.7,-1.5,148.2,-84.9,201.9,0,678,0,94,0,
0.3800,9.0,168.6,290.1,168.6,281.7,-39.9,36.9,6.3,-2371.2,265.2,540.9,765.3,60.0,-156.3,-66.0,-237.3,-6.3,-4.5,713.1,-1447.8,-2.1,143.1,-90.6,200.4,0,684,0,95,0,
0.3833,13.5,171.9,290.7,170.7,282.0,-39.9,33.6,9.9,-2519.4,264.6,543.0,777.6,64.2,-152.4,-55.2,-240.3,-6.0,-4.8,716.1,-1440.9,-1.8,137.4,-102.6,208.8,0,690,0,96,0,
0.3867,15.6,172.2,288.6,168.9,278.7,-42.6,31.8,10.5,-2519.4,262.5,538.5,775.2,65.1,-147.9,-55.2,-252.9,-6.3,-4.2,712.2,-1441.2,-1.8,130.2,-110.7,206.7,0,696,0,97,0,
0.3900,16.5,174.6,285.9,166.2,274.5,-46.8,29.1,9.6,-2593.5,264.0,533.7,768.9,60.6,-157.2,-71.4,-257.1,-6.3,-4.2,706.2,-1449.9,-1.8,125.1,-105.9,182.7,0,702,0,98,0,
0.3933,15.3,169.5,277.2,156.0,266.7,-51.6,24.6,6.0,-2667.6,252.6,519.0,758.7,55.5,-149.4,-72.3,-262.2,-6.3,-4.5,690.0,-1456.5,-1.8,117.3,-129.3,178.5,0,708,0,99,0,
0.3967,13.8,166.2,270.0,147.3,260.1,-54.6,25.2,-0.3,-2667.6,249.3,513.6,746.7,52.8,-148.2,-63.9,-256.5,-6.3,-4.5,687.9,-1469.7,-1.8,118.5,-122.1,179.4,0,714,0,100,0,
0.4000,12.9,162.6,264.0,141.9,252.3,-60.6,25.2,-3.3,-2815.8,250.5,511.8,737.1,53.1,-140.7,-52.2,-248.7,-6.3,-4.8,682.2,-1474.2,-1.5,114.3,-117.0,179.7,0,720,0,101,0,
0.4033,11.1,160.2,259.5,135.0,243.0,-64.5,26.1,-9.0,-2815.8,246.3,508.5,728.4,48.6,-141.6,-51.0,-241.5,-6.6,-4.5,684.0,-1487.1,-1.5,106.2,-103.5,170.1,0,726,0,102,0,
0.4067,11.4,156.9,259.2,131.1,237.3,-67.8,29.1,-6.6,-2741.7,240.0,503.7,724.5,43.2,-140.7,-49.5,-241.8,-6.0,-4.2,678.9,-1489.2,-1.8,101.4,-102.6,166.5,0,732,0,103,0,
0.4100,6.3,145.2,244.5,122.4,229.5,-76.5,24.3,-17.7,-2815.8,232.8,489.6,718.5,35.1,-144.9,-45.9,-235.5,-6.0,-4.5,665.7,-1493.7,-1.8,103.2,-107.1,160.8,0,738,0,104,0,
0.4133,9.0,149.4,248.7,125.1,236.4,-71.1,32.7,-16.2,-2741.7,229.5,495.0,729.0,40.5,-144.0,-48.0,-226.5,-6.3,-4.5,669.3,-1483.2,-1.8,105.3,-94.8,172.8,0,744,0,105,0,
0.4167,3.3,137.4,239.7,116.7,227.1,-77.7,27.0,-23.1,-2815.8,224.4,485.7,722.4,31.2,-149.1,-42.0,-220.2,-6.6,-4.5,660.3,-1491.0,-1.8,99.3,-91.2,165.6,0,750,0,106,0,
0.4200,1.5,135.3,233.4,115.8,222.3,-77.7,28.8,-24.9,-2741.7,224.4,479.7,717.6,23.4,-149.1,-48.3,-224.1,-6.3,-4.5,653.4,-1494.3,-1.8,101.7,-89.1,162.9,0,756,0,107,0,
0.4233,-4.5,126.9,228.9,109.8,214.8,-81.9,27.6,-28.2,-2889.9,219.6,475.8,710.1,15.3,-149.7,-46.2,-216.9,-6.0,-4.2,648.6,-1502.7,-1.8,94.5,-90.6,165.0,0,762,0,108,0,
0.4267,-2.7,127.5,224.4,106.5,210.6,-84.3,28.5,-31.8,-2815.8,217.2,463.8,696.6,16.2,-144.3,-50.1,-227.7,-6.3,-4.2,642.3,-1514.4,-1.5,94.8,-96.9,157.2,0,768,0,109,0,
0.4300,-5.7,124.5,219.0,99.0,206.7,-88.2,30.0,-36.6,-2964.0,214.8,464.1,693.9,27.3,-144.0,-37.2,-223.2,-6.6,-4.8,641.1,-1511.7,-1.8,98.1,-103.2,155.7,0,774,0,110,0,
0.4333,-8.4,119.7,216.6,93.6,206.4,-93.6,18.9,-47.4,-2741.7,212.4,466.2,702.3,23.7,-139.2,-30.6,-221.1,-6.0,-4.8,641.4,-1506.6,-2.1,90.6,-102.6,155.1,0,780,0,111,0,
0.4367,-10.2,115.8,217.5,92.4,207.9,-92.1,18.9,-45.9,-2964.0,217.8,466.8,710.1,19.2,-143.1,-39.9,-228.6,-6.3,-4.5,640.2,-1499.7,-1.8,94.5,-107.7,160.2,0,786,0,112,0,
0.4400,-5.7,114.0,209.1,87.9,203.7,-95.4,20.1,-45.9,-2741.7,216.9,453.9,700.2,16.2,-138.0,-24.9,-222.6,-6.6,-4.5,627.9,-1507.8,-1.8,92.1,-102.3,152.7,0,792,0,113,0,
0.4433,-5.1,119.1,216.3,90.3,208.5,-90.3,17.4,-46.5,-2889.9,217.2,462.9,700.2,22.5,-134.4,-33.3,-229.8,-6.0,-4.8,635.4,-1507.2,-1.8,95.1,-109.2,147.0,0,798,0,114,0,
0.4467,-6.0,122.7,228.0,99.0,213.0,-85.8,20.7,-37.5,-2815.8,220.2,477.0,709.5,26.1,-137.1,-28.5,-216.6,-6.3,-4.5,651.0,-1499.4,-1.5,104.7,-112.5,151.5,0,804,0,115,0,
0.4500,-4.2,133.2,239.4,111.6,225.9,-81.9,18.0,-28.8,-2964.0,245.1,493.8,723.9,37.5,-141.0,-48.0,-217.8,-6.0,-5.1,667.8,-1486.5,-1.8,110.7,-110.4,162.6,0,810,0,116,0,
0.4533,-2.1,132.6,242.1,117.3,227.4,-79.2,17.7,-26.7,-2889.9,238.8,490.8,719.1,31.2,-131.1,-40.8,-231.0,-6.3,-4.5,668.4,-1488.3,-1.8,107.4,-116.7,159.6,0,816,0,117,0,
0.4567,-2.4,131.7,245.1,119.4,233.4,-75.6,22.5,-21.9,-2964.0,236.4,493.8,720.0,31.5,-141.0,-36.9,-228.3,-6.0,-4.8,666.6,-1485.6,-2.1,107.4,-109.2,161.1,0,822,0,118,0,
0.4600,-1.8,132.3,246.3,123.9,237.9,-70.5,24.6,-19.8,-3038.1,238.5,491.7,728.4,28.5,-138.0,-28.5,-227.4,-6.0,-4.5,661.2,-1474.5,-1.5,126.9,-114.0,174.0,0,828,0,119,0,
0.4633,-5.4,129.0,243.6,119.7,236.7,-75.9,24.9,-22.2,-3112.2,230.7,486.9,732.9,25.5,-140.4,-19.8,-217.5,-6.3,-4.5,655.5,-1470.6,-1.8,120.9,-104.1,175.2,0,834,0,120,0,
0.4667,-2.4,125.4,237.3,115.5,234.9,-75.6,22.2,-26.7,-3038.1,225.3,470.4,721.8,19.2,-145.8,-21.9,-220.5,-6.3,-4.2,641.7,-1477.5,-1.8,108.9,-93.3,172.8,0,840,0,121,0,
0.4700,-3.6,133.8,246.9,124.8,246.0,-67.8,24.9,-16.2,-2964.0,234.6,487.8,731.1,27.0,-153.9,-48.0,-232.2,-6.3,-4.5,653.1,-1467.0,-1.8,128.4,-90.6,183.6,0,846,0,122,0,
0.4733,3.9,144.3,261.6,137.4,255.0,-61.8,24.6,-10.5,-2964.0,248.7,510.3,749.7,45.3,-143.7,-51.3,-228.9,-6.3,-4.5,678.3,-1453.8,-1.5,140.1,-88.5,188.4,0,852,0,123,0,
0.4767,7.8,151.5,269.1,145.5,262.8,-56.4,24.6,-9.0,-2964.0,259.5,523.5,752.7,50.7,-147.0,-50.4,-217.8,-6.3,-4.2,691.8,-1450.2,-1.8,145.5,-93.0,189.3,0,858,0,124,0,
0.4800,6.0,153.6,266.4,139.2,255.0,-64.2,22.2,-11.7,-2889.9,257.7,512.4,742.5,51.9,-138.3,-42.0,-222.0,-6.0,-4.5,688.2,-1460.7,-1.8,130.8,-95.1,185.1,0,864,0,125,0,
0.4833,10.5,164.7,276.0,145.8,258.6,-62.1,25.2,-6.3,-3038.1,264.3,518.1,742.5,57.6,-127.5,-38.7,-234.6,-6.0,-4.5,692.7,-1458.3,-1.8,127.2,-96.0,187.5,0,870,0,126,0,
0.4867,12.3,160.8,271.2,143.4,257.1,-61.5,23.7,-9.0,-2815.8,260.4,513.6,741.6,53.1,-126.3,-31.5,-233.4,-6.3,-4.5,687.9,-1460.4,-1.5,131.1,-98.7,183.0,0,876,0,127,0,
0.4900,10.2,162.9,274.5,141.6,256.2,-57.9,23.4,-9.3,-2815.8,261.3,514.8,743.4,63.9,-133.5,-45.0,-242.1,-6.0,-4.2,687.3,-1457.4,-1.8,139.2,-99.6,187.5,0,882,0,128,0,
0.4933,10.8,163.8,274.2,141.0,259.8,-60.3,24.3,-11.1,-2815.8,255.9,517.5,750.6,61.2,-134.7,-29.7,-224.4,-6.3,-4.2,687.3,-1450.2,-1.5,131.4,-107.4,190.5,0,888,0,129,0,
0.4967,6.6,156.6,268.8,139.2,256.8,-59.7,24.0,-15.0,-2815.8,250.2,511.8,747.0,53.7,-143.4,-42.3,-229.8,-6.3,-4.2,681.0,-1452.6,-1.8,128.1,-110.7,183.3,0,894,0,130,0,
0.5000,6.6,154.2,261.3,132.6,251.4,-57.6,26.4,-17.4,-2815.8,243.6,499.2,740.4,46.2,-141.6,-28.8,-217.2,-6.6,-4.5,667.8,-1457.4,-2.1,118.5,-99.9,180.6,0,900,0,131,0,
0.5033,7.5,155.7,266.4,140.1,257.7,-53.7,30.0,-9.9,-2815.8,258.0,508.2,747.0,50.4,-140.7,-49.5,-225.6,-6.3,-4.5,679.5,-1449.9,-1.5,132.9,-90.3,188.4,0,906,0,132,0,
0.5067,9.9,154.8,262.8,139.2,255.6,-52.2,28.2,-16.5,-2741.7,255.6,513.3,750.6,49.5,-136.2,-31.8,-217.5,-6.3,-4.5,682.5,-1449.0,-2.1,137.4,-90.9,201.6,0,912,0,133,0,
0.5100,12.3,153.9,261.0,131.7,252.6,-56.1,28.5,-15.0,-2741.7,247.5,512.4,739.8,50.1,-125.4,-13.8,-213.0,-6.0,-4.5,681.6,-1456.8,-2.1,134.7,-89.7,193.5,0,918,0,134,0,
0.5133,12.6,155.1,256.8,126.9,244.8,-60.6,33.3,-16.8,-2815.8,254.4,504.6,726.0,52.8,-124.2,-15.0,-208.5,-6.6,-4.5,676.2,-1470.9,-1.8,123.9,-78.3,183.3,0,924,0,135,0,
0.5167,10.5,152.4,258.0,128.7,248.4,-54.6,37.5,-17.1,-2815.8,252.6,505.8,730.8,50.4,-129.0,-33.3,-202.5,-6.3,-4.5,677.7,-1465.8,-1.8,134.4,-72.9,185.7,0,930,0,136,0,
0.5200,14.7,154.2,255.0,131.4,252.0,-51.0,39.3,-16.8,-2815.8,258.0,505.8,740.1,42.6,-124.2,-27.3,-205.2,-6.6,-4.5,678.0,-1453.8,-1.8,138.6,-78.3,195.0,0,936,0,137,0,
0.5233,14.1,148.8,253.5,127.2,249.0,-55.2,35.4,-21.6,-2667.6,255.6,504.0,748.2,45.0,-122.7,-18.9,-202.2,-6.0,-4.5,671.7,-1451.4,-1.8,138.0,-89.4,196.8,0,942,0,138,0,
0.5267,6.9,141.9,243.0,119.1,239.7,-66.3,32.1,-28.8,-2667.6,245.1,487.8,731.1,45.9,-128.7,-38.7,-206.1,-6.3,-4.8,657.3,-1464.9,-1.8,126.3,-75.6,180.9,0,948,0,139,0,
0.5300,5.4,135.6,233.1,107.7,231.3,-72.0,28.5,-36.3,-2593.5,239.1,481.5,720.9,41.1,-128.4,-32.4,-206.4,-6.0,-4.2,652.8,-1474.5,-1.8,110.7,-87.3,173.1,0,954,0,140,0,
0.5333,0.6,128.7,227.1,102.0,218.4,-78.3,25.8,-40.5,-2593.5,229.8,475.8,711.3,41.1,-125.4,-19.8,-197.7,-6.3,-4.2,646.2,-1485.0,-1.8,96.3,-96.6,168.3,0,960,0,141,0,
0.5367,0.0,123.9,227.7,100.2,222.3,-75.3,29.1,-38.7,-2741.7,237.0,474.6,702.3,39.9,-136.8,-34.5,-206.1,-6.0,-4.5,647.4,-1488.6,-1.8,110.1,-91.2,169.8,0,966,0,142,0,
0.5400,-8.1,118.5,222.3,96.3,216.6,-84.6,23.4,-43.5,-2741.7,228.3,465.6,696.9,26.7,-138.6,-34.5,-212.4,-6.3,-4.5,642.0,-1499.1,-1.5,103.5,-100.8,164.1,0,972,0,143,0,
0.5433,-9.9,120.3,216.0,96.3,213.6,-83.4,25.2,-46.5,-2741.7,232.2,465.3,693.9,30.0,-141.9,-33.3,-210.9,-6.3,-4.8,637.8,-1497.6,-1.8,100.2,-104.7,168.6,0,978,0,144,0,
0.5467,-9.9,109.8,209.7,86.7,211.5,-88.2,22.2,-50.7,-2667.6,220.2,463.5,706.2,20.4,-141.6,-15.0,-193.8,-6.3,-4.5,631.5,-1488.3,-1.5,103.8,-106.5,162.6,0,984,0,145,0,
0.5500,-16.8,110.4,205.8,88.5,209.4,-91.5,24.3,-54.0,-2741.7,210.3,455.4,698.7,22.5,-152.7,-22.2,-192.3,-6.0,-4.5,623.4,-1492.2,-1.8,99.9,-90.0,158.7,0,990,0,146,0,
0.5533,-12.0,114.3,211.5,93.3,212.1,-85.5,28.5,-45.3,-2667.6,225.9,453.0,695.7,15.0,-144.3,-46.8,-211.5,-6.3,-4.2,624.0,-1491.9,-1.8,107.4,-87.0,170.1,0,996,0,147,0,
0.5567,-11.1,124.5,229.5,105.6,219.6,-76.5,28.8,-33.6,-2741.7,240.3,474.0,708.3,30.0,-141.3,-44.1,-218.1,-6.0,-4.5,647.1,-1479.9,-1.8,121.5,-94.8,174.6,0,1002,0,148,0,
0.5600,-5.1,132.0,242.4,118.8,229.8,-72.9,32.7,-30.6,-2667.6,248.7,490.8,713.7,38.7,-135.0,-28.2,-209.1,-6.0,-4.2,664.2,-1476.9,-1.8,122.1,-95.4,181.5,0,1008,0,149,0,
0.5633,-3.9,139.2,243.6,122.7,233.4,-69.6,31.2,-22.8,-2593.5,243.0,490.2,718.2,41.4,-142.2,-36.9,-204.3,-6.0,-4.8,667.8,-1473.9,-1.8,123.0,-99.3,186.0,0,1014,0,150,0,
0.5667,0.6,142.5,246.6,127.8,241.5,-62.1,35.7,-22.2,-2667.6,245.4,488.1,728.1,42.9,-140.4,-36.0,-205.8,-6.3,-5.1,664.8,-1463.7,-1.5,119.1,-87.6,181.8,0,1020,0,151,0,
0.5700,1.5,143.4,250.8,128.1,246.0,-58.5,33.0,-20.1,-2667.6,236.1,493.8,737.4,43.8,-138.0,-25.2,-214.5,-6.3,-4.2,668.1,-1455.6,-1.8,130.8,-97.8,189.3,0,1026,0,152,0,
0.5733,3.9,145.8,246.0,129.0,247.5,-55.2,36.0,-16.5,-2667.6,246.0,482.1,726.6,40.5,-140.7,-34.8,-210.3,-6.3,-4.5,652.2,-1458.6,-1.5,133.2,-89.4,191.4,0,1032,0,153,0,
0.5767,2.4,141.9,241.5,123.9,242.1,-62.4,34.8,-16.2,-2667.6,228.9,474.9,715.8,36.0,-147.9,-33.0,-202.8,-6.0,-4.5,649.5,-1466.4,-1.5,115.8,-84.9,182.1,0,1038,0,154,0,
0.5800,3.6,150.6,251.4,129.0,245.1,-57.6,31.2,-20.4,-2519.4,249.3,491.7,724.8,45.0,-146.1,-34.8,-225.3,-6.0,-4.8,667.5,-1461.3,-1.8,127.2,-97.2,187.2,0,1044,0,155,0,
0.5833,5.7,155.7,262.2,137.1,252.3,-60.0,27.6,-13.2,-2667.6,253.5,509.4,735.0,51.9,-145.5,-49.8,-241.8,-6.6,-4.5,684.9,-1457.1,-1.8,126.6,-103.5,184.5,0,1050,0,156,0,
0.5867,6.3,154.5,260.4,134.1,250.5,-61.2,26.1,-14.1,-2815.8,244.2,502.2,731.7,49.2,-144.6,-36.3,-229.5,-6.6,-4.8,679.2,-1458.3,-1.8,123.3,-112.2,183.9,0,1056,0,157,0,
0.5900,8.4,158.1,262.8,138.3,253.2,-60.9,33.0,-6.9,-2593.5,256.5,504.6,732.9,47.1,-146.4,-51.6,-222.6,-6.3,-4.5,682.2,-1456.2,-1.8,130.5,-101.4,185.4,0,1062,0,158,0,
0.5933,14.7,170.1,274.2,147.6,258.0,-56.1,32.4,-1.2,-2593.5,264.3,514.2,739.2,61.8,-145.2,-69.9,-238.8,-6.3,-4.8,697.5,-1452.9,-1.8,132.9,-101.4,186.3,0,1068,0,159,0,
0.5967,14.1,165.3,270.9,143.4,252.6,-61.8,26.7,-3.0,-2667.6,260.1,508.5,731.1,55.5,-139.8,-54.9,-228.6,-6.3,-4.5,690.0,-1461.6,-1.5,119.4,-109.5,174.0,0,1074,0,160,0,
0.6000,13.2,165.6,263.1,137.7,243.3,-65.7,24.0,-7.8,-2519.4,253.5,499.2,715.2,55.2,-141.9,-51.3,-234.0,-6.6,-4.5,682.8,-1473.6,-1.5,108.9,-105.3,167.1,0,1080,0,161,0,
0.6033,12.3,164.4,267.3,141.3,246.6,-63.0,22.2,-4.5,-2593.5,257.7,504.6,722.1,54.9,-143.7,-61.5,-252.9,-6.0,-4.5,689.1,-1466.7,-2.1,124.5,-112.5,173.4,0,1086,0,162,0,
0.6067,15.6,165.3,265.5,143.4,252.9,-57.6,27.6,-3.3,-2519.4,258.3,510.3,734.7,52.8,-143.1,-48.0,-237.3,-6.3,-4.5,690.3,-1455.9,-1.8,126.9,-113.1,175.5,0,1092,0,163,0,
0.6100,12.0,162.3,263.7,136.8,248.1,-59.4,28.8,-8.1,-2519.4,251.1,513.3,743.7,50.4,-134.1,-30.0,-222.0,-6.3,-4.5,689.1,-1452.3,-1.8,121.8,-96.6,171.3,0,1098,0,164,0,
0.6133,13.2,162.9,263.4,136.8,246.3,-60.9,32.1,-11.4,-2593.5,258.6,512.1,741.9,54.0,-135.6,-35.1,-221.4,-6.0,-4.8,688.8,-1455.6,-1.8,122.7,-95.7,176.4,0,1104,0,165,0,
0.6167,9.9,154.2,258.6,137.4,247.2,-63.0,27.3,-14.1,-2593.5,254.1,504.3,736.2,54.0,-134.1,-36.9,-226.2,-6.3,-4.5,681.3,-1459.2,-1.8,123.9,-104.1,179.7,0,1110,0,166,0,
0.6200,5.4,149.4,253.2,130.5,246.0,-63.3,28.2,-14.4,-2741.7,249.9,493.8,725.4,45.9,-147.9,-50.1,-221.1,-6.6,-4.5,675.3,-1462.8,-1.5,131.1,-109.8,183.3,0,1116,0,167,0,
0.6233,5.1,149.4,252.0,129.0,243.3,-63.9,32.1,-14.7,-2519.4,252.3,492.3,726.0,43.5,-148.2,-43.2,-208.2,-6.0,-5.1,674.4,-1464.6,-1.8,117.6,-90.9,168.3,0,1122,0,168,0,
0.6267,3.3,148.8,254.7,130.5,243.0,-65.1,34.2,-14.7,-2593.5,250.8,494.1,727.5,38.4,-154.2,-53.7,-215.7,-6.3,-4.5,675.9,-1462.2,-1.8,121.8,-83.1,168.6,0,1128,0,169,0,
0.6300,0.0,146.4,250.2,128.4,239.4,-68.4,34.5,-15.3,-2741.7,249.9,494.1,723.3,30.6,-159.6,-61.5,-203.7,-6.3,-4.8,675.3,-1465.8,-1.5,124.2,-81.6,168.6,0,1134,0,170,0,
0.6333,0.3,139.8,248.1,124.2,234.9,-73.5,35.7,-19.5,-2741.7,249.3,489.3,716.4,31.5,-158.1,-52.2,-210.0,-6.0,-4.5,673.2,-1473.9,-1.2,119.4,-90.0,164.7,0,1140,0,171,0,
0.6367,-0.3,137.1,240.6,121.8,233.1,-72.9,35.7,-21.0,-2593.5,240.6,485.4,708.0,35.1,-155.1,-46.8,-215.1,-6.3,-4.8,667.5,-1473.0,-1.5,120.0,-93.9,167.1,0,1146,0,172,0,
0.6400,-6.6,127.8,237.3,117.6,226.8,-80.1,32.4,-27.6,-2593.5,245.1,480.6,708.0,25.8,-168.6,-58.2,-214.2,-6.3,-4.5,667.2,-1476.3,-1.8,123.0,-97.2,172.2,0,1152,0,173,0,
0.6433,-7.2,130.8,237.0,114.6,228.9,-78.6,36.3,-28.8,-2593.5,249.3,486.9,711.0,27.0,-167.1,-60.9,-212.4,-6.3,-4.2,670.5,-1473.9,-1.8,116.7,-90.0,170.1,0,1158,0,174,0,
0.6467,-15.0,126.6,232.2,112.8,226.8,-78.6,30.9,-31.5,-2741.7,242.4,485.4,709.8,16.5,-169.2,-69.6,-222.0,-6.0,-4.5,666.6,-1477.5,-1.5,118.2,-96.3,167.7,0,1164,0,175,0,
0.6500,-13.5,124.5,227.1,109.5,223.8,-81.3,31.8,-30.9,-2741.7,234.9,477.6,703.8,15.9,-165.0,-60.9,-209.1,-6.3,-4.5,657.3,-1481.4,-1.8,112.5,-93.0,166.5,0,1170,0,176,0,
0.6533,-14.7,125.7,230.4,108.6,227.4,-78.0,30.9,-29.7,-2667.6,243.3,477.6,704.1,21.6,-166.5,-63.9,-215.1,-6.0,-4.5,661.8,-1476.3,-1.8,115.8,-98.4,167.4,0,1176,0,177,0,
0.6567,-13.5,124.5,229.5,104.1,224.1,-83.4,28.8,-33.9,-2593.5,240.9,471.6,700.2,21.3,-157.8,-51.6,-208.5,-6.3,-4.8,656.1,-1482.9,-1.8,112.5,-104.4,170.7,0,1182,0,178,0,
0.6600,-7.2,127.5,232.2,112.8,228.0,-81.3,34.5,-27.9,-2667.6,240.6,472.5,702.3,24.9,-154.2,-48.9,-209.4,-6.3,-4.5,659.1,-1473.9,-1.5,125.7,-97.2,177.9,0,1188,0,179,0,
0.6633,-11.7,129.3,233.7,112.2,230.4,-81.9,32.7,-30.3,-2593.5,247.5,479.7,708.0,27.6,-155.4,-56.7,-209.4,-6.0,-4.2,663.6,-1474.5,-1.8,117.6,-100.2,171.6,0,1194,0,180,0,
0.6667,-4.8,136.5,243.9,121.5,239.1,-75.0,33.6,-27.0,-2593.5,252.3,490.5,721.5,32.7,-141.9,-43.8,-217.8,-6.0,-4.5,672.9,-1464.3,-1.8,125.4,-97.8,180.6,0,1200,0,181,0,
0.6700,-5.7,142.2,242.1,120.3,239.4,-71.4,27.3,-26.4,-2593.5,259.5,490.8,716.1,34.8,-137.4,-39.3,-226.8,-6.6,-4.8,673.2,-1467.0,-1.5,129.6,-105.9,174.3,0,1206,0,182,0,
0.6733,2.1,143.4,244.5,120.6,240.3,-72.3,28.2,-24.9,-2741.7,256.8,489.3,716.7,40.2,-133.5,-33.6,-222.3,-6.3,-4.5,674.7,-1466.7,-1.8,130.8,-98.4,174.0,0,1212,0,183,0,
0.6767,4.2,144.3,246.9,119.7,234.9,-70.8,32.1,-21.6,-2667.6,261.9,490.8,711.6,40.8,-133.8,-46.8,-221.4,-6.3,-4.5,679.8,-1468.5,-1.8,122.7,-89.7,179.4,0,1218,0,184,0,
0.6800,3.0,144.9,245.7,121.2,239.7,-64.8,32.7,-20.7,-2667.6,257.4,490.5,714.6,44.1,-129.6,-42.9,-224.7,-6.0,-4.8,672.3,-1461.9,-2.1,137.1,-92.1,188.7,0,1224,0,185,0,
0.6833,-1.5,140.1,241.2,115.2,234.0,-66.9,31.2,-26.7,-2667.6,251.1,481.8,712.8,34.2,-131.7,-28.8,-217.2,-6.3,-4.5,666.0,-1465.5,-1.5,136.8,-96.6,191.1,0,1230,0,186,0,
0.6867,4.2,138.3,242.7,114.3,237.3,-66.9,36.0,-25.8,-2741.7,245.1,488.7,719.4,34.5,-125.4,-14.1,-207.6,-6.3,-4.8,667.5,-1461.9,-1.8,127.8,-86.1,181.5,0,1236,0,187,0,
0.6900,4.2,146.1,250.8,122.4,243.6,-62.1,33.6,-19.8,-2519.4,258.0,492.0,721.8,47.4,-129.9,-35.7,-226.8,-6.6,-4.8,675.6,-1458.6,-2.1,129.9,-91.5,189.3,0,1242,0,188,0,
0.6933,3.0,147.6,251.4,126.0,243.0,-60.3,38.4,-17.4,-2593.5,260.7,501.3,731.1,41.4,-132.6,-39.9,-221.1,-6.3,-4.5,681.0,-1453.5,-1.8,144.0,-86.7,195.3,0,1248,0,189,0,
0.6967,3.3,149.1,256.2,130.2,249.6,-54.0,40.5,-15.6,-2593.5,267.9,509.4,737.4,40.8,-131.1,-51.6,-204.0,-6.3,-4.2,689.7,-1444.8,-1.5,146.7,-86.1,199.2,0,1254,0,190,0,
0.7000,-0.3,144.3,247.2,122.7,242.4,-58.8,40.5,-18.3,-2667.6,264.0,500.4,724.8,42.9,-135.0,-32.1,-196.5,-6.0,-4.5,682.2,-1455.9,-2.1,138.6,-86.7,185.7,0,1260,0,191,0,
0.7033,3.9,149.1,247.2,125.1,240.9,-60.0,43.2,-14.7,-2667.6,261.9,494.4,712.2,51.3,-126.6,-31.2,-209.1,-6.0,-4.5,680.4,-1466.1,-2.1,129.9,-85.5,190.8,0,1266,0,192,0,
0.7067,6.9,147.9,245.1,123.9,240.9,-60.9,43.2,-15.3,-2667.6,263.4,493.5,710.7,53.4,-123.6,-13.5,-203.1,-6.0,-4.5,678.9,-1465.2,-2.1,142.2,-89.7,197.1,0,1272,0,193,0,
0.7100,11.1,157.5,254.1,132.9,249.9,-53.1,46.5,-9.6,-2445.3,264.3,507.0,733.2,56.4,-115.5,-14.1,-211.2,-6.3,-4.5,690.6,-1448.7,-1.5,140.4,-84.3,197.7,0,1278,0,194,0,
0.7133,9.0,157.2,254.1,132.9,250.2,-51.6,48.0,-11.4,-2667.6,278.4,504.3,742.5,56.1,-120.3,-30.0,-209.7,-6.3,-4.8,687.3,-1439.7,-1.8,142.8,-80.4,198.9,0,1284,0,195,0,
0.7167,10.8,154.2,248.1,131.7,250.8,-50.7,48.0,-9.9,-2593.5,266.4,496.8,737.1,53.4,-124.2,-27.6,-208.8,-6.3,-4.5,676.2,-1441.5,-1.5,151.8,-90.0,198.3,0,1290,0,196,0,
0.7200,7.5,147.6,245.4,125.7,241.5,-58.8,44.4,-13.5,-2741.7,268.8,488.7,723.6,48.9,-123.9,-23.7,-196.5,-6.3,-4.2,669.9,-1452.6,-1.8,135.6,-89.1,186.3,0,1296,0,197,0,
0.7233,12.0,151.5,252.9,127.5,246.0,-57.3,45.0,-10.5,-2593.5,264.3,501.3,734.4,46.2,-120.3,-25.8,-204.3,-6.3,-4.5,680.7,-1448.4,-1.5,136.8,-96.6,181.8,0,1302,0,198,0,
0.7267,7.8,147.9,252.9,125.4,242.1,-63.9,41.7,-14.1,-2667.6,268.2,501.6,729.0,48.6,-120.0,-27.0,-212.1,-6.3,-4.5,682.5,-1456.8,-2.1,135.9,-95.7,181.2,0,1308,0,199,0,
0.7300,12.9,154.5,260.4,127.5,239.1,-66.6,41.4,-11.4,-2593.5,267.9,504.3,717.0,52.8,-123.0,-26.1,-214.2,-6.0,-4.2,690.0,-1464.3,-1.5,134.1,-101.4,178.5,0,1314,0,200,0,
0.7333,9.3,151.5,251.7,122.4,240.0,-68.1,38.7,-14.1,-2667.6,264.3,496.8,713.4,47.7,-130.8,-45.6,-226.2,-6.3,-4.5,682.8,-1464.6,-1.8,132.9,-106.5,177.3,0,1320,0,201,0,
0.7367,9.0,151.5,256.8,126.3,239.7,-68.7,34.8,-10.5,-2593.5,264.0,504.6,723.9,51.9,-131.1,-42.6,-227.7,-6.3,-4.2,686.7,-1456.8,-1.8,128.7,-116.1,171.0,0,1326,0,202,0,
0.7400,6.6,149.7,249.3,119.4,235.2,-74.4,30.9,-17.4,-2593.5,258.9,494.7,723.9,40.8,-130.8,-40.5,-232.2,-6.0,-4.2,673.5,-1461.3,-2.1,130.5,-124.2,171.6,0,1332,0,203,0,
0.7433,4.8,146.4,242.1,117.6,228.3,-75.3,27.6,-18.6,-2593.5,252.6,479.1,707.7,33.9,-134.1,-39.3,-228.9,-6.0,-4.5,663.3,-1469.1,-1.5,115.2,-132.0,167.7,0,1338,0,204,0,
0.7467,8.7,142.8,237.0,109.5,219.0,-77.7,29.7,-18.3,-2519.4,242.7,475.2,695.7,40.2,-137.1,-54.6,-246.0,-6.3,-4.5,659.1,-1481.4,-1.8,109.8,-127.5,152.7,0,1344,0,205,0,
0.7500,1.8,137.7,231.9,105.3,212.4,-83.4,23.7,-26.4,-2519.4,234.9,471.9,690.0,28.2,-145.5,-50.1,-242.4,-6.3,-4.5,653.4,-1485.3,-1.8,100.5,-132.9,150.9,0,1350,0,206,0,
0.7533,0.9,133.8,224.1,101.4,209.7,-85.2,19.2,-32.7,-2593.5,234.9,468.0,692.4,23.1,-148.2,-58.5,-241.5,-6.3,-4.5,652.2,-1482.9,-1.8,108.9,-130.5,157.2,0,1356,0,207,0,
0.7567,-1.2,129.3,224.7,100.8,212.7,-87.3,18.6,-35.4,-2593.5,238.5,467.1,705.6,26.4,-147.9,-54.3,-243.3,-6.0,-4.5,648.9,-1474.2,-2.1,104.4,-137.1,151.5,0,1362,0,208,0,
0.7600,-3.3,125.1,218.7,98.1,215.1,-87.3,18.3,-36.0,-2593.5,231.3,455.7,695.4,18.0,-145.8,-47.4,-237.9,-6.3,-4.5,636.9,-1476.0,-1.8,104.1,-136.2,150.9,0,1368,0,209,0,
0.7633,-5.4,122.7,213.6,95.4,210.0,-87.6,21.0,-35.7,-2593.5,224.1,444.9,686.4,24.0,-152.4,-35.1,-236.1,-6.3,-4.2,626.7,-1483.8,-1.8,111.6,-151.5,162.6,0,1374,0,210,0,
0.7667,-4.5,119.7,213.3,97.2,212.7,-87.9,26.1,-35.1,-2593.5,220.2,450.0,686.7,10.5,-145.2,-28.5,-226.2,-6.6,-4.5,628.5,-1481.1,-2.1,103.2,-126.0,147.9,0,1380,0,211,0,
0.7700,-5.7,126.9,228.3,108.3,226.2,-77.4,28.5,-29.4,-2519.4,238.8,474.9,706.5,15.9,-154.8,-62.4,-231.9,-6.3,-4.5,653.7,-1467.0,-1.5,110.1,-116.7,157.8,0,1386,0,212,0,
0.7733,-6.3,127.2,228.6,106.2,227.1,-75.9,25.5,-33.0,-2593.5,228.6,479.7,706.8,16.8,-159.6,-59.7,-233.7,-6.3,-4.2,658.5,-1466.7,-1.5,111.0,-126.0,166.8,0,1392,0,213,0,
0.7767,-1.5,130.2,233.7,108.6,231.9,-73.8,29.7,-30.3,-2519.4,244.2,472.8,706.8,23.7,-158.1,-56.4,-235.5,-6.3,-4.2,654.9,-1467.6,-1.8,107.7,-124.2,163.8,0,1398,0,214,0,
0.7800,-0.6,136.2,235.8,113.7,234.9,-69.0,28.5,-23.4,-2593.5,237.9,474.0,710.4,22.5,-152.7,-53.4,-237.0,-6.3,-4.8,654.9,-1462.8,-2.1,113.1,-125.7,169.8,0,1404,0,215,0,
0.7833,-0.9,134.1,237.0,112.5,237.9,-67.8,29.7,-28.5,-2519.4,237.3,477.0,710.1,22.8,-148.5,-46.8,-235.2,-6.3,-4.5,655.2,-1462.8,-1.8,119.4,-121.8,169.5,0,1410,0,216,0,
0.7867,2.4,141.3,245.1,124.2,246.9,-62.1,30.3,-23.1,-2667.6,242.4,491.4,720.3,33.6,-139.8,-33.6,-226.2,-5.7,-4.5,673.2,-1452.3,-1.8,124.2,-117.3,177.6,0,1416,0,217,0,
0.7900,5.1,148.2,249.6,128.1,248.1,-57.0,34.5,-19.2,-2445.3,258.3,499.5,725.1,35.7,-138.3,-44.4,-228.6,-6.3,-4.5,680.7,-1446.3,-1.8,141.9,-117.9,182.4,0,1422,0,218,0,
0.7933,6.0,146.4,248.7,126.6,242.7,-59.1,33.9,-17.1,-2593.5,251.1,492.0,718.2,33.0,-136.2,-32.7,-222.6,-6.0,-4.5,677.7,-1454.1,-1.8,132.3,-107.7,181.2,0,1428,0,219,0,
0.7967,7.2,143.4,244.2,125.4,241.5,-63.0,37.8,-19.5,-2519.4,246.0,483.9,707.1,33.9,-133.2,-29.4,-220.2,-6.6,-4.2,669.0,-1464.3,-1.8,122.4,-99.6,180.0,0,1434,0,220,0,
0.8000,6.6,149.7,246.3,126.9,241.5,-58.2,39.6,-16.2,-2445.3,252.3,487.5,712.8,44.1,-123.3,-19.5,-216.6,-6.0,-4.8,672.6,-1457.4,-1.8,136.2,-99.6,180.9,0,1440,0,221,0,
0.8033,11.1,151.2,250.2,127.8,244.8,-56.1,38.7,-16.2,-2371.2,252.9,491.1,722.4,47.7,-117.0,-12.3,-213.3,-6.6,-4.5,677.1,-1448.4,-2.1,125.4,-105.9,172.2,0,1446,0,222,0,
0.8067,11.1,152.4,251.4,129.9,248.4,-48.3,36.0,-12.0,-2519.4,261.9,501.6,730.8,47.4,-121.2,-18.6,-205.5,-6.3,-4.5,678.6,-1440.3,-1.5,148.2,-105.6,188.1,0,1452,0,223,0,
0.8100,13.5,150.3,248.1,126.9,244.8,-52.2,39.0,-13.2,-2445.3,258.3,485.4,723.3,50.4,-114.0,-12.9,-213.0,-6.0,-4.5,668.7,-1446.0,-2.1,139.5,-105.0,188.7,0,1458,0,224,0,
0.8133,15.0,155.1,252.0,128.4,244.5,-52.8,36.3,-8.7,-2519.4,257.4,483.0,718.2,47.7,-111.3,-10.5,-209.1,-6.3,-4.5,669.9,-1449.3,-2.1,136.5,-94.5,189.9,0,1464,0,225,0,
0.8167,18.3,159.9,258.0,133.5,248.7,-55.8,34.2,-7.2,-2519.4,269.7,496.5,726.0,58.2,-102.9,-15.6,-214.8,-5.7,-4.8,684.9,-1444.5,-2.1,139.5,-102.0,188.1,0,1470,0,226,0,
0.8200,17.7,166.5,266.4,138.6,258.3,-48.6,38.4,-3.6,-2593.5,281.7,515.1,737.7,67.5,-100.5,-21.6,-216.9,-6.0,-4.5,701.4,-1436.7,-2.1,150.6,-98.1,195.9,0,1476,0,227,0,
0.8233,16.2,163.2,264.3,136.8,251.1,-54.3,36.6,-6.0,-2519.4,269.4,508.5,731.1,60.9,-106.5,-11.1,-204.0,-6.0,-4.8,696.0,-1442.1,-1.8,151.2,-105.6,192.9,0,1482,0,228,0,
0.8267,18.6,166.2,267.9,141.6,255.0,-49.8,32.4,-2.4,-2445.3,273.0,510.0,730.8,60.6,-105.3,-24.3,-226.2,-6.6,-4.8,697.2,-1441.5,-2.1,155.4,-109.8,204.3,0,1488,0,229,0,
0.8300,14.4,162.0,262.8,134.1,248.7,-54.0,35.1,-6.3,-2519.4,267.3,495.6,718.2,60.6,-108.3,-23.7,-225.9,-6.3,-4.5,684.3,-1447.5,-1.2,133.5,-104.1,188.4,0,1494,0,230,0,
0.8333,16.5,159.6,260.4,134.7,248.1,-58.5,35.7,-7.8,-2519.4,267.3,495.0,727.8,51.3,-107.7,-24.3,-230.1,-6.0,-4.2,679.8,-1444.2,-1.8,132.6,-93.9,179.7,0,1500,0,231,0,
0.8367,14.4,157.2,262.5,136.2,248.7,-57.0,31.5,-3.3,-2519.4,261.6,490.8,723.3,50.4,-107.1,-29.1,-238.2,-6.3,-4.2,678.9,-1444.5,-1.8,126.3,-107.7,172.8,0,1506,0,232,0,
0.8400,10.2,157.8,263.1,134.1,246.6,-60.9,29.1,-1.5,-2445.3,260.4,492.9,720.6,47.1,-113.1,-33.6,-242.1,-6.0,-4.8,675.3,-1449.0,-2.1,130.8,-113.4,177.3,0,1512,0,233,0,
0.8433,10.8,150.6,254.7,124.8,234.6,-72.3,28.8,-3.6,-2445.3,250.5,478.2,705.6,43.5,-112.2,-21.9,-234.6,-6.6,-4.5,664.5,-1462.8,-1.5,113.7,-119.7,168.9,0,1518,0,234,0,
0.8467,8.4,152.1,252.6,127.5,234.9,-69.9,27.3,-7.8,-2445.3,249.0,478.5,704.4,44.7,-119.1,-39.3,-246.0,-6.3,-5.1,664.5,-1461.3,-1.8,117.0,-119.7,168.9,0,1524,0,235,0,
0.8500,6.6,147.3,249.0,120.3,227.7,-71.7,30.0,-12.9,-2445.3,242.7,473.7,699.6,34.2,-120.9,-30.3,-233.1,-6.3,-4.2,660.3,-1463.7,-1.5,110.4,-118.8,164.4,0,1530,0,236,0,
0.8533,2.7,150.0,250.8,124.8,232.8,-64.2,30.0,-9.3,-2371.2,256.8,482.4,704.7,34.2,-129.6,-51.3,-242.7,-6.3,-4.8,666.6,-1458.0,-1.8,123.9,-110.4,173.4,0,1536,0,237,0,
0.8567,6.3,147.0,246.9,116.1,225.9,-66.9,32.7,-14.7,-2519.4,248.7,479.1,699.9,35.1,-127.8,-33.6,-228.9,-6.0,-4.5,660.9,-1463.4,-1.5,117.0,-102.3,175.5,0,1542,0,238,0,
0.8600,2.7,141.3,243.9,117.9,226.2,-69.3,30.3,-18.3,-2371.2,249.0,477.3,701.7,37.8,-133.8,-37.8,-223.8,-6.0,-4.5,663.0,-1461.6,-1.8,123.6,-100.8,176.4,0,1548,0,239,0,
0.8633,-0.3,140.7,243.9,118.2,228.6,-68.7,32.4,-18.3,-2519.4,250.8,479.7,703.8,38.1,-129.9,-39.0,-233.1,-6.3,-4.5,663.9,-1458.3,-1.5,125.4,-105.0,179.7,0,1554,0,240,0,
0.8667,-3.0,140.4,244.8,117.6,227.7,-67.8,33.6,-21.0,-2519.4,249.9,479.7,707.1,35.7,-138.3,-46.2,-225.9,-6.3,-4.8,660.3,-1457.1,-1.5,132.6,-102.6,182.1,0,1560,0,241,0,
0.8700,-5.1,135.0,235.8,104.1,218.1,-76.2,27.9,-30.0,-2593.5,247.5,473.1,699.0,30.3,-140.4,-35.7,-227.4,-6.3,-4.5,656.4,-1465.5,-1.5,117.6,-106.8,166.2,0,1566,0,242,0,
0.8733,-6.6,136.2,238.8,112.8,221.7,-70.5,33.6,-27.3,-2519.4,251.1,477.9,708.3,32.1,-142.2,-36.9,-219.0,-6.3,-4.8,663.3,-1457.7,-1.8,120.6,-102.9,171.3,0,1572,0,243,0,
0.8767,-5.4,144.0,244.5,116.1,228.3,-65.7,36.9,-21.3,-2519.4,258.3,487.2,715.2,37.5,-148.8,-58.8,-228.0,-6.3,-4.5,671.7,-1449.9,-1.5,133.2,-97.8,179.4,0,1578,0,244,0,
0.8800,-6.6,138.6,234.9,110.4,224.1,-68.7,35.7,-23.7,-2593.5,244.5,474.0,705.0,29.7,-147.6,-56.4,-222.9,-6.0,-4.2,657.3,-1456.5,-1.5,122.1,-98.7,176.7,0,1584,0,245,0,
0.8833,-3.0,139.2,235.5,108.9,225.0,-68.1,38.1,-21.3,-2519.4,247.5,468.9,702.0,32.1,-146.7,-52.2,-217.2,-6.0,-4.8,654.9,-1458.3,-1.5,127.8,-98.4,175.8,0,1590,0,246,0,
0.8867,2.7,145.5,246.9,117.6,229.2,-64.5,36.9,-17.4,-2445.3,252.3,478.8,701.4,42.3,-138.9,-49.5,-228.9,-6.3,-4.5,663.3,-1454.4,-1.5,127.5,-107.1,186.6,0,1596,0,247,0,
0.8900,4.5,151.2,254.1,121.5,234.6,-64.8,37.2,-15.9,-2519.4,262.2,493.8,711.9,43.5,-135.0,-39.0,-225.3,-6.3,-4.5,675.6,-1450.2,-1.5,134.4,-103.5,186.9,0,1602,0,248,0,
0.8933,8.1,148.2,251.7,120.9,231.0,-70.8,34.5,-15.9,-2445.3,257.4,487.2,706.2,42.6,-130.5,-26.1,-223.5,-6.3,-4.2,672.9,-1453.5,-1.5,124.2,-101.1,180.9,0,1608,0,249,0,
0.8967,9.9,156.3,255.3,123.3,230.1,-69.3,35.4,-19.5,-2519.4,264.0,494.1,711.0,59.7,-127.5,-32.1,-228.6,-6.0,-4.5,680.1,-1448.4,-1.5,136.5,-109.8,180.9,0,1614,0,250,0,
0.9000,10.5,150.0,243.9,110.7,219.6,-76.8,33.3,-29.4,-2593.5,248.7,487.8,703.2,41.4,-119.1,-15.6,-213.6,-6.0,-4.8,670.2,-1457.4,-1.5,120.6,-106.2,172.2,0,1620,0,251,0,
0.9033,6.6,150.0,244.8,112.2,216.0,-76.5,33.9,-27.9,-2667.6,257.7,484.5,699.0,47.4,-120.3,-18.3,-213.0,-6.6,-4.2,671.7,-1463.4,-1.5,126.0,-108.6,174.3,0,1626,0,252,0,
0.9067,9.6,153.6,248.1,114.6,219.6,-77.4,32.7,-29.4,-2667.6,261.3,484.2,692.4,53.4,-119.7,-24.0,-221.7,-6.3,-4.5,673.5,-1465.2,-1.8,124.5,-104.4,174.9,0,1632,0,253,0,
0.9100,10.8,152.7,247.8,111.3,217.8,-75.3,35.7,-27.9,-2519.4,254.7,480.0,682.8,51.3,-118.8,-24.9,-221.7,-6.3,-4.5,667.5,-1474.2,-1.5,116.4,-99.9,173.7,0,1638,0,254,0,
0.9133,12.6,154.8,253.5,118.5,227.7,-69.9,34.5,-25.2,-2519.4,258.6,483.9,695.7,54.6,-120.6,-28.5,-235.5,-6.0,-5.1,673.2,-1462.2,-1.8,136.2,-102.0,182.7,0,1644,0,255,0,
0.9167,10.2,156.3,251.1,118.8,226.5,-70.2,35.1,-25.8,-2667.6,261.6,487.5,707.7,52.2,-121.5,-26.4,-221.1,-6.3,-4.5,675.0,-1453.2,-1.8,133.8,-104.4,179.1,0,1650,0,0,0,
0.9200,9.6,152.7,250.5,117.9,224.4,-70.2,33.9,-25.5,-2667.6,254.7,484.2,710.4,47.7,-120.6,-15.6,-222.3,-6.0,-4.5,670.8,-1451.1,-2.1,132.3,-106.2,170.4,0,1656,0,1,0,
0.9233,8.4,155.1,250.2,117.3,221.4,-74.4,34.8,-25.2,-2667.6,249.6,477.9,699.0,51.9,-121.8,-19.5,-217.2,-6.3,-4.8,663.0,-1458.6,-2.1,122.4,-103.2,171.3,0,1662,0,2,0,
0.9267,10.5,160.5,252.9,122.4,229.2,-75.9,32.4,-18.9,-2741.7,250.8,481.2,699.9,56.4,-121.2,-20.7,-221.4,-6.3,-4.5,666.0,-1457.7,-1.8,119.4,-111.0,179.4,0,1668,0,3,0,
0.9300,12.3,161.4,255.6,122.7,227.1,-74.4,34.5,-21.3,-2667.6,258.9,483.6,705.3,60.6,-115.5,-9.9,-208.8,-6.3,-4.5,674.7,-1455.3,-1.8,130.5,-105.9,174.6,0,1674,0,4,0,
0.9333,7.8,158.7,254.4,121.2,222.6,-83.1,30.3,-26.7,-2741.7,254.7,492.0,699.6,60.0,-118.2,-6.6,-214.2,-6.3,-4.5,678.3,-1458.9,-2.1,121.5,-100.5,168.6,0,1680,0,5,0,
0.9367,8.7,162.6,255.6,123.6,219.9,-82.2,30.6,-24.6,-2741.7,257.1,496.5,700.5,64.2,-115.2,-12.0,-218.7,-6.0,-4.5,687.0,-1462.5,-1.5,111.9,-105.3,165.6,0,1686,0,6,0,
0.9400,15.6,163.5,252.0,123.6,221.1,-81.6,26.4,-23.4,-2889.9,267.9,490.8,700.5,58.8,-106.2,-8.4,-206.4,-6.0,-4.5,678.6,-1463.4,-1.8,122.7,-95.4,166.5,0,1692,0,7,0,
0.9433,21.3,168.0,256.2,124.5,225.9,-80.4,28.5,-24.9,-2815.8,261.0,490.2,706.8,64.8,-96.6,12.6,-204.6,-6.0,-4.2,683.1,-1454.1,-1.8,121.2,-90.6,164.1,0,1698,0,8,0,
0.9467,18.6,163.8,257.4,131.1,228.0,-79.5,29.7,-21.0,-2889.9,261.3,492.9,714.6,63.6,-104.7,-6.0,-208.2,-6.0,-4.5,681.0,-1447.8,-1.8,129.9,-95.4,169.2,0,1704,0,9,0,
0.9500,12.0,159.9,257.1,130.2,231.3,-77.1,25.5,-22.2,-2889.9,263.4,494.7,718.8,56.1,-119.1,-30.9,-218.4,-6.3,-4.2,681.3,-1442.4,-1.8,132.3,-96.6,174.9,0,1710,0,10,0,
0.9533,19.5,159.3,254.1,127.5,228.9,-77.1,27.3,-24.0,-2964.0,261.9,501.0,721.2,58.8,-108.6,-8.7,-212.4,-6.3,-4.8,681.9,-1444.2,-2.1,136.8,-90.0,172.2,0,1716,0,11,0,
0.9567,13.8,159.0,254.4,122.7,226.2,-75.6,25.5,-25.5,-2964.0,258.9,498.6,710.7,53.7,-114.0,-22.5,-213.3,-6.3,-4.5,689.1,-1449.9,-1.8,128.1,-95.7,165.9,0,1722,0,12,0,
0.9600,11.4,155.7,249.0,119.7,222.0,-77.1,30.3,-26.1,-2964.0,258.3,488.7,701.1,46.8,-123.0,-22.5,-203.7,-6.3,-4.5,675.6,-1456.2,-2.1,123.3,-90.6,164.1,0,1728,0,13,0,
0.9633,12.6,156.0,252.6,122.1,226.5,-72.0,33.9,-22.8,-2964.0,257.7,493.5,701.7,49.5,-123.3,-26.7,-215.4,-6.3,-4.5,680.7,-1454.4,-1.8,129.0,-84.9,179.1,0,1734,0,14,0,
0.9667,8.4,150.0,252.0,121.2,230.7,-66.0,39.6,-22.8,-2964.0,256.5,499.5,711.6,52.2,-132.0,-47.1,-209.1,-6.3,-4.5,679.8,-1445.7,-1.8,129.9,-74.7,191.4,0,1740,0,15,0,
0.9700,8.1,153.6,258.0,126.0,237.9,-59.7,38.7,-18.6,-3038.1,264.3,509.1,727.5,54.0,-135.9,-59.4,-223.8,-6.0,-4.2,689.7,-1431.0,-1.8,146.4,-84.0,195.3,0,1746,0,16,0,
0.9733,6.0,148.2,249.3,114.9,230.4,-63.3,31.5,-25.2,-2964.0,253.5,492.3,715.5,46.5,-135.3,-42.9,-220.5,-6.3,-4.5,671.1,-1440.6,-1.2,135.9,-90.3,189.6,0,1752,0,17,0,
0.9767,3.6,145.2,239.1,112.2,227.4,-68.7,30.3,-27.9,-2964.0,247.2,478.2,702.6,40.8,-135.6,-38.4,-223.8,-6.0,-4.5,662.1,-1450.5,-1.5,126.0,-86.4,183.3,0,1758,0,18,0,
0.9800,1.5,151.5,244.5,115.8,232.5,-63.0,31.5,-26.4,-3038.1,253.8,488.7,708.6,45.9,-142.5,-48.0,-217.5,-6.3,-4.5,670.5,-1443.9,-1.8,131.4,-72.0,185.4,0,1764,0,19,0,
0.9833,0.3,150.3,248.7,118.2,233.7,-65.7,31.2,-30.3,-2964.0,248.1,502.2,717.9,47.7,-141.3,-40.5,-211.2,-6.0,-4.5,682.5,-1443.0,-1.5,130.5,-79.5,186.3,0,1770,0,20,0,
0.9867,2.7,148.5,247.2,116.7,232.2,-68.7,32.4,-29.4,-2889.9,254.4,504.9,715.5,48.3,-144.3,-38.7,-207.9,-6.3,-4.5,686.1,-1439.1,-1.8,132.0,-84.6,182.1,0,1776,0,21,0,
0.9900,-2.4,148.8,251.7,124.2,232.8,-64.8,32.4,-26.7,-3186.3,258.3,506.1,718.2,49.5,-145.5,-47.7,-223.8,-6.0,-4.5,688.8,-1439.4,-1.8,133.8,-90.9,187.5,0,1782,0,22,0,
0.9933,-0.3,148.2,252.0,120.6,229.5,-66.0,26.7,-27.6,-3038.1,255.0,504.0,709.2,46.5,-142.2,-32.4,-222.3,-6.3,-4.5,687.9,-1449.3,-1.8,135.9,-98.4,186.0,0,1788,0,23,0,
0.9967,1.5,154.2,257.1,129.9,238.5,-60.6,31.2,-23.4,-3038.1,265.2,508.2,716.4,43.2,-141.3,-41.1,-221.4,-6.0,-4.8,693.6,-1440.3,-1.8,148.5,-86.1,193.5,0,1794,0,24,0,
1.0000,-1.5,147.0,250.8,122.7,237.3,-59.7,31.2,-28.8,-2964.0,259.5,492.0,715.8,44.7,-144.0,-41.4,-226.8,-6.3,-4.8,678.3,-1434.9,-2.1,141.3,-84.3,183.6,0,1800,0,25,0,
1.0033,-1.5,144.6,243.6,123.0,239.1,-55.2,31.2,-24.9,-3112.2,250.8,484.5,721.2,43.5,-142.5,-37.5,-229.2,-6.3,-4.2,668.7,-1432.5,-2.1,141.9,-91.8,195.9,0,1806,0,26,0,
1.0067,0.3,143.4,239.7,117.0,232.5,-61.5,30.0,-30.3,-3112.2,249.3,486.0,713.1,44.7,-139.2,-20.4,-223.8,-6.3,-4.5,672.3,-1438.8,-1.8,131.1,-96.6,194.4,0,1812,0,27,0,
1.0100,0.0,150.9,252.6,126.3,239.7,-54.3,33.9,-25.8,-3112.2,267.0,512.4,726.0,49.5,-142.5,-34.2,-218.4,-6.6,-4.5,695.4,-1429.8,-1.8,146.7,-89.1,203.7,0,1818,0,28,0,
1.0133,-3.3,155.1,262.8,129.3,245.7,-48.0,39.3,-19.8,-3186.3,275.1,525.0,735.3,57.0,-144.3,-30.6,-201.9,-6.0,-4.5,709.8,-1417.2,-1.8,145.8,-84.3,206.4,0,1824,0,29,0,
1.0167,-2.7,153.0,255.9,132.9,247.2,-42.6,39.0,-20.1,-3112.2,261.0,519.0,737.4,50.1,-136.2,-38.1,-210.3,-6.3,-4.2,700.5,-1419.3,-1.8,156.9,-86.4,210.9,0,1830,0,30,0,
1.0200,-0.3,157.8,259.8,135.3,250.8,-44.1,42.0,-13.2,-3186.3,271.8,513.3,729.6,57.0,-128.7,-30.9,-214.5,-6.0,-4.8,700.5,-1427.1,-2.1,146.1,-83.1,198.6,0,1836,0,31,0,
1.0233,3.3,159.0,259.2,135.0,247.8,-44.1,39.6,-10.2,-3186.3,269.4,504.9,713.7,59.4,-125.1,-32.7,-225.3,-6.3,-4.5,695.1,-1433.1,-1.5,138.0,-89.1,205.2,0,1842,0,32,0,
1.0267,4.8,163.2,264.9,137.7,250.2,-39.3,43.2,-6.3,-3334.5,264.9,510.0,723.9,59.7,-132.6,-46.5,-224.1,-6.0,-4.5,700.5,-1425.6,-1.8,154.2,-90.0,212.7,0,1848,0,33,0,
1.0300,6.3,164.1,263.1,135.3,247.8,-44.4,42.6,-8.4,-3334.5,264.3,504.3,721.5,56.1,-124.2,-39.0,-216.9,-6.3,-4.5,690.9,-1431.6,-1.5,144.9,-78.3,205.5,0,1854,0,34,0,
1.0333,7.8,169.5,269.1,139.8,249.6,-46.5,45.9,-4.2,-3408.6,261.9,512.4,722.7,68.1,-132.0,-42.9,-223.5,-6.6,-4.5,699.3,-1430.4,-1.8,139.5,-79.8,200.4,0,1860,0,35,0,
1.0367,6.3,168.0,271.8,143.7,252.0,-46.5,39.6,-6.3,-3556.8,272.7,513.9,723.0,58.8,-116.1,-40.5,-246.0,-6.3,-4.5,699.3,-1428.6,-1.8,145.8,-99.3,199.2,0,1866,0,36,0,
1.0400,7.8,165.3,267.9,138.3,247.2,-51.3,38.7,-6.6,-3705.0,267.0,508.5,718.8,59.1,-120.0,-25.2,-231.9,-6.3,-4.8,699.0,-1437.3,-1.8,135.0,-86.4,183.0,0,1872,0,37,0,
1.0433,9.6,164.1,267.6,138.3,246.9,-53.4,38.7,-8.4,-3630.9,266.1,517.2,730.8,61.8,-120.9,-39.6,-239.1,-6.3,-4.5,703.5,-1427.4,-1.8,130.8,-90.0,186.9,0,1878,0,38,0,
1.0467,10.2,162.9,263.1,134.4,244.8,-57.6,38.1,-9.9,-3705.0,259.8,508.2,721.8,58.2,-120.3,-39.9,-234.9,-6.0,-4.5,697.5,-1434.9,-1.8,141.3,-85.2,188.7,0,1884,0,39,0,
1.0500,11.4,158.1,257.1,128.1,234.6,-63.3,42.9,-15.0,-3705.0,249.3,498.9,711.6,53.1,-114.9,-30.9,-225.3,-6.3,-4.2,685.2,-1439.7,-1.8,129.3,-80.7,183.6,0,1890,0,40,0,
1.0533,11.4,163.8,258.3,125.7,230.1,-64.8,40.2,-15.0,-3705.0,254.7,495.3,699.3,56.7,-115.8,-31.5,-218.4,-6.0,-4.5,680.7,-1450.2,-1.8,131.1,-74.7,180.0,0,1896,0,41,0,
1.0567,10.8,155.7,249.6,120.0,225.3,-69.9,41.1,-22.2,-3779.1,252.0,494.1,699.6,55.5,-109.8,-14.1,-207.9,-6.3,-4.5,677.7,-1453.5,-1.5,123.6,-68.4,174.9,0,1902,0,42,0,
1.0600,13.5,160.2,257.1,125.4,234.3,-61.5,42.9,-20.1,-3705.0,263.7,496.8,711.3,59.4,-106.8,-18.0,-210.6,-6.0,-4.5,683.4,-1439.1,-1.5,135.9,-65.1,189.3,0,1908,0,43,0,
1.0633,15.6,165.3,261.9,130.5,242.7,-57.3,43.2,-14.7,-3482.7,273.9,501.9,725.4,66.9,-102.0,-27.9,-209.7,-6.3,-4.5,686.7,-1423.2,-1.8,145.2,-60.0,199.8,0,1914,0,44,0,
1.0667,13.2,163.8,259.2,130.2,238.8,-59.7,42.0,-19.2,-3556.8,266.1,501.0,720.6,63.0,-105.0,-25.5,-197.7,-6.3,-4.8,683.7,-1427.7,-1.5,143.7,-56.1,193.8,0,1920,0,45,0,
1.0700,12.6,162.0,258.6,129.6,237.6,-61.5,43.2,-15.6,-3482.7,273.3,507.9,721.5,69.3,-108.9,-18.9,-195.6,-6.3,-4.2,689.7,-1425.9,-1.8,147.3,-53.4,195.6,0,1926,0,46,0,
1.0733,9.9,159.0,255.6,127.8,236.4,-62.1,43.8,-17.7,-3482.7,265.5,509.1,717.6,63.0,-116.1,-17.7,-186.3,-6.3,-4.5,687.6,-1433.1,-1.5,132.3,-48.9,189.6,0,1932,0,47,0,
1.0767,6.6,157.5,252.3,126.0,238.8,-60.0,44.1,-15.6,-3630.9,270.0,496.5,715.8,63.3,-117.3,-21.0,-193.8,-6.3,-4.5,679.5,-1432.2,-1.5,146.4,-60.3,202.8,0,1938,0,48,0,
1.0800,1.8,158.7,258.3,130.8,247.8,-52.2,45.6,-13.5,-3556.8,272.7,504.6,726.3,57.6,-126.0,-45.0,-192.3,-6.0,-4.5,687.6,-1421.7,-1.8,149.4,-49.2,205.2,0,1944,0,49,0,
1.0833,-0.3,149.4,250.8,124.8,238.8,-56.4,45.0,-20.4,-3556.8,263.7,498.9,723.0,55.2,-132.6,-40.8,-184.5,-6.3,-4.5,680.4,-1425.0,-1.8,147.3,-46.5,204.3,0,1950,0,50,0,
1.0867,-5.1,147.6,246.9,118.8,235.8,-63.9,37.2,-25.2,-3482.7,259.8,495.3,718.2,41.1,-140.7,-38.1,-194.4,-6.3,-4.2,674.4,-1430.4,-2.1,143.4,-60.6,196.5,0,1956,0,51,0,
1.0900,-3.9,147.3,246.9,124.5,234.0,-62.7,33.0,-24.6,-3482.7,258.6,495.9,716.4,42.9,-136.5,-25.8,-195.3,-6.0,-4.5,679.5,-1427.1,-1.8,146.4,-69.9,194.1,0,1962,0,52,0,
1.0933,-9.0,141.6,246.6,120.3,231.6,-63.0,30.9,-28.8,-3408.6,254.4,495.0,715.2,39.0,-145.8,-30.3,-193.2,-6.6,-4.5,678.6,-1434.9,-1.5,140.4,-75.9,194.7,0,1968,0,53,0,
1.0967,-9.0,144.9,249.9,125.1,238.2,-62.4,28.8,-26.7,-3112.2,254.4,495.6,715.8,39.6,-153.6,-41.7,-208.5,-6.3,-4.8,677.7,-1432.5,-1.8,134.4,-77.1,197.7,0,1974,0,54,0,
1.1000,-10.5,136.8,239.7,115.8,230.4,-69.6,21.0,-33.9,-3038.1,243.3,488.1,708.0,35.1,-152.1,-36.0,-209.1,-6.3,-4.5,669.6,-1441.2,-1.5,125.4,-86.7,185.7,0,1980,0,55,0,
1.1033,-6.3,141.9,243.3,120.0,232.8,-69.6,24.0,-26.7,-3186.3,251.1,487.5,706.2,42.0,-149.1,-32.7,-212.1,-6.0,-4.8,670.2,-1439.4,-1.8,127.8,-98.4,179.1,0,1986,0,56,0,
1.1067,-8.1,147.0,249.9,127.8,238.5,-65.1,24.9,-18.3,-3186.3,249.3,492.0,710.7,31.8,-165.3,-55.5,-221.7,-6.3,-4.5,676.5,-1437.3,-1.5,132.6,-107.1,187.8,0,1992,0,57,0,
1.1100,-8.1,144.6,246.9,125.7,235.8,-62.4,31.5,-19.5,-3112.2,237.9,484.2,705.6,28.8,-166.2,-43.8,-222.3,-6.0,-4.8,660.9,-1439.1,-1.5,131.7,-116.4,182.4,0,1998,0,58,0,
1.1133,-10.8,145.2,251.1,118.8,233.1,-65.4,28.8,-21.0,-3112.2,231.3,489.0,709.5,45.0,-172.8,-43.2,-218.1,-5.7,-4.5,672.3,-1438.2,-1.5,117.3,-108.0,173.1,0,2004,0,59,0,
1.1167,-9.0,150.3,258.6,130.5,239.7,-61.2,36.9,-16.5,-3038.1,249.6,505.8,719.1,44.1,-163.8,-44.1,-219.3,-6.3,-4.8,684.0,-1428.6,-1.8,126.3,-111.9,189.0,0,2010,0,60,0,
1.1200,-14.1,149.4,258.0,128.7,240.9,-57.3,35.1,-19.8,-3112.2,243.9,505.5,722.1,42.9,-163.8,-42.6,-222.3,-5.7,-4.2,686.4,-1428.3,-1.5,117.9,-116.4,183.0,0,2016,0,61,0,
1.1233,-6.9,152.1,256.2,127.8,237.6,-59.1,34.5,-15.3,-3038.1,242.1,499.8,710.1,45.9,-160.2,-31.8,-225.3,-6.3,-4.5,682.2,-1438.2,-1.5,113.7,-115.2,173.7,0,2022,0,62,0,
1.1267,-3.9,153.6,252.3,125.4,233.1,-60.6,33.3,-12.9,-3038.1,237.3,492.6,699.0,45.9,-152.1,-36.0,-240.3,-6.0,-4.8,675.9,-1450.2,-1.5,104.4,-127.8,165.9,0,2028,0,63,0,
1.1300,-5.7,157.8,257.1,131.4,238.2,-51.9,37.2,-9.0,-2964.0,246.3,494.7,701.4,50.7,-159.3,-67.2,-237.3,-6.6,-4.5,681.0,-1443.6,-1.5,117.0,-117.3,175.8,0,2034,0,64,0,
1.1333,-8.4,155.1,260.4,135.0,245.7,-51.3,38.4,-6.3,-2964.0,251.1,497.4,710.7,48.3,-159.3,-66.0,-242.7,-6.3,-4.8,682.2,-1435.5,-1.8,121.5,-113.4,180.6,0,2040,0,65,0,
1.1367,-1.8,156.9,260.7,137.1,250.8,-47.1,39.6,-5.7,-3112.2,244.8,495.9,722.7,45.3,-149.7,-49.5,-237.0,-6.0,-4.5,674.4,-1422.3,-2.1,115.5,-117.6,187.2,0,2046,0,66,0,
1.1400,0.3,164.4,259.2,138.0,243.9,-48.9,35.7,-2.1,-3112.2,253.8,496.2,714.9,52.5,-138.0,-49.8,-252.3,-6.0,-4.8,676.8,-1428.0,-1.8,118.5,-123.6,178.2,0,2052,0,67,0,
1.1433,6.6,171.9,274.8,150.0,254.7,-46.5,38.1,2.1,-3038.1,266.7,516.6,729.0,66.9,-136.2,-56.4,-250.5,-6.0,-4.2,700.2,-1417.8,-1.5,132.6,-122.7,192.6,0,2058,0,68,0,
1.1467,8.7,175.5,278.1,148.8,252.6,-48.6,40.2,1.2,-2964.0,266.7,526.8,732.3,70.2,-121.8,-37.5,-249.3,-6.3,-4.2,706.8,-1414.8,-1.5,136.2,-106.8,189.9,0,2064,0,69,0,
1.1500,11.4,175.5,271.5,141.9,246.0,-56.1,35.4,-1.5,-2889.9,269.4,516.0,713.7,73.2,-112.8,-32.7,-244.2,-6.0,-4.8,697.2,-1433.4,-1.8,129.9,-98.7,183.9,0,2070,0,70,0,
1.1533,10.5,174.6,266.1,135.9,238.5,-57.6,34.8,-6.6,-3112.2,266.7,504.6,696.3,71.7,-111.3,-27.9,-235.2,-6.3,-4.2,687.0,-1443.6,-1.8,128.4,-93.0,183.9,0,2076,0,71,0,
1.1567,11.1,176.1,270.3,137.7,241.8,-60.3,31.2,-5.1,-2964.0,274.2,508.5,707.4,71.7,-107.1,-29.7,-245.7,-6.3,-5.1,691.2,-1433.4,-1.8,138.0,-89.4,186.9,0,2082,0,72,0,
1.1600,12.6,176.1,270.3,138.3,247.2,-55.5,35.4,-8.1,-2889.9,273.9,512.7,722.1,72.9,-99.9,-25.2,-231.0,-6.0,-4.5,690.6,-1423.5,-1.8,146.7,-80.4,195.0,0,2088,0,73,0,
1.1633,12.3,179.7,275.1,138.6,247.5,-59.1,36.9,-11.1,-2889.9,276.3,519.6,724.2,74.1,-97.5,-24.6,-225.0,-6.0,-4.5,701.4,-1422.6,-1.5,140.7,-81.0,183.9,0,2094,0,74,0,
1.1667,15.3,177.9,270.9,135.6,243.6,-60.6,37.5,-12.6,-2889.9,284.4,516.9,722.4,75.0,-93.6,-20.4,-218.4,-6.3,-4.5,699.3,-1425.0,-1.5,144.6,-81.0,180.6,0,2100,0,75,0,
1.1700,12.3,176.4,272.1,136.2,248.1,-57.0,41.1,-14.4,-2815.8,283.2,517.2,729.0,81.0,-90.9,-14.1,-213.9,-6.3,-4.5,700.8,-1414.8,-2.1,149.7,-76.5,183.9,0,2106,0,76,0,
1.1733,12.0,172.8,265.8,133.2,246.6,-54.3,45.0,-15.6,-3112.2,282.9,508.8,729.3,73.5,-95.1,-23.4,-207.6,-5.7,-4.8,684.9,-1414.2,-1.5,152.7,-72.0,193.2,0,2112,0,77,0,
1.1767,7.8,171.0,264.6,130.2,242.1,-59.1,46.5,-14.1,-2889.9,278.4,500.7,716.1,67.2,-103.8,-35.7,-204.9,-6.0,-4.8,679.5,-1422.6,-2.1,153.0,-65.4,192.9,0,2118,0,78,0,
1.1800,11.4,166.2,262.5,129.6,240.0,-64.5,41.4,-18.3,-2964.0,278.7,503.7,720.3,65.4,-99.0,-17.4,-199.8,-6.0,-4.5,684.6,-1421.1,-1.5,150.9,-73.8,186.9,0,2124,0,79,0,
1.1833,11.7,169.5,268.5,132.9,239.4,-65.4,39.9,-19.2,-2741.7,280.2,516.3,724.2,68.7,-101.7,-23.1,-191.7,-6.6,-4.5,694.8,-1417.2,-2.1,141.0,-62.1,180.3,0,2130,0,80,0,
1.1867,6.6,158.7,258.6,123.6,230.7,-69.0,39.0,-24.9,-2964.0,271.8,499.8,707.1,56.7,-105.6,-12.3,-179.7,-6.3,-4.5,681.0,-1431.0,-1.8,137.1,-60.9,180.9,0,2136,0,81,0,
1.1900,6.9,159.9,258.9,121.8,231.6,-69.0,37.5,-24.0,-2964.0,275.4,499.8,709.5,58.5,-99.6,-6.0,-191.7,-6.6,-4.8,681.0,-1429.2,-1.8,140.7,-68.7,181.8,0,2142,0,82,0,
1.1933,6.0,159.0,255.9,125.4,235.2,-66.3,39.0,-24.6,-2889.9,267.0,497.7,715.5,54.6,-111.9,-8.4,-186.9,-6.0,-4.5,680.7,-1421.4,-1.5,155.1,-66.0,190.8,0,2148,0,83,0,
1.1967,3.0,156.0,259.8,125.7,236.4,-67.5,31.8,-25.8,-2889.9,275.4,504.3,719.4,59.4,-107.4,0.0,-200.1,-6.3,-4.5,685.5,-1417.2,-1.5,151.2,-71.4,183.9,0,2154,0,84,0,
1.2000,5.7,166.2,269.7,136.5,250.2,-59.7,37.5,-16.5,-2964.0,287.7,518.4,728.7,74.7,-114.0,-22.5,-198.6,-6.6,-4.8,697.5,-1408.5,-1.5,161.7,-69.6,192.9,0,2160,0,85,0,
1.2033,3.9,166.2,268.8,136.5,251.7,-57.0,41.4,-15.9,-2964.0,291.9,518.1,729.0,74.4,-115.5,-32.4,-196.8,-6.3,-4.5,697.2,-1407.3,-1.2,158.7,-69.3,196.8,0,2166,0,86,0,
1.2067,2.4,159.0,254.7,126.6,240.0,-61.8,33.9,-26.1,-2964.0,266.1,498.6,714.3,55.5,-114.0,10.2,-190.2,-6.3,-4.2,674.4,-1418.1,-1.8,139.8,-82.5,188.1,0,2172,0,87,0,
1.2100,4.2,162.3,262.5,135.3,253.2,-43.8,39.6,-15.3,-2964.0,274.2,503.7,731.4,60.9,-123.0,-18.6,-195.3,-6.3,-4.2,682.2,-1405.2,-1.8,155.4,-72.0,201.9,0,2178,0,88,0,
1.2133,-0.3,168.0,272.1,143.7,262.2,-39.6,50.4,-9.0,-2815.8,278.7,519.9,747.0,71.1,-132.9,-43.8,-190.2,-6.3,-4.8,690.6,-1391.1,-1.5,161.7,-65.4,209.4,0,2184,0,89,0,
1.2167,-4.5,167.7,272.7,147.3,264.6,-41.7,48.3,-11.7,-2964.0,278.4,528.0,745.5,72.6,-130.8,-30.3,-197.4,-6.6,-4.5,697.5,-1391.1,-1.5,163.8,-67.2,207.3,0,2190,0,90,0,
1.2200,-1.8,171.6,283.2,156.3,268.5,-37.2,49.2,-4.8,-2889.9,286.8,534.6,746.1,66.3,-138.0,-51.9,-212.7,-6.0,-4.5,706.8,-1389.3,-1.8,163.2,-67.5,218.7,0,2196,0,91,0,
1.2233,-2.4,171.0,284.7,157.5,272.7,-33.9,49.5,0.0,-2964.0,284.4,535.8,746.4,68.1,-135.6,-45.6,-215.7,-6.3,-4.8,703.8,-1388.4,-2.1,163.8,-66.6,216.9,0,2202,0,92,0,
1.2267,0.3,166.5,272.4,146.1,271.2,-35.4,48.0,-3.0,-2889.9,267.9,513.9,731.1,57.0,-138.6,-26.4,-206.4,-6.0,-4.8,684.0,-1398.0,-2.1,153.0,-68.7,207.6,0,2208,0,93,0,
1.2300,-1.8,169.5,280.5,151.8,278.1,-26.7,50.4,4.2,-2964.0,272.1,520.5,742.5,61.5,-147.0,-44.1,-208.2,-6.3,-4.5,693.0,-1387.2,-1.8,156.9,-68.1,216.3,0,2214,0,94,0,
1.2333,-1.2,169.5,282.0,156.9,282.3,-20.7,55.8,11.7,-2964.0,276.0,527.1,750.0,68.4,-152.4,-56.7,-218.7,-6.0,-4.5,693.6,-1379.7,-1.8,159.9,-74.1,226.5,0,2220,0,95,0,
1.2367,0.6,171.9,281.7,152.7,274.8,-30.3,54.0,12.3,-3038.1,268.8,524.1,729.6,68.1,-147.6,-41.1,-210.9,-6.3,-4.2,694.2,-1399.5,-1.8,150.6,-80.1,204.9,0,2226,0,96,0,
1.2400,-0.3,171.6,284.1,154.2,278.4,-27.6,54.9,15.6,-2964.0,266.4,522.9,726.0,60.0,-157.5,-51.6,-208.2,-6.3,-4.5,685.8,-1401.6,-1.8,150.6,-69.0,203.1,0,2232,0,97,0,
1.2433,-1.8,171.6,285.3,157.8,282.3,-26.1,60.6,14.4,-2815.8,266.4,520.8,736.2,63.6,-153.9,-46.5,-211.5,-6.0,-4.5,688.2,-1390.8,-1.8,149.1,-63.0,210.3,0,2238,0,98,0,
1.2467,4.2,174.9,290.1,163.2,287.1,-22.8,57.9,14.7,-2815.8,279.6,533.7,760.2,72.0,-142.2,-42.0,-217.8,-6.0,-4.5,697.5,-1374.0,-2.1,150.3,-56.7,210.3,0,2244,0,99,0,
1.2500,6.0,182.7,299.4,172.2,291.0,-18.3,57.0,21.3,-2741.7,285.6,542.4,760.2,81.3,-136.8,-48.6,-218.4,-6.0,-4.5,706.8,-1369.8,-1.5,154.2,-63.0,216.3,0,2250,0,100,0,
1.2533,8.1,179.1,289.8,161.4,282.6,-26.7,54.0,17.1,-2815.8,276.3,525.3,744.0,77.4,-127.2,-31.8,-206.7,-6.3,-4.5,695.7,-1383.9,-1.8,155.4,-55.8,216.9,0,2256,0,101,0,
1.2567,11.1,180.6,288.3,159.3,278.4,-30.9,56.7,15.3,-2815.8,282.3,527.1,739.8,79.2,-120.9,-26.1,-200.7,-6.3,-4.5,697.5,-1388.7,-1.8,155.7,-60.6,209.4,0,2262,0,102,0,
1.2600,9.3,175.2,281.7,151.5,269.7,-37.5,55.5,7.5,-2815.8,280.5,526.2,731.4,76.2,-107.7,-9.0,-184.2,-6.3,-4.2,694.5,-1397.7,-1.8,150.9,-59.7,197.1,0,2268,0,103,0,
1.2633,6.6,178.5,283.5,149.4,265.5,-38.1,55.8,6.3,-2741.7,292.2,519.6,730.5,81.9,-103.2,-12.0,-183.6,-6.0,-4.8,694.5,-1397.1,-2.1,139.2,-60.9,203.7,0,2274,0,104,0,
1.2667,10.5,176.1,281.4,147.3,261.3,-39.9,58.8,1.2,-2741.7,290.1,518.4,728.1,80.7,-102.6,-18.6,-186.3,-6.3,-4.5,689.7,-1399.8,-2.1,150.6,-55.5,205.8,0,2280,0,105,0,
1.2700,8.7,172.5,279.3,141.6,254.7,-40.8,59.1,-2.4,-2667.6,287.4,509.7,717.6,81.0,-103.5,-28.2,-195.0,-5.7,-4.5,686.7,-1407.6,-1.5,153.6,-56.7,209.7,0,2286,0,106,0,
1.2733,1.2,162.9,264.3,131.1,244.2,-50.1,56.4,-11.7,-2815.8,279.3,498.9,705.6,68.7,-108.0,-28.2,-183.3,-6.6,-4.2,672.6,-1416.9,-1.8,146.4,-52.5,195.3,0,2292,0,107,0,
1.2767,4.5,159.6,260.7,129.0,239.4,-56.1,56.1,-18.0,-2741.7,281.7,501.3,711.9,67.8,-104.4,-20.7,-188.4,-6.3,-4.2,674.7,-1413.3,-2.1,148.8,-53.1,193.5,0,2298,0,108,0,
1.2800,0.3,156.0,258.3,121.8,236.7,-57.6,49.8,-23.4,-2593.5,275.4,501.3,715.8,61.8,-108.9,-28.2,-189.9,-6.3,-4.5,670.5,-1413.0,-1.8,142.5,-60.6,188.1,0,2304,0,109,0,
1.2833,-7.5,139.2,233.7,101.1,213.6,-72.3,40.8,-37.5,-2593.5,249.0,466.8,690.3,44.7,-116.4,-2.1,-186.6,-6.3,-4.5,637.8,-1434.3,-1.2,117.6,-73.5,176.7,0,2310,0,110,0,
1.2867,-6.3,140.7,234.9,102.3,214.8,-69.3,43.8,-34.8,-2667.6,246.6,465.3,684.6,43.2,-118.2,-28.2,-197.4,-6.0,-4.8,639.0,-1438.5,-1.8,117.3,-73.2,175.2,0,2316,0,111,0,
1.2900,-11.1,132.9,228.6,97.5,212.1,-77.1,37.8,-42.3,-2667.6,245.7,469.8,687.3,37.2,-128.1,-34.8,-199.5,-6.3,-4.5,637.8,-1439.1,-1.2,129.9,-86.7,170.4,0,2322,0,112,0,
1.2933,-12.3,134.4,228.6,96.6,208.5,-81.9,32.4,-45.9,-2593.5,236.4,478.5,684.9,31.8,-128.1,-22.5,-198.3,-6.0,-4.2,644.7,-1443.9,-1.5,120.6,-90.6,166.8,0,2328,0,113,0,
1.2967,-11.7,131.4,229.5,95.7,204.0,-90.0,32.4,-44.7,-2445.3,241.5,472.2,675.6,28.5,-124.5,-14.4,-199.8,-6.0,-4.5,644.4,-1453.2,-1.5,112.2,-82.5,153.6,0,2334,0,114,0,
1.3000,-8.1,132.9,225.0,95.7,204.9,-90.6,32.1,-42.0,-2445.3,251.7,464.4,666.6,32.1,-120.0,-16.8,-197.1,-5.7,-4.5,637.2,-1456.8,-2.1,109.8,-85.2,159.0,0,2340,0,115,0,
1.3033,-12.3,129.9,223.2,92.1,204.3,-89.7,29.1,-42.9,-2593.5,243.6,462.3,675.0,31.2,-124.8,-9.6,-200.4,-6.0,-4.8,636.0,-1452.3,-1.8,121.5,-91.5,162.0,0,2346,0,116,0,
1.3067,-11.1,132.9,227.7,99.6,215.1,-85.5,30.3,-38.7,-2667.6,252.6,472.8,686.1,37.2,-123.6,-11.4,-197.1,-6.6,-4.5,645.3,-1437.3,-1.8,120.6,-95.4,158.7,0,2352,0,117,0,
1.3100,-6.6,141.3,238.8,107.7,225.3,-73.2,34.8,-31.5,-2593.5,264.6,495.0,706.2,46.2,-122.7,-31.2,-204.3,-6.0,-4.5,659.7,-1422.6,-1.5,138.3,-91.8,177.6,0,2358,0,118,0,
1.3133,-8.7,141.9,241.2,108.0,225.9,-74.1,35.1,-32.7,-2371.2,257.7,487.2,704.4,44.7,-122.4,-20.4,-192.9,-6.3,-4.2,658.2,-1421.1,-1.8,129.9,-89.1,183.0,0,2364,0,119,0,
1.3167,-9.0,143.4,241.2,111.3,230.1,-71.1,38.1,-28.8,-2593.5,264.0,489.0,705.3,50.7,-125.1,-23.4,-199.8,-6.3,-4.8,658.2,-1421.4,-1.5,144.3,-85.8,187.8,0,2370,0,120,0,
1.3200,-3.3,157.8,255.6,126.9,246.3,-56.4,39.3,-13.8,-2519.4,276.6,504.9,719.4,63.0,-122.1,-33.0,-212.4,-6.0,-4.2,675.3,-1402.5,-1.8,147.3,-78.6,199.2,0,2376,0,121,0,
1.3233,0.0,158.1,261.6,134.4,252.6,-51.0,40.8,-12.3,-2593.5,276.6,511.8,727.5,63.3,-123.9,-27.0,-210.0,-6.3,-4.8,681.6,-1395.9,-1.5,164.4,-74.4,204.0,0,2382,0,122,0,
1.3267,3.6,161.7,265.2,135.6,249.6,-48.6,41.1,-10.2,-2445.3,276.6,513.6,726.0,66.9,-119.1,-17.1,-210.0,-6.0,-4.5,680.1,-1398.9,-2.1,156.0,-78.9,209.4,0,2388,0,123,0,
1.3300,0.6,159.6,259.8,128.7,250.5,-51.9,36.6,-11.4,-2371.2,266.1,498.0,715.8,57.6,-122.1,-7.5,-197.7,-6.0,-4.5,668.4,-1402.8,-1.5,154.5,-79.8,206.4,0,2394,0,124,0,
1.3333,1.5,158.7,266.7,133.5,255.3,-45.9,37.8,-8.4,-2445.3,264.9,499.5,726.0,58.8,-130.5,-21.9,-207.3,-6.6,-4.5,666.0,-1393.5,-1.8,147.3,-76.2,201.3,0,2400,0,125,0,
1.3367,3.0,164.7,270.9,140.7,257.4,-37.8,43.5,-4.5,-2371.2,273.6,508.8,729.6,64.5,-130.8,-20.4,-203.7,-6.3,-4.2,674.1,-1388.7,-1.5,155.1,-76.2,208.5,0,2406,0,126,0,
1.3400,6.9,173.4,275.4,147.0,262.8,-40.5,39.6,0.9,-2445.3,280.2,518.7,732.9,72.0,-129.6,-21.6,-212.1,-6.3,-4.8,691.8,-1384.8,-1.8,153.9,-85.2,204.0,0,2412,0,127,0,
1.3433,7.2,177.0,282.3,153.3,263.7,-38.7,41.1,7.8,-2371.2,278.4,526.5,734.7,72.6,-135.3,-31.5,-219.9,-6.0,-4.5,695.7,-1387.5,-1.5,156.3,-91.2,205.8,0,2418,0,128,0,
1.3467,6.0,180.9,285.9,157.2,272.7,-30.6,44.1,13.8,-2223.0,285.9,528.3,736.8,75.6,-141.6,-56.4,-230.7,-6.0,-4.2,696.9,-1382.4,-1.5,159.0,-89.7,214.5,0,2424,0,129,0,
1.3500,9.0,182.4,286.5,158.7,269.7,-34.5,44.1,15.3,-2371.2,281.7,525.0,732.3,77.1,-134.1,-30.9,-221.4,-6.0,-4.5,695.1,-1388.4,-1.8,153.0,-93.9,209.7,0,2430,0,130,0,
1.3533,15.6,189.6,295.5,168.6,287.4,-24.6,44.7,23.7,-2371.2,287.1,533.4,753.6,81.3,-131.4,-42.6,-230.7,-6.6,-4.5,702.6,-1364.7,-1.5,171.9,-98.1,222.9,0,2436,0,131,0,
1.3567,20.1,197.1,307.8,181.2,298.8,-16.8,44.4,34.2,-2371.2,301.2,549.9,768.9,85.5,-134.4,-69.3,-260.4,-6.0,-4.2,714.6,-1350.9,-1.8,175.8,-98.7,215.4,0,2442,0,132,0,
1.3600,14.7,190.5,297.3,167.4,286.5,-27.6,41.4,25.5,-2371.2,288.9,538.2,755.4,78.3,-126.9,-38.4,-241.8,-6.3,-4.5,705.9,-1363.2,-1.5,165.0,-96.6,212.1,0,2448,0,133,0,
1.3633,15.3,184.2,288.6,160.5,280.2,-36.9,36.9,17.4,-2371.2,281.4,533.4,750.0,76.8,-131.7,-38.4,-234.6,-6.0,-4.2,700.2,-1368.6,-1.8,156.0,-110.7,205.8,0,2454,0,134,0,
1.3667,11.1,175.5,281.1,150.6,270.6,-39.3,38.7,14.4,-2371.2,275.7,517.8,738.6,72.3,-131.4,-30.9,-231.0,-6.0,-4.5,683.1,-1380.9,-1.8,145.5,-114.3,203.1,0,2460,0,135,0,
1.3700,11.1,181.2,284.7,150.0,267.9,-43.5,42.6,14.7,-2371.2,281.4,518.1,732.9,76.5,-130.5,-61.5,-250.5,-6.3,-4.8,683.1,-1383.6,-1.8,150.0,-110.1,199.5,0,2466,0,136,0,
1.3733,8.4,178.2,279.3,142.5,256.5,-51.9,40.8,11.7,-2519.4,270.0,513.3,716.7,72.6,-125.7,-50.7,-234.0,-6.6,-4.8,681.9,-1401.3,-1.8,133.8,-105.6,188.7,0,2472,0,137,0,
1.3767,4.8,171.3,269.1,133.2,246.3,-59.1,42.0,2.1,-2445.3,271.2,499.5,701.1,70.2,-124.5,-39.9,-229.5,-6.3,-4.5,670.8,-1413.9,-1.5,127.2,-111.9,184.8,0,2478,0,138,0,
1.3800,6.6,171.9,269.4,135.9,251.4,-56.4,46.2,1.5,-2445.3,268.8,502.2,710.7,74.1,-126.3,-37.8,-225.6,-6.6,-4.5,674.1,-1406.4,-1.8,132.6,-100.8,184.2,0,2484,0,139,0,
1.3833,6.6,168.3,269.7,131.7,247.8,-54.6,46.2,-5.1,-2519.4,268.8,502.5,715.8,70.2,-125.7,-42.0,-213.3,-6.0,-4.5,673.2,-1400.7,-1.5,131.1,-90.3,182.4,0,2490,0,140,0,
1.3867,4.2,165.9,267.6,129.6,242.1,-59.4,44.4,-11.4,-2371.2,268.5,502.5,712.8,62.1,-120.0,-25.5,-206.4,-6.6,-4.5,672.6,-1404.9,-1.8,129.9,-89.1,184.2,0,2496,0,141,0,
1.3900,7.5,165.0,269.1,134.4,248.7,-54.0,45.9,-9.3,-2519.4,267.0,506.1,719.4,64.5,-123.9,-40.5,-225.3,-6.0,-4.8,675.3,-1396.8,-1.8,149.7,-86.1,191.1,0,2502,0,142,0,
1.3933,1.5,160.8,258.6,129.9,243.9,-60.9,48.3,-13.2,-2519.4,262.8,492.0,708.3,57.6,-129.9,-41.7,-208.2,-6.0,-4.2,659.4,-1407.3,-2.1,139.5,-84.0,177.9,0,2508,0,143,0,
1.3967,0.9,157.8,254.4,118.5,236.1,-64.2,43.8,-17.7,-2593.5,263.4,484.2,698.1,55.2,-127.2,-33.3,-210.6,-6.3,-4.5,653.7,-1413.6,-1.5,138.9,-90.6,175.2,0,2514,0,144,0,
1.4000,5.4,159.6,260.4,120.9,234.0,-65.7,42.9,-18.0,-2445.3,266.1,493.5,693.9,63.3,-126.6,-32.4,-208.5,-6.3,-4.2,665.1,-1422.0,-1.5,133.2,-90.3,173.7,0,2520,0,145,0,
1.4033,1.2,157.2,253.8,116.1,227.1,-72.9,36.9,-24.3,-2519.4,262.5,488.4,685.5,62.1,-122.1,-26.4,-219.0,-6.3,-4.8,664.8,-1429.2,-2.1,134.4,-95.1,169.2,0,2526,0,146,0,
1.4067,0.6,154.5,249.3,119.7,228.9,-70.2,36.0,-25.2,-2667.6,258.3,489.3,694.2,57.0,-119.1,-14.4,-209.1,-6.3,-4.2,659.1,-1418.4,-1.5,132.3,-93.0,170.1,0,2532,0,147,0,
1.4100,5.7,158.1,261.3,125.1,239.1,-63.3,38.4,-22.2,-2445.3,272.4,502.8,714.0,67.2,-116.4,-29.4,-204.9,-6.3,-4.8,672.9,-1402.2,-1.8,151.2,-91.5,183.9,0,2538,0,148,0,
1.4133,8.4,166.2,267.0,133.2,244.5,-62.1,39.9,-19.5,-2519.4,278.4,512.7,720.6,71.7,-116.1,-28.2,-219.0,-6.6,-4.5,678.0,-1397.4,-1.8,158.4,-85.8,184.2,0,2544,0,149,0,
1.4167,8.7,160.5,263.1,128.1,240.3,-66.6,36.6,-21.0,-2519.4,272.4,502.8,710.4,71.4,-108.6,-7.2,-202.8,-6.0,-4.8,674.4,-1404.0,-1.5,147.0,-93.3,183.3,0,2550,0,150,0,
1.4200,8.7,163.5,264.0,132.3,243.0,-60.3,38.4,-17.4,-2667.6,276.6,502.5,710.1,74.7,-108.6,-23.1,-207.3,-6.3,-4.2,668.4,-1401.9,-1.5,142.8,-84.9,187.2,0,2556,0,151,0,
1.4233,8.1,163.8,263.1,134.1,245.1,-57.0,42.9,-17.1,-2741.7,270.6,500.7,712.5,69.9,-114.3,-26.7,-210.3,-6.0,-4.5,670.2,-1399.8,-1.5,151.8,-77.1,193.8,0,2562,0,152,0,
1.4267,9.0,168.3,268.5,138.9,249.0,-52.2,42.3,-9.9,-2519.4,281.1,506.1,721.2,72.9,-111.3,-34.2,-218.7,-6.3,-4.5,673.2,-1391.4,-1.8,158.1,-81.6,199.5,0,2568,0,153,0,
1.4300,11.7,172.5,267.3,138.0,250.8,-56.4,36.9,-11.1,-2667.6,275.4,506.7,715.2,69.0,-105.3,-20.4,-226.8,-5.7,-4.5,680.7,-1398.0,-1.5,151.8,-88.8,193.8,0,2574,0,154,0,
1.4333,11.7,177.3,277.8,143.7,255.9,-49.2,36.9,-7.2,-2519.4,288.0,519.0,717.9,82.2,-108.6,-26.7,-236.1,-6.0,-4.2,691.2,-1394.1,-2.1,159.3,-88.2,201.3,0,2580,0,155,0,
1.4367,7.8,177.6,279.3,147.9,258.0,-43.2,38.1,-6.6,-2593.5,293.1,523.5,725.1,89.4,-112.8,-31.5,-232.5,-6.3,-4.2,694.8,-1385.1,-1.8,159.9,-84.6,202.8,0,2586,0,156,0,
1.4400,13.2,181.2,283.8,154.8,266.7,-38.4,44.1,-0.3,-2519.4,300.3,528.6,740.4,93.3,-107.7,-28.5,-225.3,-6.3,-4.5,699.0,-1369.8,-1.8,173.1,-84.9,207.0,0,2592,0,157,0,
1.4433,13.2,180.0,282.9,159.0,267.0,-37.2,40.2,1.8,-2667.6,294.3,532.8,746.1,85.8,-110.7,-22.8,-221.1,-6.0,-4.5,698.7,-1366.8,-1.5,173.4,-84.3,209.1,0,2598,0,158,0,
1.4467,14.7,186.6,287.7,161.7,272.1,-29.7,43.8,5.7,-2445.3,301.5,537.6,750.6,89.7,-107.7,-18.9,-215.7,-6.0,-4.8,702.9,-1360.5,-1.8,171.9,-77.1,215.1,0,2604,0,159,0,
1.4500,10.2,176.1,276.9,153.6,265.2,-35.7,46.8,-1.2,-2519.4,287.4,521.4,742.5,80.1,-114.9,-10.8,-207.6,-6.3,-4.5,683.1,-1370.1,-1.5,171.6,-70.8,208.8,0,2610,0,160,0,
1.4533,15.6,185.7,286.2,158.4,270.0,-30.6,55.5,3.9,-2519.4,301.2,525.6,743.7,84.6,-111.6,-20.7,-205.8,-6.0,-5.1,694.8,-1365.3,-1.8,170.7,-53.7,222.9,0,2616,0,161,0,
1.4567,17.7,191.1,290.1,162.3,273.6,-23.4,63.9,7.8,-2667.6,302.7,538.5,751.8,89.1,-109.2,-30.9,-192.3,-6.0,-4.5,706.2,-1357.2,-2.1,188.7,-40.2,228.3,0,2622,0,162,0,
1.4600,17.1,188.1,286.5,154.8,265.2,-27.9,67.8,1.8,-2371.2,304.5,538.5,742.2,84.6,-113.4,-30.3,-189.9,-6.3,-4.5,711.6,-1366.5,-2.1,174.9,-36.3,219.6,0,2628,0,163,0,
1.4633,15.9,184.5,284.7,154.2,264.6,-26.4,70.2,1.2,-2371.2,305.7,528.6,735.6,81.0,-114.6,-26.7,-189.9,-5.7,-4.5,702.6,-1370.4,-1.8,180.6,-28.5,217.8,0,2634,0,164,0,
1.4667,15.3,180.0,279.6,153.0,259.8,-29.1,66.9,-1.5,-2445.3,302.7,532.2,734.7,79.2,-115.8,-24.0,-185.4,-6.6,-4.5,704.4,-1377.6,-1.5,171.6,-24.9,216.6,0,2640,0,165,0,
1.4700,8.1,169.2,267.3,140.7,252.6,-39.0,63.3,-9.9,-2519.4,285.0,517.5,732.9,68.1,-121.5,-21.3,-184.5,-6.3,-4.2,687.6,-1377.0,-1.8,163.2,-37.2,217.2,0,2646,0,166,0,
1.4733,9.6,165.9,261.9,130.8,241.5,-48.3,55.5,-15.3,-2519.4,279.3,513.0,726.6,65.1,-118.5,-6.9,-183.3,-6.3,-4.5,682.2,-1387.2,-1.5,161.4,-38.4,199.5,0,2652,0,167,0,
1.4767,1.8,153.6,249.3,117.0,223.2,-63.0,49.5,-26.7,-2519.4,267.0,495.0,703.2,50.4,-120.9,-5.1,-185.7,-6.0,-4.5,666.0,-1407.0,-1.8,129.0,-53.1,181.2,0,2658,0,168,0,
1.4800,3.3,151.2,239.1,106.8,215.7,-69.6,43.8,-29.7,-2297.1,263.1,479.1,687.6,49.8,-121.5,-27.0,-196.2,-6.3,-4.8,651.0,-1420.8,-1.8,131.1,-66.6,165.9,0,2664,0,169,0,
1.4833,-0.9,142.8,228.3,97.5,203.1,-82.8,38.7,-39.3,-2371.2,243.9,465.6,679.5,38.4,-133.5,-26.1,-198.6,-6.3,-4.8,643.2,-1428.0,-1.5,123.6,-87.0,163.2,0,2670,0,170,0,
1.4867,0.0,139.2,227.7,93.6,202.5,-89.1,37.2,-39.6,-2519.4,247.8,471.0,676.5,39.6,-129.0,-24.0,-201.3,-6.3,-4.5,640.5,-1432.5,-2.1,117.6,-88.5,157.2,0,2676,0,171,0,
1.4900,0.3,144.9,235.8,105.6,208.5,-84.9,33.0,-39.6,-2519.4,252.0,485.4,688.5,36.6,-123.3,-21.3,-226.8,-6.0,-4.5,659.7,-1424.1,-1.8,119.4,-95.7,157.5,0,2682,0,172,0,
1.4933,-1.5,149.1,238.8,108.3,210.9,-84.3,33.0,-39.0,-2519.4,257.7,490.2,696.3,36.6,-129.6,-35.7,-225.0,-6.3,-4.8,660.6,-1418.1,-1.8,123.3,-96.6,158.1,0,2688,0,173,0,
1.4967,-5.7,141.0,232.8,102.9,206.4,-86.1,30.0,-43.5,-2445.3,249.6,478.2,683.1,35.7,-130.2,-33.9,-219.0,-6.3,-4.5,649.8,-1425.9,-1.5,114.0,-98.1,153.9,0,2694,0,174,0,
1.5000,-9.6,131.7,223.5,90.6,195.9,-91.2,27.6,-52.8,-2445.3,240.9,466.2,674.1,26.7,-133.5,-28.8,-211.2,-6.3,-4.5,637.5,-1437.6,-2.1,104.7,-97.8,149.1,0,2700,0,175,0,
1.5033,-5.1,138.6,225.3,91.5,198.3,-90.6,30.0,-49.5,-2445.3,248.4,469.2,672.0,38.4,-122.1,-14.1,-222.9,-6.3,-4.5,643.5,-1435.2,-2.1,114.9,-100.8,148.5,0,2706,0,176,0,
1.5067,-7.8,137.4,222.0,88.8,195.6,-95.1,27.9,-49.5,-2519.4,240.0,465.0,670.2,34.5,-125.7,-19.8,-236.1,-6.3,-4.5,642.6,-1437.6,-1.8,111.6,-112.5,150.6,0,2712,0,177,0,
1.5100,-9.9,139.5,224.4,88.8,192.9,-93.0,26.4,-48.6,-2445.3,243.3,464.4,666.3,33.6,-121.5,-15.0,-230.7,-6.3,-4.5,643.2,-1440.6,-2.1,99.3,-107.7,133.5,0,2718,0,178,0,
1.5133,-12.9,134.4,219.6,85.2,187.8,-94.5,26.4,-51.3,-2297.1,231.0,459.9,662.7,23.1,-128.7,-15.9,-222.0,-6.6,-4.5,638.1,-1444.5,-1.8,100.2,-113.1,135.9,0,2724,0,179,0,
1.5167,-12.6,136.5,225.6,96.3,204.0,-81.3,29.4,-43.5,-2445.3,243.6,473.7,681.6,29.1,-135.3,-37.8,-212.7,-6.3,-4.2,648.3,-1425.0,-1.8,120.6,-100.5,161.1,0,2730,0,180,0,
1.5200,-8.4,138.9,228.0,98.7,203.4,-85.2,32.7,-42.9,-2445.3,247.2,470.1,683.4,34.5,-126.3,-25.5,-219.0,-6.3,-4.8,645.0,-1425.0,-1.5,122.7,-100.5,158.1,0,2736,0,181,0,
1.5233,-9.9,145.2,235.2,104.4,213.9,-77.7,32.7,-39.6,-2445.3,256.5,482.4,694.2,41.7,-127.5,-33.3,-238.2,-6.3,-4.8,654.0,-1415.4,-1.8,121.8,-111.0,162.0,0,2742,0,182,0,
1.5267,-6.3,146.1,235.5,107.1,218.1,-72.9,34.5,-33.0,-2297.1,252.0,484.5,693.3,39.6,-124.5,-30.0,-230.7,-6.3,-4.8,656.1,-1413.0,-1.5,127.8,-104.1,163.8,0,2748,0,183,0,
1.5300,-7.8,152.1,247.5,115.8,223.5,-69.0,31.2,-32.7,-2371.2,272.4,501.0,700.5,48.6,-124.8,-35.1,-234.0,-6.0,-4.5,674.1,-1403.1,-1.8,137.7,-115.5,169.5,0,2754,0,184,0,
1.5333,-1.5,157.2,253.2,122.7,229.5,-68.7,33.0,-24.6,-2371.2,271.5,504.0,700.2,54.0,-118.2,-28.5,-239.7,-6.3,-4.8,672.9,-1405.2,-1.5,133.8,-120.6,162.3,0,2760,0,185,0,
1.5367,1.2,162.9,258.3,127.5,234.3,-65.7,30.9,-19.5,-2371.2,267.9,504.9,702.3,56.1,-125.4,-38.4,-244.5,-6.3,-4.5,679.2,-1406.1,-1.8,133.8,-119.4,168.9,0,2766,0,186,0,
1.5400,4.2,164.4,259.2,129.0,233.1,-69.6,30.9,-18.6,-2445.3,264.0,504.9,702.3,54.3,-126.3,-25.8,-235.5,-6.0,-4.8,678.6,-1404.9,-1.8,137.4,-121.2,165.0,0,2772,0,187,0,
1.5433,4.5,169.2,267.3,140.1,244.5,-57.6,29.7,-13.2,-2297.1,272.4,520.2,722.7,60.3,-130.8,-36.9,-242.1,-6.0,-4.2,689.1,-1386.6,-1.8,141.3,-118.5,180.3,0,2778,0,188,0,
1.5467,6.9,170.7,268.8,144.6,249.3,-51.6,36.3,-3.6,-2297.1,270.9,516.0,726.0,59.1,-128.7,-33.9,-236.1,-6.0,-4.5,681.6,-1380.3,-1.8,143.4,-109.2,185.4,0,2784,0,189,0,
1.5500,8.1,172.2,266.7,142.2,249.3,-51.3,36.9,-3.0,-2297.1,263.1,510.3,722.4,58.2,-133.8,-37.5,-242.4,-5.7,-4.5,678.6,-1383.3,-1.8,139.8,-109.5,184.2,0,2790,0,190,0,
1.5533,7.2,171.3,266.4,139.5,249.0,-48.9,43.2,-6.0,-2371.2,262.5,513.6,729.3,61.2,-137.7,-44.7,-237.0,-6.3,-4.5,678.6,-1379.4,-1.8,149.4,-102.0,193.8,0,2796,0,191,0,
1.5567,8.1,175.8,269.4,141.6,247.8,-47.4,46.2,-3.9,-2445.3,265.8,523.2,728.7,57.9,-138.9,-43.5,-233.1,-6.0,-4.5,692.1,-1382.1,-2.1,148.2,-96.6,187.2,0,2802,0,192,0,
1.5600,5.7,171.0,263.1,134.1,243.3,-48.3,43.8,-8.7,-2297.1,267.3,513.3,723.0,53.1,-135.6,-39.6,-222.9,-6.0,-4.2,680.7,-1385.1,-1.8,139.5,-95.1,188.4,0,2808,0,193,0,
1.5633,6.0,171.3,263.4,135.0,240.6,-54.6,45.6,-9.3,-2223.0,258.6,513.0,718.5,55.2,-144.0,-43.8,-214.8,-6.0,-4.8,680.7,-1393.5,-1.8,124.8,-92.7,182.4,0,2814,0,194,0,
1.5667,10.8,173.7,263.4,135.0,237.9,-55.5,47.1,-12.0,-2445.3,267.0,512.1,712.5,59.7,-142.2,-48.6,-229.5,-6.3,-4.5,680.7,-1394.1,-1.5,132.9,-93.6,183.6,0,2820,0,195,0,
1.5700,9.9,168.6,254.4,126.0,231.6,-59.7,45.3,-14.7,-2297.1,248.7,502.2,702.9,51.0,-141.6,-44.1,-229.8,-6.3,-4.2,671.4,-1403.4,-1.8,126.0,-92.4,177.0,0,2826,0,196,0,
1.5733,8.7,162.3,248.7,123.0,229.2,-64.5,42.0,-22.8,-2371.2,245.4,498.3,706.8,48.3,-137.4,-39.6,-230.7,-6.6,-4.5,664.8,-1398.6,-1.5,124.2,-90.0,167.4,0,2832,0,197,0,
1.5767,9.3,167.4,251.4,124.8,231.6,-59.1,45.6,-21.6,-2445.3,246.9,503.7,710.7,41.4,-142.5,-42.0,-226.5,-6.3,-4.5,670.8,-1396.2,-1.5,127.2,-94.5,180.9,0,2838,0,198,0,
1.5800,11.7,168.3,255.9,131.1,237.3,-58.5,45.3,-21.6,-2223.0,254.1,510.0,719.4,43.8,-141.0,-45.9,-226.2,-6.0,-4.5,676.8,-1391.4,-1.5,134.4,-88.8,183.3,0,2844,0,199,0,
1.5833,6.3,168.9,256.2,127.2,235.5,-61.5,43.2,-19.8,-2297.1,260.4,514.2,710.1,55.8,-142.5,-61.8,-229.2,-6.3,-4.5,679.5,-1397.7,-1.5,132.0,-89.1,173.1,0,2850,0,200,0,
1.5867,11.1,165.6,251.4,124.2,230.1,-63.0,44.1,-17.1,-2297.1,254.7,501.6,704.4,56.7,-134.4,-43.2,-229.5,-6.0,-4.5,672.3,-1405.8,-2.1,133.8,-95.4,173.4,0,2856,0,201,0,
1.5900,10.2,160.2,246.6,120.0,228.3,-68.7,39.9,-19.8,-2519.4,243.9,495.9,701.1,44.4,-133.2,-26.7,-232.5,-6.3,-4.5,665.7,-1407.6,-2.1,116.7,-96.0,164.1,0,2862,0,202,0,
1.5933,7.8,156.3,243.3,115.8,219.9,-78.0,38.4,-24.3,-2519.4,242.4,483.3,697.5,37.5,-128.4,-8.1,-229.2,-6.3,-4.5,657.3,-1411.5,-1.5,113.4,-96.0,153.0,0,2868,0,203,0,
1.5967,8.1,159.0,247.2,124.2,234.0,-65.1,45.0,-18.9,-2371.2,246.6,495.9,710.7,39.6,-137.7,-37.8,-230.1,-6.3,-4.5,665.7,-1396.8,-1.8,127.8,-91.8,167.4,0,2874,0,204,0,
1.6000,5.4,154.2,239.1,116.4,223.2,-69.0,40.8,-26.1,-2445.3,238.8,483.9,705.0,37.5,-132.0,-33.0,-221.4,-5.7,-4.5,654.3,-1405.5,-1.8,111.6,-98.1,163.8,0,2880,0,205,0,
1.6033,2.1,153.6,241.8,117.9,228.6,-68.4,41.1,-24.3,-2519.4,244.5,500.1,709.8,37.5,-135.6,-44.1,-232.8,-6.3,-4.8,667.5,-1403.4,-1.8,119.4,-98.4,152.1,0,2886,0,206,0,
1.6067,3.6,153.6,241.2,117.3,224.7,-68.1,44.1,-27.3,-2519.4,252.6,495.3,703.5,33.3,-135.3,-33.0,-235.8,-6.0,-4.5,664.5,-1407.0,-1.5,116.7,-103.2,153.6,0,2892,0,207,0,
1.6100,-0.9,148.8,237.0,112.2,217.5,-70.2,34.2,-28.8,-2519.4,248.4,489.9,698.4,32.1,-135.3,-38.1,-241.2,-6.0,-4.2,658.8,-1411.2,-1.8,114.0,-116.1,156.3,0,2898,0,208,0,
1.6133,1.2,153.9,240.0,114.9,221.4,-78.6,31.8,-33.0,-2445.3,250.2,489.9,699.9,33.9,-125.7,-40.2,-252.6,-6.6,-4.8,661.5,-1409.4,-1.5,116.4,-116.7,146.4,0,2904,0,209,0,
1.6167,0.0,149.1,235.5,111.0,219.9,-81.0,29.1,-33.0,-2519.4,232.5,489.0,701.7,30.0,-129.0,-40.2,-233.7,-6.6,-4.5,657.3,-1412.1,-2.1,107.4,-117.0,144.9,0,2910,0,210,0,
1.6200,0.0,153.0,241.2,116.7,221.4,-77.4,31.5,-29.4,-2667.6,244.5,494.7,706.5,30.9,-134.4,-50.4,-240.0,-6.0,-4.5,662.1,-1405.5,-1.5,115.8,-118.8,154.8,0,2916,0,211,0,
1.6233,1.8,155.1,245.4,120.3,228.0,-74.1,28.2,-26.1,-2741.7,245.7,501.9,708.9,36.0,-125.7,-49.2,-251.1,-6.0,-4.5,667.5,-1405.8,-1.8,114.0,-113.7,155.1,0,2922,0,212,0,
1.6267,-1.5,154.2,244.5,121.2,230.4,-71.1,31.8,-25.5,-2667.6,243.6,500.1,707.1,29.1,-127.5,-45.9,-260.7,-6.3,-4.5,666.6,-1405.5,-1.5,127.5,-117.9,157.5,0,2928,0,213,0,
1.6300,3.3,157.2,251.4,129.3,237.0,-66.6,29.1,-19.5,-2593.5,246.3,505.2,713.7,38.1,-120.0,-39.3,-259.5,-6.0,-4.5,674.7,-1402.2,-1.8,114.6,-119.1,163.5,0,2934,0,214,0,
1.6333,2.7,156.9,250.5,135.6,242.4,-58.2,35.1,-17.4,-2667.6,247.2,501.9,715.8,37.8,-120.9,-36.9,-250.2,-6.0,-4.5,670.5,-1391.7,-1.8,128.1,-112.5,174.6,0,2940,0,215,0,
1.6367,9.3,165.0,264.9,146.4,251.4,-51.6,42.0,-6.0,-2667.6,261.0,515.7,727.8,50.7,-114.3,-40.2,-244.8,-6.3,-4.5,685.5,-1386.6,-1.8,131.7,-100.5,181.2,0,2946,0,216,0,
1.6400,5.7,165.9,264.6,146.1,252.6,-49.8,45.0,-6.6,-2667.6,258.9,519.6,728.4,46.8,-112.5,-28.5,-230.7,-6.3,-4.5,685.2,-1383.3,-1.8,130.2,-91.8,176.1,0,2952,0,217,0,
1.6433,9.9,176.4,275.7,154.8,263.4,-44.1,47.1,0.6,-2667.6,270.9,533.1,743.1,59.4,-104.1,-24.0,-236.4,-6.3,-4.8,702.9,-1370.7,-1.8,141.0,-97.5,179.4,0,2958,0,218,0,
1.6467,3.0,178.2,279.6,157.2,264.0,-44.4,47.1,1.2,-2519.4,277.5,543.0,745.8,58.5,-115.2,-33.9,-234.6,-6.3,-4.2,711.9,-1370.4,-1.5,147.0,-96.0,186.0,0,2964,0,219,0,
1.6500,6.6,175.2,276.3,156.3,262.8,-42.0,52.8,1.8,-2593.5,274.2,534.3,739.8,64.5,-107.7,-19.5,-220.8,-6.6,-4.8,706.2,-1374.3,-1.8,147.9,-83.7,187.5,0,2970,0,220,0,
1.6533,4.5,174.9,272.7,155.1,258.9,-45.3,52.8,0.6,-2593.5,269.1,521.7,726.6,62.7,-113.7,-23.4,-214.2,-6.3,-4.5,694.2,-1382.1,-1.8,137.7,-76.8,185.4,0,2976,0,221,0,
1.6567,9.3,176.4,273.9,153.9,258.3,-44.1,52.2,-0.9,-2519.4,276.3,524.4,731.1,64.8,-107.7,-18.6,-217.2,-6.3,-4.5,702.9,-1377.6,-1.8,145.2,-75.3,183.6,0,2982,0,222,0,
1.6600,12.6,178.5,279.9,156.9,260.4,-41.7,52.5,-2.1,-2593.5,284.7,540.0,742.2,68.7,-102.9,-15.6,-217.5,-6.0,-4.5,717.6,-1371.6,-1.8,152.7,-64.5,195.6,0,2988,0,223,0,
1.6633,17.1,180.0,279.9,155.4,257.7,-44.7,53.7,-3.6,-2519.4,294.6,546.9,746.1,74.1,-102.0,-15.9,-211.5,-6.3,-4.2,722.7,-1371.3,-1.8,154.8,-60.6,197.7,0,2994,0,224,0,
1.6667,15.6,177.9,276.3,146.4,247.8,-53.7,49.2,-11.7,-2371.2,275.4,533.1,732.3,73.2,-104.7,-8.4,-204.0,-6.0,-4.5,711.9,-1382.7,-1.8,142.2,-62.7,194.1,0,3000,0,225,0,
1.6700,18.0,174.6,267.3,141.9,239.4,-53.7,51.9,-11.7,-2593.5,267.6,521.1,717.9,71.7,-105.9,-0.9,-199.8,-6.0,-4.5,701.1,-1395.3,-1.5,139.5,-57.0,185.4,0,3006,0,226,0,
1.6733,17.4,174.0,265.2,140.7,243.0,-54.3,51.6,-11.4,-2593.5,273.9,520.5,724.8,66.6,-115.2,-14.1,-198.0,-6.3,-4.8,696.3,-1389.3,-1.8,147.6,-52.8,187.5,0,3012,0,227,0,
1.6767,13.5,164.4,261.9,137.4,241.8,-55.2,54.9,-15.6,-2445.3,262.5,518.4,727.8,52.5,-121.5,-29.1,-194.7,-6.3,-4.5,692.7,-1386.0,-1.8,143.7,-45.6,186.0,0,3018,0,228,0,
1.6800,12.3,159.6,253.8,129.0,232.5,-66.0,49.5,-25.8,-2593.5,256.2,509.1,719.1,52.2,-116.4,-12.6,-202.5,-6.3,-4.5,688.2,-1389.6,-1.5,141.9,-54.0,181.2,0,3024,0,229,0,
1.6833,8.4,155.7,247.2,120.6,219.9,-75.3,46.5,-32.7,-2519.4,250.5,506.7,707.1,48.3,-116.7,-9.9,-200.7,-6.6,-4.2,683.1,-1408.2,-1.5,125.7,-63.6,171.3,0,3030,0,230,0,
1.6867,6.0,151.2,237.6,114.9,213.9,-84.3,43.2,-32.7,-2667.6,247.5,497.4,692.7,39.3,-127.5,-21.6,-192.6,-6.3,-4.5,673.2,-1419.9,-1.8,116.1,-63.0,151.5,0,3036,0,231,0,
1.6900,3.0,144.0,231.6,108.6,205.2,-88.5,36.9,-31.8,-2815.8,234.9,480.6,674.4,30.9,-135.0,-34.2,-216.6,-6.3,-4.5,661.2,-1436.7,-1.5,105.6,-74.4,141.0,0,3042,0,232,0,
1.6933,-0.6,138.0,227.1,99.9,199.8,-91.8,29.7,-38.1,-2741.7,229.8,479.7,673.2,21.9,-141.9,-48.9,-227.4,-6.3,-4.5,660.3,-1437.9,-1.5,95.7,-83.4,138.3,0,3048,0,233,0,
1.6967,-4.2,132.0,218.1,96.3,194.1,-97.8,29.4,-46.5,-2667.6,219.6,475.8,675.3,21.0,-140.1,-34.8,-216.6,-6.0,-4.5,652.5,-1438.2,-1.5,89.4,-84.0,132.9,0,3054,0,234,0,
1.7000,-7.2,130.8,219.6,94.2,195.3,-97.5,33.0,-45.3,-2889.9,217.8,472.5,682.8,16.5,-144.0,-35.1,-219.6,-6.3,-4.5,647.1,-1432.2,-1.8,91.5,-88.5,130.2,0,3060,0,235,0,
1.7033,-6.3,135.3,220.8,96.0,200.4,-91.2,33.6,-39.3,-2964.0,216.9,462.9,674.7,18.6,-140.1,-36.6,-227.4,-6.3,-4.2,637.8,-1431.0,-1.8,96.3,-92.1,139.8,0,3066,0,236,0,
1.7067,-5.1,137.4,223.8,102.0,201.3,-95.1,36.3,-40.8,-3112.2,227.7,474.9,678.6,23.7,-141.3,-45.3,-218.4,-6.0,-4.5,652.5,-1433.1,-1.8,96.9,-90.3,144.0,0,3072,0,237,0,
1.7100,-6.3,138.3,232.2,103.8,203.1,-93.0,37.2,-37.5,-3186.3,228.3,491.7,686.1,28.5,-135.6,-30.3,-219.0,-6.3,-4.5,665.1,-1426.2,-1.8,105.3,-93.6,143.1,0,3078,0,238,0,
1.7133,-5.7,145.5,241.2,114.0,212.1,-86.7,39.9,-32.1,-3186.3,240.6,503.1,691.8,31.8,-134.1,-51.3,-233.4,-6.3,-4.5,680.7,-1424.4,-1.5,102.3,-90.3,152.1,0,3084,0,239,0,
1.7167,-5.7,142.8,237.3,109.2,209.1,-87.9,38.4,-29.1,-3112.2,230.1,488.1,679.5,29.4,-135.6,-45.0,-228.9,-6.0,-4.5,663.6,-1430.1,-1.8,96.0,-97.2,141.9,0,3090,0,240,0,
1.7200,-11.1,144.6,237.6,110.4,207.9,-86.7,42.3,-27.6,-3482.7,236.4,486.3,670.5,22.8,-141.9,-73.5,-237.0,-6.3,-3.9,665.4,-1437.6,-1.5,105.3,-89.4,144.6,0,3096,0,241,0,
1.7233,-8.7,147.0,238.5,114.6,210.6,-84.6,37.8,-24.3,-3556.8,237.9,487.5,676.5,28.8,-139.5,-60.3,-233.7,-6.3,-4.5,664.2,-1430.1,-1.8,93.9,-98.4,143.7,0,3102,0,242,0,
1.7267,-10.2,146.7,242.7,118.2,219.0,-77.4,45.6,-22.5,-3482.7,233.4,495.9,691.5,36.6,-134.1,-40.8,-220.5,-6.3,-4.5,670.8,-1416.9,-1.8,100.8,-97.2,150.9,0,3108,0,243,0,
1.7300,-10.8,149.7,252.0,126.9,234.9,-68.1,45.0,-17.1,-3408.6,236.7,508.5,713.7,35.1,-139.5,-61.2,-234.3,-6.3,-4.5,679.2,-1395.9,-2.1,114.6,-96.0,157.5,0,3114,0,244,0,
1.7333,-5.1,156.3,256.5,132.6,238.8,-58.5,50.7,-7.8,-3260.4,249.9,506.1,706.8,42.0,-129.0,-66.0,-230.7,-6.0,-4.5,680.7,-1394.7,-2.1,115.2,-90.3,171.6,0,3120,0,245,0,
1.7367,-7.8,152.7,249.0,125.1,233.4,-58.2,49.5,-10.8,-3482.7,241.8,498.3,694.5,39.3,-123.9,-42.9,-220.8,-6.0,-4.5,669.6,-1402.2,-1.5,116.1,-87.3,168.9,0,3126,0,246,0,
1.7400,-8.4,164.1,261.3,139.2,243.9,-54.6,53.7,-4.8,-3408.6,256.8,514.2,712.2,51.0,-121.8,-38.7,-217.5,-6.0,-4.8,689.7,-1389.3,-1.8,124.5,-79.5,170.1,0,3132,0,247,0,
1.7433,-3.9,168.0,270.6,150.9,254.7,-44.4,54.6,0.9,-3186.3,270.0,535.2,727.2,60.0,-117.0,-47.7,-227.4,-6.0,-4.8,709.8,-1376.7,-1.8,128.1,-79.8,179.4,0,3138,0,248,0,
1.7467,-5.7,168.9,272.1,149.4,255.0,-45.0,57.9,-0.6,-3112.2,268.5,533.7,729.3,62.4,-116.1,-50.4,-231.6,-6.0,-4.5,708.6,-1377.6,-1.8,132.3,-84.3,185.4,0,3144,0,249,0,
1.7500,-8.7,164.1,264.0,143.1,250.8,-44.4,53.7,-2.4,-2964.0,261.3,519.0,719.1,56.4,-121.8,-39.6,-219.6,-6.3,-4.8,691.2,-1381.2,-1.5,131.7,-82.2,183.0,0,3150,0,250,0,
1.7533,-8.7,163.8,265.2,144.9,256.5,-44.7,50.4,-0.3,-2964.0,264.3,522.3,723.9,53.7,-120.3,-46.5,-223.2,-6.0,-4.5,695.7,-1378.2,-1.5,136.8,-88.5,181.5,0,3156,0,251,0,
1.7567,-9.6,162.6,267.0,144.3,254.4,-47.1,47.1,-6.0,-3038.1,268.8,525.3,727.2,55.5,-117.3,-33.3,-217.8,-6.6,-4.8,695.7,-1376.1,-1.5,135.3,-89.1,177.3,0,3162,0,252,0,
1.7600,-2.7,171.9,277.2,153.9,263.1,-42.3,53.4,0.0,-2889.9,275.4,539.1,739.2,65.4,-112.5,-37.2,-222.0,-6.0,-4.2,712.5,-1368.3,-1.5,141.9,-85.8,189.0,0,3168,0,253,0,
1.7633,-2.4,172.5,275.7,150.3,265.2,-45.9,54.9,-0.3,-2815.8,283.2,537.3,740.7,57.9,-111.9,-32.1,-217.8,-6.3,-4.8,708.9,-1366.5,-1.8,142.2,-79.8,194.1,0,3174,0,254,0,
1.7667,0.3,170.1,269.7,147.0,258.9,-51.0,52.2,-2.4,-2815.8,279.0,529.5,731.7,58.5,-108.0,-27.9,-213.3,-6.6,-4.2,700.5,-1373.7,-1.5,148.8,-80.1,188.1,0,3180,0,255,0,
1.7700,-0.9,163.8,261.0,140.4,249.0,-51.6,54.0,-8.4,-2741.7,266.7,518.7,721.2,60.0,-112.2,-20.7,-206.4,-6.0,-4.5,693.0,-1382.1,-1.8,141.6,-75.0,187.5,0,3186,0,0,0,
1.7733,2.1,165.9,266.1,142.8,252.3,-51.6,58.2,-7.5,-2815.8,276.6,528.9,727.2,59.7,-111.9,-21.0,-210.6,-6.3,-4.5,700.5,-1378.2,-2.1,144.6,-73.5,183.6,0,3192,0,1,0,
1.7767,-1.2,159.0,255.0,134.4,240.3,-57.3,54.3,-16.5,-2741.7,270.6,518.7,715.5,49.2,-125.1,-33.3,-207.3,-6.3,-4.5,691.8,-1386.3,-1.8,136.8,-75.3,182.4,0,3198,0,2,0,
1.7800,0.3,156.6,250.8,129.6,234.0,-62.1,53.1,-16.5,-2593.5,262.5,506.1,701.7,47.4,-121.8,-22.2,-207.0,-6.3,-4.8,679.2,-1398.9,-2.1,132.9,-77.1,173.7,0,3204,0,3,0,
1.7833,-0.9,149.4,241.2,118.5,226.2,-68.1,51.0,-22.5,-2519.4,251.1,492.6,693.9,41.4,-120.3,-12.6,-205.2,-6.6,-4.5,668.1,-1405.5,-1.5,124.8,-81.3,172.2,0,3210,0,4,0,
1.7867,1.5,153.6,241.8,119.4,230.4,-66.3,53.1,-23.7,-2741.7,254.1,500.1,697.8,42.6,-124.8,-25.5,-203.4,-6.3,-4.5,674.7,-1400.4,-1.8,135.3,-82.8,177.0,0,3216,0,5,0,
1.7900,-1.8,152.7,242.1,118.5,229.8,-64.8,51.6,-24.9,-2815.8,261.6,504.3,705.3,42.3,-131.4,-36.6,-207.9,-6.3,-4.5,678.3,-1398.6,-1.8,121.5,-79.2,177.0,0,3222,0,6,0,
1.7933,-3.6,150.0,240.9,114.3,223.2,-69.3,51.6,-27.6,-2741.7,258.0,504.3,705.3,39.0,-134.1,-32.1,-213.3,-6.3,-4.8,677.4,-1399.2,-1.5,127.8,-76.5,169.2,0,3228,0,7,0,
1.7967,1.5,150.9,240.0,114.3,219.9,-70.5,46.5,-30.9,-2519.4,258.0,501.6,703.2,41.1,-122.1,-29.4,-216.9,-6.3,-4.5,675.0,-1404.9,-1.8,126.9,-78.0,171.6,0,3234,0,8,0,
1.8000,1.2,147.9,235.5,105.6,212.7,-77.1,47.4,-36.9,-2593.5,247.8,493.8,689.7,39.0,-120.6,-18.6,-203.7,-6.0,-4.5,671.1,-1412.4,-2.1,117.9,-78.3,164.7,0,3240,0,9,0,
1.8033,6.3,143.7,228.6,100.5,207.9,-84.9,45.0,-39.0,-2593.5,246.0,486.0,680.7,38.1,-110.1,-3.6,-199.2,-6.0,-4.2,659.1,-1422.0,-1.8,117.3,-93.3,164.1,0,3246,0,10,0,
1.8067,1.2,141.9,228.9,97.5,201.3,-88.2,33.6,-43.2,-2741.7,248.1,483.3,672.3,38.4,-114.9,-17.7,-221.4,-6.0,-4.8,660.3,-1425.6,-1.5,106.5,-101.4,147.0,0,3252,0,11,0,
1.8100,3.6,140.7,225.3,98.4,199.5,-90.6,29.4,-43.8,-2741.7,247.2,483.0,673.2,36.0,-112.2,-10.5,-227.1,-6.0,-4.5,656.7,-1430.4,-1.5,105.9,-107.4,147.0,0,3258,0,12,0,
1.8133,7.8,143.1,225.9,99.0,202.8,-90.6,30.3,-45.0,-2519.4,239.7,481.8,681.0,36.0,-109.5,-9.6,-223.5,-6.3,-4.5,653.4,-1422.3,-1.8,103.8,-107.7,147.9,0,3264,0,13,0,
1.8167,9.6,145.5,225.9,103.2,211.2,-82.5,33.0,-38.1,-2667.6,241.5,481.2,684.9,35.4,-112.5,-13.2,-231.9,-6.3,-4.2,655.5,-1414.8,-1.8,116.4,-106.2,151.8,0,3270,0,14,0,
1.8200,2.7,141.6,228.3,102.9,212.1,-82.2,33.9,-38.4,-2667.6,235.5,481.5,686.7,27.0,-124.5,-27.6,-235.2,-6.3,-4.2,651.0,-1410.6,-1.8,110.4,-111.3,150.3,0,3276,0,15,0,
1.8233,-0.6,142.8,226.5,105.6,212.7,-81.3,37.8,-33.0,-2667.6,232.8,481.5,683.7,35.1,-123.9,-20.7,-235.2,-5.7,-4.5,650.1,-1412.7,-1.5,105.0,-112.2,150.3,0,3282,0,16,0,
1.8267,1.5,142.2,225.0,100.2,212.1,-80.4,31.5,-37.5,-2593.5,234.0,473.4,678.9,30.0,-132.6,-35.4,-239.1,-6.6,-4.8,644.4,-1418.7,-1.2,100.5,-116.4,140.1,0,3288,0,17,0,
1.8300,-3.0,142.5,226.5,105.0,214.8,-79.2,33.3,-37.5,-2593.5,231.9,480.6,681.3,30.0,-136.5,-31.5,-237.6,-6.0,-4.2,650.1,-1416.3,-1.5,101.4,-117.3,148.2,0,3294,0,18,0,
1.8333,-1.2,147.6,232.8,110.1,218.1,-76.5,40.2,-29.4,-2593.5,232.8,483.6,681.0,29.7,-135.9,-38.1,-241.8,-6.3,-4.5,655.2,-1413.9,-1.5,103.8,-112.5,156.3,0,3300,0,19,0,
1.8367,-0.3,147.9,231.9,109.5,216.3,-74.4,38.1,-27.6,-2519.4,228.3,483.3,676.8,29.7,-141.6,-52.5,-241.5,-6.6,-4.5,655.5,-1414.8,-1.8,99.0,-106.8,155.4,0,3306,0,20,0,
1.8400,-3.6,148.8,234.3,114.6,223.2,-66.9,45.3,-19.8,-2667.6,229.5,489.0,688.5,33.6,-146.1,-60.9,-243.6,-6.0,-4.5,655.5,-1403.1,-1.5,105.6,-102.9,170.1,0,3312,0,21,0,
1.8433,-3.9,147.0,237.6,118.5,226.8,-63.3,43.8,-16.5,-2519.4,222.9,485.7,696.6,30.3,-147.9,-61.2,-254.7,-6.3,-4.5,651.9,-1395.9,-1.8,104.1,-101.7,169.5,0,3318,0,22,0,
1.8467,-7.8,150.0,240.0,122.1,235.8,-55.8,48.0,-14.7,-2445.3,228.3,487.8,702.3,28.5,-153.3,-69.6,-251.7,-6.6,-4.5,653.7,-1388.4,-2.1,116.7,-93.9,177.9,0,3324,0,23,0,
1.8500,-8.7,150.9,244.8,127.8,240.9,-54.6,48.9,-10.8,-2593.5,231.3,493.8,710.1,28.2,-151.8,-68.4,-247.8,-6.3,-4.2,659.1,-1380.9,-1.5,117.0,-103.5,174.9,0,3330,0,24,0,
1.8533,-6.0,155.7,254.1,135.3,243.9,-51.9,50.1,-5.4,-2593.5,247.5,515.7,717.9,45.9,-141.9,-54.9,-244.2,-6.3,-4.5,677.1,-1376.7,-1.5,116.7,-99.3,183.3,0,3336,0,25,0,
1.8567,-11.4,150.3,251.7,131.7,245.1,-54.6,47.4,-14.1,-2593.5,246.0,507.0,717.0,40.2,-146.7,-53.4,-243.9,-6.3,-4.5,671.4,-1377.0,-1.5,118.8,-88.5,182.7,0,3342,0,26,0,
1.8600,-11.4,148.8,247.8,129.3,242.7,-53.1,49.8,-13.8,-2371.2,235.8,502.5,712.8,36.6,-141.9,-40.5,-225.0,-6.3,-4.8,669.6,-1379.1,-1.8,131.1,-78.3,187.8,0,3348,0,27,0,
1.8633,-9.3,149.7,252.3,132.0,249.6,-50.4,53.4,-11.4,-2445.3,242.7,505.2,719.7,38.7,-141.9,-48.0,-227.7,-6.0,-4.2,671.7,-1371.6,-1.8,124.8,-73.5,191.1,0,3354,0,28,0,
1.8667,-14.1,152.4,252.6,136.8,253.2,-44.4,60.0,-6.9,-2371.2,256.2,508.5,723.6,43.5,-147.3,-76.8,-221.7,-6.3,-4.2,672.9,-1367.7,-1.8,141.9,-61.5,199.5,0,3360,0,29,0,
1.8700,-9.6,148.2,246.9,130.5,248.4,-50.7,59.7,-11.1,-2593.5,258.3,505.2,722.1,42.0,-129.0,-32.1,-205.2,-6.3,-4.8,667.5,-1370.4,-1.8,139.5,-58.2,200.4,0,3366,0,30,0,
1.8733,-9.0,152.7,250.5,129.9,250.5,-42.6,57.3,-15.6,-2593.5,271.5,519.3,728.1,48.0,-125.4,-39.9,-208.2,-6.0,-4.2,684.3,-1363.5,-1.5,150.3,-58.2,203.4,0,3372,0,31,0,
1.8767,-9.3,153.6,253.8,132.9,252.3,-43.8,54.6,-14.4,-2519.4,273.3,527.1,731.4,52.2,-123.0,-50.4,-204.9,-6.3,-4.5,690.3,-1363.2,-1.5,155.4,-54.6,207.3,0,3378,0,32,0,
1.8800,-4.2,156.9,252.9,129.3,249.3,-41.7,57.0,-12.9,-2371.2,278.1,516.3,720.9,57.3,-117.0,-37.5,-207.6,-6.3,-4.5,682.8,-1370.1,-1.8,152.4,-57.0,204.6,0,3384,0,33,0,
1.8833,-2.1,159.3,252.3,129.6,246.0,-36.0,59.1,-10.5,-2445.3,282.0,518.1,723.9,62.1,-107.4,-30.6,-212.4,-6.3,-4.8,682.5,-1366.5,-1.8,153.3,-51.9,204.9,0,3390,0,34,0,
1.8867,1.8,163.2,255.9,130.5,248.7,-33.6,60.3,-10.2,-2593.5,288.6,518.1,729.3,64.8,-102.9,-27.6,-205.2,-6.0,-4.5,684.0,-1361.1,-1.8,160.2,-49.5,196.8,0,3396,0,35,0,
1.8900,5.7,167.4,253.2,133.8,249.3,-35.1,60.3,-11.4,-2667.6,283.5,513.9,731.4,66.9,-95.7,-22.2,-201.6,-6.0,-4.2,678.3,-1357.8,-1.8,161.1,-49.5,204.3,0,3402,0,36,0,
1.8933,8.7,167.4,256.8,132.6,249.9,-35.4,57.6,-10.2,-2519.4,289.2,516.3,733.8,69.9,-91.5,-11.7,-198.6,-6.0,-4.5,680.7,-1359.0,-2.1,164.7,-47.1,207.9,0,3408,0,37,0,
1.8967,11.1,170.7,263.1,130.8,245.1,-44.4,55.5,-12.9,-2519.4,291.3,522.3,730.8,74.1,-84.3,-0.9,-192.6,-6.3,-4.5,690.6,-1363.2,-1.5,171.9,-51.9,199.5,0,3414,0,38,0,
1.9000,11.1,174.9,263.7,126.9,238.8,-49.2,53.4,-15.9,-2519.4,294.6,514.8,712.5,74.1,-81.3,-3.0,-201.3,-6.3,-4.5,686.4,-1379.1,-1.8,151.2,-56.1,191.7,0,3420,0,39,0,
1.9033,12.9,172.5,263.4,131.4,241.8,-48.0,53.1,-13.8,-2667.6,293.1,512.4,712.2,74.4,-85.5,-7.8,-204.3,-6.6,-4.5,685.8,-1378.2,-1.8,156.3,-55.2,200.7,0,3426,0,40,0,
1.9067,12.0,172.2,258.0,123.9,234.3,-56.4,45.6,-19.8,-2593.5,279.3,509.1,705.9,64.5,-84.3,10.8,-196.5,-5.7,-3.9,681.0,-1383.6,-1.5,151.8,-59.4,191.4,0,3432,0,41,0,
1.9100,11.4,173.1,262.2,129.9,243.0,-51.9,46.2,-20.7,-2519.4,284.4,516.0,728.4,65.7,-79.5,11.4,-202.8,-6.3,-4.5,688.5,-1365.3,-1.8,160.8,-63.9,195.0,0,3438,0,42,0,
1.9133,8.1,168.3,255.6,130.2,240.6,-48.6,46.2,-19.8,-2371.2,278.7,514.5,723.6,67.8,-87.0,1.2,-201.9,-6.3,-4.5,678.9,-1367.1,-1.8,156.3,-64.5,195.3,0,3444,0,43,0,
1.9167,8.1,165.9,249.6,120.3,234.0,-54.3,46.5,-18.9,-2593.5,270.6,499.5,707.7,62.4,-92.4,-4.8,-199.5,-6.3,-4.8,669.0,-1380.6,-1.8,151.2,-67.5,188.1,0,3450,0,44,0,
1.9200,7.2,159.9,244.8,119.4,231.3,-54.9,43.2,-18.0,-2667.6,265.8,498.6,706.8,51.6,-102.3,-15.0,-219.9,-6.3,-4.8,660.0,-1381.5,-1.5,150.0,-83.4,191.4,0,3456,0,45,0,
1.9233,4.2,152.7,233.4,109.2,222.3,-65.4,45.3,-21.6,-2741.7,252.6,481.2,692.4,42.9,-108.0,0.3,-208.8,-6.3,-4.5,648.9,-1394.1,-2.1,121.5,-85.5,170.7,0,3462,0,46,0,
1.9267,-4.5,138.3,213.3,93.3,206.4,-81.0,37.5,-31.2,-2667.6,230.7,464.1,676.8,24.6,-126.9,-3.6,-212.7,-6.0,-4.5,630.6,-1409.1,-1.8,109.5,-104.1,154.5,0,3468,0,47,0,
1.9300,-4.2,143.1,223.8,100.8,217.8,-71.7,36.3,-25.2,-2519.4,247.8,477.9,688.8,32.7,-131.7,-49.2,-256.2,-6.0,-4.5,639.9,-1396.8,-1.5,121.2,-119.4,162.9,0,3474,0,48,0,
1.9333,-6.3,138.3,216.6,90.9,207.3,-80.7,37.5,-32.1,-2593.5,236.7,474.3,686.1,30.0,-132.3,-38.4,-234.9,-6.0,-4.5,640.5,-1401.0,-1.2,107.4,-116.1,153.9,0,3480,0,49,0,
1.9367,-8.4,136.5,216.3,92.4,209.4,-81.6,39.6,-34.5,-2667.6,237.3,486.9,691.2,28.5,-146.1,-51.3,-237.0,-6.0,-4.5,646.8,-1399.5,-1.5,110.4,-116.7,156.9,0,3486,0,50,0,
1.9400,-6.3,136.5,213.3,86.4,203.7,-84.9,39.0,-33.6,-2593.5,228.3,479.4,680.1,24.0,-146.1,-43.5,-240.0,-6.3,-4.5,644.4,-1408.5,-1.5,94.5,-119.4,146.1,0,3492,0,51,0,
1.9433,-7.5,128.4,206.1,79.2,196.8,-89.1,35.4,-39.0,-2667.6,217.2,468.6,670.5,12.9,-154.8,-44.1,-236.1,-6.6,-4.5,630.0,-1419.0,-1.5,78.6,-126.9,134.7,0,3498,0,52,0,
1.9467,-16.8,116.4,196.2,71.7,194.7,-85.2,35.7,-40.8,-2667.6,203.7,452.7,666.6,3.9,-177.9,-72.6,-217.8,-6.6,-4.8,615.0,-1419.3,-1.8,77.4,-110.1,138.9,0,3504,0,53,0,
1.9500,-17.4,124.2,206.4,81.3,204.0,-79.2,36.9,-35.1,-2667.6,212.4,461.4,682.5,10.2,-175.8,-76.5,-257.4,-6.3,-4.8,623.1,-1402.2,-1.8,98.7,-125.1,140.4,0,3510,0,54,0,
1.9533,-12.0,129.9,213.9,89.7,211.8,-76.8,42.6,-26.7,-2741.7,214.8,466.2,684.9,13.2,-172.8,-63.3,-251.1,-6.0,-4.5,623.7,-1403.1,-1.5,94.8,-126.6,147.6,0,3516,0,55,0,
1.9567,-18.3,127.2,213.3,88.2,208.5,-78.9,40.5,-31.8,-2741.7,205.2,461.7,679.8,7.8,-172.2,-54.3,-241.2,-6.3,-4.5,618.6,-1404.0,-1.8,85.8,-126.6,144.3,0,3522,0,56,0,
1.9600,-18.3,129.0,217.2,95.1,213.0,-73.2,44.7,-25.8,-2815.8,207.3,463.5,687.6,10.5,-175.8,-60.3,-241.8,-6.3,-4.2,620.4,-1395.9,-1.8,90.9,-124.5,148.5,0,3528,0,57,0,
1.9633,-16.8,126.0,215.7,89.7,208.5,-77.7,44.1,-29.4,-2667.6,203.7,459.9,676.5,10.8,-173.7,-47.7,-234.0,-6.0,-4.2,621.0,-1407.0,-1.8,84.3,-132.3,149.4,0,3534,0,58,0,
1.9667,-15.3,134.4,227.1,105.9,222.0,-66.0,53.1,-19.8,-2741.7,219.6,477.6,688.5,19.8,-172.2,-77.7,-229.2,-6.3,-4.2,634.2,-1396.2,-1.8,96.9,-112.5,158.7,0,3540,0,59,0,
1.9700,-19.8,130.8,221.7,102.6,217.2,-72.9,46.8,-27.3,-2889.9,218.4,470.7,679.8,16.2,-174.0,-67.2,-226.2,-6.0,-4.8,629.1,-1404.6,-1.8,89.4,-109.8,145.2,0,3546,0,60,0,
1.9733,-13.2,138.9,231.6,112.8,230.1,-60.3,55.8,-17.4,-2889.9,226.5,481.2,687.6,21.6,-170.1,-65.4,-215.7,-6.6,-4.8,640.8,-1394.1,-1.8,98.4,-96.3,161.7,0,3552,0,61,0,
1.9767,-12.0,147.0,240.3,119.1,242.4,-53.7,64.5,-12.3,-2741.7,234.0,492.6,696.3,33.3,-165.3,-79.2,-224.1,-5.7,-4.8,649.2,-1384.8,-1.8,106.2,-90.6,174.9,0,3558,0,62,0,
1.9800,-9.9,150.9,240.3,121.2,241.2,-51.6,58.2,-8.4,-2667.6,237.3,495.3,699.6,35.7,-156.0,-60.9,-221.1,-6.0,-4.5,650.7,-1383.3,-1.5,108.0,-89.7,170.4,0,3564,0,63,0,
1.9833,-0.9,151.8,243.3,124.5,244.5,-45.3,64.2,-4.5,-2667.6,241.2,498.6,709.8,44.4,-154.8,-66.3,-219.0,-6.3,-4.8,654.9,-1373.1,-1.8,116.4,-91.2,177.0,0,3570,0,64,0,
1.9867,-6.9,148.5,238.2,120.9,243.9,-44.7,63.9,-7.5,-2889.9,229.5,492.6,713.4,41.1,-157.5,-63.0,-215.1,-6.3,-4.5,643.8,-1370.4,-1.5,117.6,-86.4,175.5,0,3576,0,65,0,
1.9900,-7.8,143.7,228.6,111.0,232.5,-53.4,60.9,-14.4,-2741.7,229.8,475.2,694.8,32.4,-148.8,-53.4,-215.4,-6.3,-5.1,632.1,-1384.8,-1.8,108.6,-88.2,169.5,0,3582,0,66,0,
1.9933,-6.6,146.1,230.4,110.4,231.0,-53.4,60.6,-16.5,-2815.8,230.4,481.8,699.3,29.4,-152.7,-54.9,-214.5,-6.0,-4.2,638.4,-1380.3,-1.2,110.4,-86.1,173.4,0,3588,0,67,0,
1.9967,-7.2,143.1,228.0,103.5,225.6,-61.2,52.8,-20.7,-2741.7,236.4,486.6,702.6,26.1,-147.9,-43.8,-209.4,-6.0,-4.2,639.6,-1384.5,-1.8,112.5,-91.8,165.6,0,3594,0,68,0,
2.0000,0.0,148.2,231.6,103.8,228.0,-60.6,53.4,-21.0,-2889.9,245.7,492.3,702.9,40.8,-133.2,-36.6,-219.0,-6.0,-4.5,649.8,-1381.2,-1.8,116.1,-93.9,160.5,0,3600,0,69,0,
2.0033,-0.3,144.0,222.0,98.4,221.7,-63.9,48.9,-25.5,-2815.8,246.9,480.0,691.8,40.8,-129.6,-28.2,-217.5,-6.0,-4.5,639.0,-1390.2,-1.8,115.2,-98.1,162.9,0,3606,0,70,0,
2.0067,-4.8,143.7,215.4,91.8,214.2,-73.2,45.6,-28.8,-2889.9,243.3,469.8,679.5,37.2,-128.1,-39.3,-217.8,-6.0,-4.8,638.1,-1401.3,-1.8,99.0,-95.7,151.8,0,3612,0,71,0,
2.0100,-4.8,141.3,212.7,82.8,209.4,-75.3,41.1,-29.7,-2815.8,234.9,470.4,675.0,35.1,-129.0,-38.4,-227.7,-6.3,-4.5,634.5,-1406.7,-1.8,100.5,-101.4,150.6,0,3618,0,72,0,
2.0133,-5.4,136.2,209.1,84.6,207.6,-75.9,47.4,-33.3,-2815.8,231.6,466.2,673.2,31.2,-126.3,-29.4,-223.2,-6.0,-4.2,628.2,-1406.7,-1.5,99.6,-105.0,151.2,0,3624,0,73,0,
2.0167,-5.7,133.5,207.0,83.4,208.8,-76.2,46.2,-34.8,-2815.8,233.4,464.7,678.9,28.2,-128.4,-31.5,-217.2,-6.0,-4.8,625.5,-1401.0,-1.5,105.6,-101.1,156.0,0,3630,0,74,0,
2.0200,-4.8,130.5,204.9,78.9,207.0,-76.8,44.4,-34.8,-2815.8,231.3,460.2,681.0,26.1,-124.8,-22.5,-210.9,-6.0,-4.5,622.5,-1397.7,-2.1,107.1,-99.0,153.3,0,3636,0,75,0,
2.0233,-8.7,129.3,199.8,76.2,205.8,-77.7,46.8,-35.4,-2889.9,222.9,453.9,674.1,18.6,-127.2,-13.8,-222.6,-6.6,-4.8,619.2,-1401.9,-1.8,102.9,-104.7,149.1,0,3642,0,76,0,
2.0267,-9.6,124.8,198.6,74.4,202.5,-76.5,42.6,-37.5,-2964.0,217.5,450.0,669.0,13.2,-128.7,-18.6,-231.0,-6.3,-4.5,613.5,-1406.7,-1.8,101.1,-111.6,146.4,0,3648,0,77,0,
2.0300,-12.0,118.8,188.7,66.9,196.8,-84.3,40.8,-45.3,-2889.9,211.8,441.9,660.6,3.9,-138.6,-32.4,-226.8,-6.0,-4.5,598.8,-1416.0,-1.8,90.6,-110.4,140.1,0,3654,0,78,0,
2.0333,-16.5,117.9,191.1,70.2,195.0,-87.6,40.2,-41.1,-2889.9,215.7,438.6,656.1,5.1,-147.0,-51.0,-231.6,-6.0,-4.8,599.7,-1417.5,-1.8,95.7,-118.5,140.4,0,3660,0,79,0,
2.0367,-19.8,120.9,196.2,67.2,191.7,-91.5,33.3,-40.8,-2964.0,217.8,444.9,654.3,8.7,-154.2,-57.9,-240.3,-6.0,-4.8,610.5,-1425.0,-2.1,74.1,-135.9,127.2,0,3666,0,80,0,
2.0400,-17.1,123.6,199.2,71.7,190.5,-95.1,35.4,-40.5,-2964.0,212.7,450.6,657.0,10.8,-150.9,-51.9,-239.1,-6.3,-4.5,616.5,-1422.3,-1.8,76.5,-136.5,129.3,0,3672,0,81,0,
2.0433,-24.0,111.9,188.1,63.9,183.0,-104.7,29.4,-49.5,-3038.1,202.2,445.5,650.4,-2.1,-157.2,-48.9,-232.8,-6.3,-4.2,608.7,-1431.0,-1.8,70.2,-140.1,119.4,0,3678,0,82,0,
2.0467,-24.3,116.1,197.4,69.9,187.5,-98.4,37.8,-43.5,-2889.9,203.7,447.6,651.9,1.2,-162.6,-63.3,-243.6,-6.3,-4.5,610.2,-1425.6,-2.1,62.4,-130.8,115.2,0,3684,0,83,0,
2.0500,-30.9,106.2,187.8,61.8,181.8,-103.8,34.8,-50.7,-2889.9,187.5,434.7,643.8,-11.7,-173.4,-54.3,-233.4,-6.0,-4.5,594.0,-1434.6,-1.5,65.4,-132.9,108.6,0,3690,0,84,0,
2.0533,-24.0,111.0,192.0,65.7,185.7,-102.0,35.4,-49.2,-3112.2,197.1,444.9,651.9,-4.8,-162.9,-47.4,-235.8,-6.3,-4.8,602.7,-1427.4,-1.8,57.6,-143.1,115.5,0,3696,0,85,0,
2.0567,-22.2,112.2,199.5,78.9,199.2,-90.9,40.2,-38.4,-3112.2,199.8,453.6,666.6,-4.8,-177.9,-78.9,-241.2,-6.6,-4.5,609.9,-1411.2,-1.5,76.2,-129.9,135.3,0,3702,0,86,0,
2.0600,-22.5,115.8,201.3,84.6,202.5,-86.1,47.7,-34.2,-2964.0,195.6,455.7,669.3,-7.5,-183.9,-89.4,-236.1,-6.3,-4.2,608.1,-1407.0,-1.8,78.0,-121.5,134.1,0,3708,0,87,0,
2.0633,-17.7,111.9,198.3,78.6,198.0,-89.4,45.9,-37.8,-2741.7,195.0,451.2,660.3,-10.2,-178.5,-68.7,-226.5,-6.0,-4.2,603.6,-1412.7,-1.5,65.4,-120.0,132.6,0,3714,0,88,0,
2.0667,-21.0,111.9,199.5,80.4,198.3,-87.9,41.4,-38.7,-3038.1,185.1,456.6,660.9,-9.0,-180.3,-62.4,-234.9,-6.0,-4.5,608.4,-1414.8,-1.8,67.2,-115.2,128.4,0,3720,0,89,0,
2.0700,-12.9,121.2,208.8,87.6,205.8,-80.4,48.6,-30.9,-3038.1,195.0,468.0,671.4,0.6,-172.5,-72.3,-240.3,-6.3,-4.2,615.0,-1407.6,-1.2,77.1,-115.2,139.2,0,3726,0,90,0,
2.0733,-14.1,123.3,211.5,89.4,207.0,-77.7,49.5,-30.0,-2964.0,203.4,464.4,672.9,1.2,-175.5,-73.5,-233.4,-5.7,-4.8,616.5,-1404.3,-2.1,68.7,-111.6,141.0,0,3732,0,91,0,
2.0767,-14.1,123.3,213.0,89.1,215.4,-75.6,51.3,-27.6,-2964.0,206.4,470.4,684.0,4.2,-180.6,-85.8,-244.2,-6.0,-4.5,620.4,-1395.6,-1.5,77.1,-109.2,146.4,0,3738,0,92,0,
2.0800,-12.3,126.9,218.1,94.2,218.1,-69.0,51.6,-23.4,-2741.7,206.4,479.4,684.0,8.1,-177.3,-81.0,-234.6,-6.0,-4.5,632.1,-1394.7,-1.8,80.1,-105.9,146.1,0,3744,0,93,0,
2.0833,-11.4,124.5,216.9,95.4,216.9,-67.5,51.9,-26.7,-2889.9,211.2,481.5,682.5,8.7,-178.5,-68.4,-219.0,-6.0,-4.2,630.6,-1397.4,-1.8,73.5,-105.0,147.0,0,3750,0,94,0,
2.0867,-10.8,127.8,222.6,99.6,219.0,-68.1,51.0,-26.4,-2815.8,209.1,479.7,681.0,12.9,-173.4,-66.9,-229.5,-6.0,-4.2,631.8,-1396.8,-2.1,75.0,-105.3,149.1,0,3756,0,95,0,
2.0900,-9.0,132.9,225.0,101.4,221.7,-64.2,53.1,-22.8,-3038.1,211.5,481.8,685.8,11.7,-167.4,-57.6,-233.7,-6.0,-4.5,632.7,-1393.8,-1.8,83.7,-103.2,146.1,0,3762,0,96,0,
2.0933,-6.3,132.9,228.3,102.9,225.6,-61.8,57.0,-24.3,-2889.9,214.8,483.9,691.8,19.2,-155.4,-38.1,-219.3,-6.0,-4.2,632.7,-1388.1,-1.8,93.9,-96.3,150.9,0,3768,0,97,0,
2.0967,-6.9,135.9,234.9,110.4,231.6,-57.9,60.3,-19.8,-2964.0,220.8,491.1,697.2,25.2,-153.6,-54.9,-225.6,-5.7,-4.5,638.7,-1376.4,-1.5,99.9,-97.8,172.8,0,3774,0,98,0,
2.1000,-3.0,140.4,239.4,118.2,238.2,-51.3,62.1,-19.2,-2815.8,226.8,498.3,704.4,27.9,-153.3,-63.9,-214.8,-6.3,-4.8,648.6,-1370.1,-1.8,115.2,-83.4,179.4,0,3780,0,99,0,
2.1033,-0.3,141.3,234.0,110.1,230.1,-62.1,58.5,-25.8,-2889.9,227.4,494.7,699.6,28.2,-146.7,-45.6,-209.7,-6.3,-4.2,648.0,-1376.7,-1.5,107.4,-79.8,169.2,0,3786,0,100,0,
2.1067,1.5,144.3,243.0,112.2,228.3,-61.2,57.6,-21.9,-2889.9,227.7,501.3,700.5,36.9,-139.2,-41.7,-203.1,-6.3,-4.5,656.1,-1378.5,-2.1,99.0,-73.5,165.3,0,3792,0,101,0,
2.1100,6.3,149.1,244.5,117.6,231.6,-60.0,58.8,-22.8,-2815.8,227.7,505.2,702.0,42.0,-126.6,-38.1,-218.1,-6.3,-4.5,658.8,-1376.7,-1.5,100.5,-83.1,164.7,0,3798,0,102,0,
2.1133,12.9,153.3,243.9,112.2,231.0,-62.4,57.9,-21.3,-2741.7,231.0,495.0,693.6,51.6,-119.7,-16.8,-210.6,-6.3,-4.8,654.3,-1384.2,-1.8,102.6,-78.9,158.7,0,3804,0,103,0,
2.1167,16.8,156.3,248.7,114.3,230.7,-63.3,54.9,-21.9,-2741.7,234.0,504.0,696.6,61.2,-111.9,-12.6,-215.7,-6.0,-4.8,663.0,-1379.4,-1.8,95.7,-78.9,161.7,0,3810,0,104,0,
2.1200,23.1,163.8,254.4,123.0,236.4,-62.4,53.4,-14.7,-2741.7,249.9,510.3,700.2,55.5,-108.3,-36.0,-217.2,-6.3,-4.5,669.0,-1377.6,-1.8,110.4,-75.9,167.1,0,3816,0,105,0,
2.1233,22.5,168.0,255.3,117.0,231.9,-64.2,51.9,-17.1,-2815.8,241.8,507.3,699.3,59.7,-101.4,-25.5,-217.2,-6.3,-4.5,666.9,-1377.6,-1.5,108.0,-80.4,157.5,0,3822,0,106,0,
2.1267,24.3,163.2,256.5,118.2,231.3,-66.9,49.2,-20.7,-2741.7,242.7,506.4,699.6,63.0,-101.4,-17.4,-210.3,-6.0,-4.2,668.7,-1375.5,-1.8,108.3,-76.8,158.4,0,3828,0,107,0,
2.1300,22.8,159.9,255.9,115.5,233.1,-70.2,50.1,-18.9,-2741.7,236.4,509.7,704.7,59.4,-105.3,-18.6,-215.7,-6.3,-4.8,667.5,-1370.4,-1.5,111.3,-81.9,161.1,0,3834,0,108,0,
2.1333,20.7,153.6,245.7,111.9,227.4,-72.3,48.3,-23.4,-2593.5,229.2,503.1,700.8,49.5,-108.9,-3.9,-206.7,-6.3,-4.5,662.1,-1377.0,-2.1,108.9,-80.1,153.9,0,3840,0,109,0,
2.1367,13.5,148.5,241.5,108.6,225.0,-75.0,44.7,-25.2,-2741.7,229.8,500.1,696.6,44.1,-114.0,-16.5,-226.2,-6.3,-4.8,655.8,-1382.4,-1.8,104.7,-81.9,153.0,0,3846,0,110,0,
2.1400,10.5,148.2,241.8,110.7,226.5,-68.4,52.8,-23.7,-2815.8,237.6,496.5,698.1,42.3,-123.6,-40.2,-221.7,-6.3,-4.8,652.5,-1376.4,-1.8,116.7,-82.5,162.6,0,3852,0,111,0,
2.1433,4.5,139.8,231.6,101.4,218.7,-74.7,48.9,-29.4,-2741.7,216.6,485.7,682.5,35.7,-132.3,-33.6,-210.9,-6.0,-4.8,642.3,-1388.4,-1.8,98.1,-77.7,156.0,0,3858,0,112,0,
2.1467,0.0,134.7,231.6,99.0,217.5,-74.7,55.5,-30.0,-2593.5,222.0,488.1,681.0,31.2,-138.9,-39.6,-207.9,-6.0,-4.2,643.2,-1387.5,-1.8,96.9,-83.7,156.0,0,3864,0,113,0,
2.1500,-7.8,130.5,231.9,96.6,213.9,-76.2,48.9,-30.3,-2741.7,210.9,487.5,680.4,21.3,-151.2,-51.3,-226.2,-6.3,-4.8,642.6,-1389.3,-1.8,90.3,-104.7,153.6,0,3870,0,114,0,
2.1533,-6.6,129.3,230.7,100.2,218.1,-79.8,50.4,-28.5,-2815.8,214.5,485.1,683.7,19.5,-151.2,-51.0,-231.9,-6.3,-3.9,640.5,-1388.1,-1.8,77.7,-97.5,145.5,0,3876,0,115,0,
2.1567,-12.9,124.5,226.8,98.1,219.0,-79.2,47.1,-28.5,-2741.7,204.0,483.6,684.0,11.4,-162.9,-57.0,-229.8,-6.0,-4.8,637.5,-1387.2,-2.1,82.2,-105.0,148.8,0,3882,0,116,0,
2.1600,-12.3,124.5,229.2,101.7,223.5,-76.5,54.6,-28.2,-2667.6,212.7,490.2,686.1,11.1,-166.5,-69.6,-223.2,-6.0,-4.5,643.2,-1386.6,-1.5,93.9,-88.8,151.2,0,3888,0,117,0,
2.1633,-18.6,126.0,231.9,102.0,219.6,-78.9,45.3,-28.2,-2593.5,204.0,492.0,682.2,10.8,-178.5,-75.6,-227.4,-6.0,-4.8,644.1,-1389.0,-1.5,82.8,-98.1,148.2,0,3894,0,118,0,
2.1667,-14.1,126.6,235.2,106.2,225.6,-71.7,50.4,-26.1,-2667.6,210.9,492.9,685.5,15.6,-172.5,-69.3,-222.9,-6.0,-4.2,646.2,-1382.7,-1.8,92.7,-97.8,153.3,0,3900,0,119,0,
2.1700,-12.3,129.3,233.7,104.4,220.5,-75.0,46.8,-27.0,-2667.6,206.1,487.8,675.9,18.3,-174.9,-62.7,-234.3,-6.0,-4.8,645.0,-1391.1,-1.8,75.3,-103.2,146.7,0,3906,0,120,0,
2.1733,-12.3,133.5,240.3,116.4,230.4,-62.4,50.7,-20.7,-2593.5,212.1,499.2,687.6,20.4,-176.4,-70.2,-237.3,-6.3,-4.8,651.9,-1376.7,-1.8,93.0,-102.6,155.1,0,3912,0,121,0,
2.1767,-8.7,139.5,246.0,127.8,244.2,-58.2,52.2,-16.5,-2667.6,218.7,512.7,705.6,27.9,-172.5,-85.5,-248.7,-6.3,-4.5,662.4,-1362.9,-1.5,103.5,-97.8,159.3,0,3918,0,122,0,
2.1800,-10.2,138.6,245.4,125.4,247.2,-56.4,52.8,-21.3,-2519.4,216.0,509.4,713.1,26.4,-170.4,-63.9,-241.5,-6.3,-4.8,661.5,-1354.5,-1.5,96.6,-99.9,158.1,0,3924,0,123,0,
2.1833,-7.5,142.8,248.7,127.2,246.6,-57.3,49.8,-21.3,-2593.5,222.0,513.3,713.7,30.0,-166.5,-66.6,-241.2,-6.0,-3.9,660.6,-1353.9,-1.5,101.4,-105.3,164.4,0,3930,0,124,0,
2.1867,-6.0,146.7,255.9,132.0,252.0,-51.3,57.3,-13.2,-2667.6,224.7,509.4,719.1,34.2,-161.7,-65.7,-245.7,-6.3,-4.5,658.2,-1348.2,-1.5,108.0,-108.3,171.0,0,3936,0,125,0,
2.1900,-12.3,132.3,240.9,117.6,240.3,-62.7,49.5,-24.3,-2593.5,202.8,490.2,698.7,15.0,-166.5,-51.3,-240.6,-6.0,-4.5,638.1,-1366.2,-1.8,87.6,-111.0,155.7,0,3942,0,126,0,
2.1933,-6.6,148.5,257.7,133.8,252.0,-52.2,56.4,-13.5,-2519.4,226.2,511.8,712.8,32.7,-170.7,-76.8,-241.8,-6.3,-4.2,662.4,-1352.4,-1.8,96.9,-103.8,165.0,0,3948,0,127,0,
2.1967,-8.7,144.0,253.8,132.3,250.8,-54.3,54.0,-15.6,-2519.4,220.2,518.1,717.3,30.3,-176.7,-76.5,-244.8,-6.3,-4.5,666.0,-1352.4,-1.8,93.9,-107.4,162.0,0,3954,0,128,0,
2.2000,-4.8,149.7,258.9,135.0,252.0,-51.0,60.6,-11.4,-2519.4,225.3,522.6,714.6,32.4,-175.2,-74.4,-242.7,-6.3,-4.5,672.0,-1353.0,-1.5,99.3,-110.1,162.3,0,3960,0,129,0,
2.2033,-2.7,149.1,255.3,136.2,252.9,-51.9,62.4,-9.6,-2667.6,221.7,520.8,711.3,24.3,-170.4,-64.5,-232.5,-6.0,-4.5,668.1,-1356.6,-1.8,102.3,-98.7,166.2,0,3966,0,130,0,
2.2067,-2.1,149.7,254.4,132.9,249.6,-53.7,61.8,-11.1,-2593.5,230.1,515.4,707.1,28.5,-165.0,-55.2,-221.4,-6.3,-4.5,663.3,-1356.9,-1.5,102.6,-93.0,165.9,0,3972,0,131,0,
2.2100,2.7,153.6,261.6,138.3,259.8,-49.5,65.1,-11.7,-2519.4,236.7,526.8,726.3,42.3,-158.1,-52.5,-226.5,-6.0,-4.5,672.9,-1339.8,-1.5,119.1,-87.0,171.9,0,3978,0,132,0,
2.2133,3.0,153.9,261.3,136.8,258.0,-49.2,61.8,-14.4,-2371.2,240.0,534.3,736.2,46.8,-150.0,-42.0,-218.7,-6.0,-4.5,675.0,-1336.2,-1.8,116.1,-75.6,175.2,0,3984,0,133,0,
2.2167,6.3,158.4,266.7,144.0,261.3,-44.4,67.2,-10.2,-2445.3,252.0,538.5,739.2,49.2,-152.1,-63.0,-214.2,-6.3,-4.5,679.2,-1330.8,-1.8,135.0,-66.6,185.1,0,3990,0,134,0,
2.2200,5.1,152.7,255.0,128.1,248.1,-54.6,64.2,-14.7,-2593.5,236.7,517.8,716.7,44.4,-139.5,-32.1,-209.4,-6.3,-4.5,664.2,-1349.1,-1.8,124.2,-73.8,170.7,0,3996,0,135,0,
2.2233,5.1,150.0,249.0,123.0,242.7,-59.1,59.7,-17.7,-2667.6,232.8,504.3,703.5,38.7,-139.8,-32.7,-206.7,-6.0,-4.8,652.5,-1359.9,-2.1,124.2,-78.3,170.4,0,4002,0,136,0,
2.2267,3.3,143.7,244.5,116.7,232.2,-70.2,56.1,-24.0,-2593.5,228.9,497.1,688.5,38.1,-135.3,-27.3,-202.2,-6.0,-4.5,649.8,-1368.9,-1.5,100.2,-78.9,158.7,0,4008,0,137,0,
2.2300,4.8,149.1,252.6,125.4,240.0,-64.5,57.9,-21.0,-2519.4,248.7,525.6,711.3,46.8,-141.6,-42.3,-199.2,-6.0,-4.5,671.1,-1354.8,-1.8,121.5,-66.9,167.4,0,4014,0,138,0,
2.2333,2.7,141.6,245.4,112.5,229.5,-74.7,49.2,-30.3,-2519.4,237.6,514.5,707.7,44.7,-133.5,-18.0,-202.8,-6.0,-4.5,662.4,-1362.3,-1.5,112.2,-79.5,163.2,0,4020,0,139,0,
2.2367,4.5,141.9,241.5,112.5,225.3,-75.3,51.9,-31.5,-2593.5,239.4,510.9,707.1,33.6,-132.3,-37.2,-208.5,-6.0,-4.5,654.9,-1362.9,-1.8,114.3,-75.9,167.1,0,4026,0,140,0,
2.2400,2.4,137.4,231.6,100.5,216.3,-82.8,49.8,-37.8,-2519.4,230.4,494.7,689.7,25.5,-134.1,-27.6,-205.2,-6.3,-4.5,642.9,-1374.6,-1.5,110.4,-82.2,151.2,0,4032,0,141,0,
2.2433,-3.3,129.6,223.2,96.9,210.0,-88.5,45.0,-41.4,-2667.6,219.6,481.8,677.4,22.8,-136.5,-26.7,-207.0,-5.7,-4.5,630.6,-1386.9,-1.5,99.3,-89.7,143.7,0,4038,0,142,0,
2.2467,-0.6,124.8,222.9,91.8,202.8,-92.1,40.5,-43.5,-2445.3,206.4,483.3,673.5,20.4,-135.9,-18.3,-207.0,-6.3,-4.5,629.1,-1389.6,-1.5,92.7,-95.7,137.7,0,4044,0,143,0,
2.2500,-0.9,127.5,220.8,92.1,202.8,-95.4,42.0,-42.6,-2445.3,210.3,478.5,667.5,18.3,-141.3,-23.7,-207.3,-6.3,-4.5,626.4,-1394.7,-1.8,96.6,-84.6,136.2,0,4050,0,144,0,
2.2533,1.8,129.9,222.0,90.6,203.1,-90.9,39.0,-45.0,-2519.4,216.6,478.5,670.5,23.1,-138.6,-32.4,-219.6,-6.6,-4.2,630.0,-1391.4,-1.8,91.5,-88.5,136.2,0,4056,0,145,0,
2.2567,0.0,129.3,221.7,91.8,205.8,-90.6,38.4,-42.3,-2593.5,212.7,480.3,674.7,20.1,-140.1,-34.5,-213.6,-6.3,-4.5,628.2,-1389.6,-1.5,100.2,-86.1,143.7,0,4062,0,146,0,
2.2600,3.6,135.9,225.0,95.7,211.8,-80.7,45.3,-33.6,-2445.3,224.4,482.1,683.1,27.9,-139.2,-38.1,-213.0,-6.6,-4.8,634.5,-1378.5,-1.5,103.5,-85.5,147.0,0,4068,0,147,0,
2.2633,3.6,133.8,225.9,95.4,213.3,-80.7,43.5,-34.2,-2445.3,220.2,477.9,678.0,24.0,-139.8,-36.0,-221.1,-6.0,-4.8,630.6,-1381.5,-1.5,95.4,-96.3,148.2,0,4074,0,148,0,
2.2667,-5.1,129.0,220.2,92.7,207.6,-82.5,39.9,-36.9,-2445.3,208.8,467.4,672.0,18.9,-145.2,-38.1,-219.0,-6.0,-4.8,623.1,-1387.8,-1.5,95.1,-100.8,145.2,0,4080,0,149,0,
2.2700,-4.8,128.1,222.9,91.5,206.7,-86.7,38.1,-39.0,-2445.3,209.7,473.7,670.8,14.7,-151.2,-35.7,-225.3,-6.3,-4.8,631.2,-1391.1,-1.8,89.1,-97.8,130.5,0,4086,0,150,0,
2.2733,-6.3,133.2,231.3,99.3,216.0,-81.0,38.4,-37.8,-2445.3,219.3,490.5,682.2,24.6,-150.0,-45.6,-231.3,-6.3,-4.5,642.9,-1379.7,-1.8,93.6,-98.7,133.2,0,4092,0,151,0,
2.2767,-3.3,138.0,240.6,107.7,221.7,-75.0,40.2,-30.9,-2445.3,222.3,499.2,687.9,29.1,-153.6,-49.8,-234.3,-6.0,-4.5,655.8,-1374.6,-2.1,107.1,-95.1,149.4,0,4098,0,152,0,
2.2800,-8.4,132.9,233.7,106.8,221.1,-77.7,41.1,-30.6,-2371.2,214.8,486.0,675.6,21.0,-154.8,-48.6,-231.6,-6.6,-5.1,643.2,-1383.0,-1.5,99.9,-95.1,147.6,0,4104,0,153,0,
2.2833,-1.8,138.6,243.3,111.9,229.2,-69.6,46.2,-22.8,-2297.1,218.7,494.7,685.2,25.2,-153.6,-43.2,-227.7,-6.3,-4.8,652.2,-1376.1,-2.1,94.5,-91.2,147.6,0,4110,0,154,0,
2.2867,-2.7,144.6,248.7,125.4,245.1,-60.9,45.0,-18.3,-2445.3,232.8,509.7,703.8,29.7,-152.7,-54.9,-237.0,-6.3,-4.8,663.9,-1356.6,-1.8,113.4,-100.2,162.0,0,4116,0,155,0,
2.2900,0.6,152.7,262.2,138.9,259.5,-50.7,51.6,-5.1,-2519.4,246.0,531.0,729.9,38.1,-153.9,-69.9,-248.1,-6.6,-4.2,678.0,-1335.0,-1.8,127.5,-99.9,173.1,0,4122,0,156,0,
2.2933,-2.7,147.6,256.8,135.6,252.3,-54.9,52.5,-8.7,-2371.2,236.1,514.8,709.5,37.8,-156.3,-60.6,-232.8,-6.3,-4.2,664.5,-1351.5,-1.5,100.2,-95.4,156.3,0,4128,0,157,0,
2.2967,0.0,151.8,264.0,142.5,259.2,-45.9,57.6,0.6,-2223.0,236.7,525.6,713.7,36.3,-153.3,-66.6,-245.7,-6.0,-4.8,675.9,-1345.5,-1.8,112.2,-94.8,165.6,0,4134,0,158,0,
2.3000,3.6,152.1,262.2,139.5,257.1,-46.8,56.1,0.6,-2371.2,240.0,523.2,711.9,40.8,-147.0,-48.9,-235.2,-6.6,-4.8,678.3,-1345.5,-1.5,111.9,-88.2,167.1,0,4140,0,159,0,
2.3033,0.6,153.3,262.8,143.7,262.5,-38.1,60.3,-0.9,-2445.3,245.7,533.4,724.8,41.7,-144.9,-48.0,-237.3,-6.3,-4.2,682.2,-1334.7,-1.5,121.5,-86.7,180.0,0,4146,0,160,0,
2.3067,-0.3,148.8,259.5,139.8,257.1,-42.9,63.0,-3.9,-2445.3,241.2,525.0,717.6,39.3,-150.0,-52.5,-228.6,-6.3,-4.8,672.9,-1340.7,-2.1,120.6,-81.0,178.8,0,4152,0,161,0,
2.3100,2.1,148.5,252.6,131.1,250.2,-47.7,66.9,-9.9,-2445.3,233.7,511.2,706.8,34.2,-148.8,-35.7,-211.2,-6.0,-4.2,661.8,-1353.0,-1.5,108.3,-69.9,162.9,0,4158,0,162,0,
2.3133,5.1,155.1,259.2,138.9,257.1,-39.6,72.3,-2.7,-2371.2,245.7,516.6,714.9,43.8,-143.7,-58.2,-208.5,-6.3,-4.8,669.9,-1340.1,-1.8,117.6,-60.0,180.6,0,4164,0,163,0,
2.3167,1.5,152.7,259.8,138.0,254.7,-43.2,66.6,-5.7,-2371.2,249.3,524.1,719.4,44.1,-137.4,-55.2,-208.8,-6.3,-4.2,676.5,-1338.9,-1.8,126.3,-64.2,178.8,0,4170,0,164,0,
2.3200,9.0,159.3,266.4,144.9,252.6,-45.3,68.1,-3.3,-2519.4,253.8,531.0,718.2,51.3,-124.5,-31.2,-214.2,-6.0,-4.5,687.9,-1338.0,-1.8,125.7,-66.6,181.5,0,4176,0,165,0,
2.3233,11.1,159.6,267.0,144.3,251.1,-47.7,66.3,0.3,-2519.4,255.6,532.8,718.8,51.9,-116.7,-29.4,-212.7,-6.0,-4.8,694.5,-1342.2,-1.8,130.5,-60.9,174.3,0,4182,0,166,0,
2.3267,13.2,153.0,270.0,143.4,253.8,-48.0,64.5,-6.3,-2445.3,254.4,536.4,723.9,52.8,-118.5,-35.4,-217.2,-6.3,-4.8,693.0,-1336.8,-1.8,133.8,-66.9,175.2,0,4188,0,167,0,
2.3300,15.0,153.3,261.6,136.8,248.1,-54.6,61.5,-9.0,-2445.3,254.4,523.8,714.0,47.4,-112.8,-23.1,-208.2,-6.3,-4.8,679.8,-1344.6,-1.8,123.9,-66.3,168.0,0,4194,0,168,0,
2.3333,13.5,156.3,263.7,135.0,241.8,-58.2,58.5,-11.1,-2593.5,254.4,522.0,709.5,46.8,-122.7,-40.2,-218.1,-6.3,-4.5,682.8,-1349.1,-1.8,125.4,-68.7,164.7,0,4200,0,169,0,
2.3367,12.0,150.6,253.8,123.6,232.2,-66.9,50.7,-14.4,-2445.3,242.4,507.0,698.4,38.1,-117.0,-33.3,-216.9,-6.3,-4.2,667.8,-1357.2,-1.8,107.7,-76.8,154.5,0,4206,0,170,0,
2.3400,13.2,147.3,249.3,123.6,224.4,-75.0,45.9,-17.7,-2519.4,239.7,503.7,688.5,33.6,-113.1,-27.3,-222.9,-6.3,-4.8,666.0,-1370.7,-1.5,103.2,-83.7,149.1,0,4212,0,171,0,
2.3433,9.6,143.7,242.4,114.6,217.5,-85.5,39.3,-24.6,-2519.4,234.0,494.4,679.2,31.2,-123.6,-28.8,-216.0,-6.0,-4.2,659.7,-1380.3,-1.5,99.3,-88.5,135.6,0,4218,0,172,0,
2.3467,8.1,138.0,238.5,105.9,211.2,-90.3,34.5,-26.4,-2445.3,223.2,492.0,672.9,25.8,-123.6,-24.0,-216.0,-6.0,-4.5,655.8,-1386.6,-1.5,93.9,-97.5,126.3,0,4224,0,173,0,
2.3500,8.7,135.6,237.0,108.3,214.8,-89.1,36.6,-26.4,-2371.2,224.1,489.9,679.8,24.9,-128.4,-35.1,-232.5,-6.3,-4.5,647.1,-1380.0,-1.8,88.8,-103.5,135.3,0,4230,0,174,0,
2.3533,1.5,127.8,227.7,100.8,204.6,-100.8,31.2,-35.1,-2667.6,213.0,474.9,668.4,11.7,-135.0,-31.8,-233.4,-6.0,-4.5,640.8,-1390.2,-1.8,88.5,-111.6,125.7,0,4236,0,175,0,
2.3567,-3.6,123.0,222.6,100.8,203.1,-103.2,33.3,-32.4,-2667.6,201.0,475.5,667.8,0.0,-147.3,-34.2,-227.4,-6.0,-4.5,637.2,-1389.3,-2.1,81.3,-103.5,116.7,0,4242,0,176,0,
2.3600,-7.2,118.2,224.4,100.2,209.4,-96.6,36.9,-32.4,-2519.4,198.9,480.0,674.1,6.9,-149.7,-44.1,-236.7,-6.3,-4.5,638.7,-1384.2,-2.1,87.0,-106.2,125.4,0,4248,0,177,0,
2.3633,-5.1,120.3,222.6,100.8,208.8,-96.3,36.0,-33.6,-2445.3,198.6,476.7,667.2,4.5,-150.0,-37.8,-229.2,-6.3,-4.5,629.1,-1392.3,-1.8,76.2,-110.7,123.9,0,4254,0,178,0,
2.3667,-7.5,119.4,224.1,101.7,208.5,-96.3,37.8,-33.3,-2445.3,192.0,471.3,664.2,3.0,-154.2,-47.4,-232.5,-6.3,-4.5,629.1,-1392.9,-1.8,68.7,-108.9,109.5,0,4260,0,179,0,
2.3700,-5.7,119.7,220.8,101.4,208.5,-92.7,38.4,-29.7,-2445.3,196.2,469.8,662.1,9.0,-155.7,-47.7,-242.4,-6.0,-4.5,628.2,-1390.5,-2.1,74.4,-113.1,117.6,0,4266,0,180,0,
2.3733,-7.8,116.4,219.3,101.4,204.3,-95.7,34.2,-30.0,-2667.6,190.2,468.9,660.6,7.8,-156.3,-38.4,-244.2,-6.3,-4.8,627.9,-1393.2,-1.8,60.9,-124.5,116.4,0,4272,0,181,0,
2.3767,-6.6,118.8,225.9,107.7,211.8,-94.5,39.3,-26.7,-2519.4,196.5,476.7,664.5,6.6,-158.1,-49.2,-240.3,-6.3,-4.5,633.0,-1388.1,-1.8,72.6,-119.1,124.8,0,4278,0,182,0,
2.3800,-6.0,125.4,234.3,114.9,219.0,-85.5,42.0,-21.9,-2519.4,209.4,486.3,676.5,12.0,-157.5,-71.7,-245.1,-6.3,-4.5,640.8,-1377.3,-1.5,86.1,-118.8,131.1,0,4284,0,183,0,
2.3833,-6.6,127.8,238.2,120.3,225.0,-79.8,42.0,-17.1,-2519.4,213.3,492.6,684.9,15.0,-160.5,-64.5,-246.3,-6.3,-4.8,646.2,-1366.8,-1.8,83.1,-115.2,137.4,0,4290,0,184,0,
2.3867,-6.0,129.0,246.6,124.5,228.6,-76.8,44.7,-10.8,-2593.5,215.1,501.0,691.5,14.1,-162.6,-60.3,-241.8,-6.3,-4.2,656.4,-1363.2,-1.8,90.3,-105.9,136.5,0,4296,0,185,0,
2.3900,-6.0,132.0,250.5,126.9,235.5,-71.4,46.2,-8.7,-2519.4,218.1,505.2,698.1,18.6,-161.1,-53.7,-239.1,-5.7,-4.5,659.1,-1356.9,-1.5,96.6,-96.0,142.8,0,4302,0,186,0,
