# Mains_Frequency_(Hz) =,60,,,,,,,,,,,,,,,,,,,,,,,,,,,
# Sample_Frequency_(Hz) =,300,,,,,,,,,,,,,,,,,,,,,,,,,,,
# Filter_Delay_(ms) =,43.3,,,,,,,,,,,,,,,,,,,,,,,,,,,
# Sensor_Data_Units =,uV,,,,,,,,,,,,,,,,,,,,,,,,,,,
# Headset_Name =,DSI-24 SN:1580,,,,,,,,,,,,,,,,,,,,,,,,,,,
# Data_Logger =,DSI-Streamer-v.1.08.31,,,,,,,,,,,,,,,,,,,,,,,,,,,
# Date =,4/20/2018,,,,,,,,,,,,,,,,,,,,,,,,,,,
# Time =,11:39:05,,,,,,,,,,,,,,,,,,,,,,,,,,,
# Patient_ID =,X F 01-MAY-1999 X,,,,,,,,,,,,,,,,,,,,,,,,,,,
# Record_ID =,Startdate 20-APR-2018 EEG_XX X X,,,,,,,,,,,,,,,,,,,,,,,,,,,
# Filter =,Non-Filtered,,,,,,,,,,,,,,,,,,,,,,,,,,,
# Comments =,,,,,,,,,,,,,,,,,,,,,,,,,,,,
# Reference location:,Pz,,,,,,,,,,,,,,,,,,,,,,,,,,,
# Trigger Source,Wireless,,,,,,,,,,,,,,,,,,,,,,,,,,,
# Channel_Number =,ch_1,ch_2,ch_3,ch_4,ch_5,ch_6,ch_7,ch_8,ch_9,ch_10,ch_11,ch_12,ch_13,ch_14,ch_15,ch_16,ch_17,ch_18,ch_19,ch_20,ch_21,ch_22,ch_23,ch_24,Trigger,Time_Offset,ADC_Status,ADC_Sequence,Event,Comments
Time,P3,C3,F3,Fz,F4,C4,P4,Cz,CM,A1,Fp1,Fp2,T3,T5,O1,O2,X3,X2,F7,F8,X1,A2,T6,T4,Trigger,Time_Offset,ADC_Status,ADC_Sequence,Event,Comments
0.0033,-40.5,383.1,326.7,109.8,92.4,419.4,65.7,-71.1,-2889.9,400.5,200.1,303.0,1994.1,1361.4,-167.4,-238.5,-6.3,-4.2,366.0,-14.1,-1.8,211.5,-1548.6,908.7,0,6,0,95,0,Start Data Acquisition
0.0067,-44.4,382.2,327.3,108.9,96.9,422.4,71.1,-69.0,-2815.8,393.6,201.3,308.7,1989.6,1321.8,-162.6,-225.0,-6.0,-4.5,363.0,-8.7,-1.8,217.5,-1544.7,925.5,0,12,0,96,0,
0.0100,-36.3,391.2,331.2,109.8,97.5,426.3,69.0,-66.9,-2815.8,400.8,201.0,303.0,2003.1,1361.7,-164.4,-239.1,-6.3,-4.5,372.6,-8.7,-1.5,211.2,-1563.3,913.8,0,18,0,97,0,
0.0133,-46.5,378.3,325.8,113.1,97.8,424.8,75.6,-63.9,-2741.7,394.8,205.5,308.4,1996.5,1348.8,-169.2,-225.0,-6.0,-4.5,365.7,-8.1,-1.8,211.2,-1561.2,944.7,0,24,0,98,0,
0.0167,-38.4,401.1,332.7,108.3,89.4,410.4,66.0,-64.8,-2889.9,376.5,198.6,296.7,2031.0,1314.0,-163.8,-221.7,-6.3,-4.5,364.5,-20.7,-2.1,188.7,-1554.9,888.9,0,30,0,99,0,
0.0200,-44.4,383.7,329.1,109.2,91.8,416.7,73.8,-63.3,-2741.7,370.8,194.7,301.8,1976.4,1336.5,-153.6,-222.6,-6.3,-4.2,356.4,-14.7,-1.5,190.8,-1548.3,908.7,0,36,0,100,0,
0.0233,-43.2,383.1,326.7,112.8,95.1,424.2,78.0,-64.5,-2889.9,408.9,199.5,304.5,1983.0,1334.1,-167.4,-219.0,-6.0,-4.5,357.6,-13.8,-1.5,208.5,-1543.2,918.9,0,42,0,101,0,
0.0267,-48.0,379.8,322.2,106.5,86.4,412.8,73.2,-67.5,-2815.8,379.8,194.1,294.3,1960.2,1327.8,-150.3,-222.0,-5.7,-4.5,354.9,-22.5,-1.5,194.1,-1556.1,891.3,0,48,0,102,0,
0.0300,-49.8,375.0,326.7,109.8,89.1,415.8,70.5,-68.1,-2741.7,401.7,194.7,293.7,1964.1,1323.6,-153.3,-218.7,-6.0,-4.5,359.4,-24.0,-2.1,198.6,-1567.2,891.3,0,54,0,103,0,
0.0333,-46.8,379.2,331.2,115.5,97.2,418.5,72.9,-58.8,-2964.0,400.2,200.7,306.3,1987.2,1320.6,-164.1,-238.5,-6.3,-4.8,362.4,-11.7,-1.5,197.7,-1545.6,921.0,0,60,0,104,0,
0.0367,-40.8,381.6,330.0,114.3,95.4,412.2,68.7,-58.5,-2741.7,392.4,202.5,305.4,1991.4,1333.8,-165.9,-253.2,-6.0,-4.5,363.9,-12.9,-2.1,210.6,-1569.6,885.9,0,66,0,105,0,
0.0400,-46.2,390.9,332.4,111.9,96.9,412.5,72.0,-57.0,-2889.9,393.3,200.1,303.6,1971.3,1305.6,-175.2,-234.0,-6.3,-4.5,363.3,-13.8,-1.5,208.8,-1553.4,891.6,0,72,0,106,0,
0.0433,-43.5,381.3,325.5,111.6,93.9,413.7,73.2,-59.7,-2815.8,378.0,197.1,303.3,1974.6,1328.7,-173.4,-232.5,-6.0,-4.5,355.8,-11.4,-2.1,210.3,-1555.2,909.9,0,78,0,107,0,
0.0467,-42.3,379.8,325.5,111.3,91.2,403.8,71.4,-63.6,-2815.8,389.1,196.8,298.5,1980.0,1333.5,-148.8,-227.1,-6.6,-4.5,356.7,-18.0,-1.8,208.5,-1558.5,904.2,0,84,0,108,0,
0.0500,-45.6,376.5,318.3,106.8,90.0,405.6,72.9,-62.7,-2889.9,374.7,195.3,301.5,1979.1,1325.1,-171.9,-238.2,-6.3,-4.8,354.3,-15.9,-1.5,210.0,-1550.4,898.5,0,90,0,109,0,
0.0533,-48.0,377.4,323.7,105.0,88.2,410.1,69.0,-65.1,-2815.8,394.8,194.4,293.7,1972.8,1297.8,-160.2,-232.8,-6.0,-4.5,352.8,-21.0,-1.8,211.5,-1558.8,884.7,0,96,0,110,0,
0.0567,-53.1,369.3,315.6,101.7,87.3,417.3,67.8,-69.6,-2741.7,385.8,193.5,289.2,1971.0,1321.2,-160.5,-244.8,-6.3,-4.8,352.2,-21.3,-1.8,193.2,-1562.1,892.2,0,102,0,111,0,
0.0600,-51.0,369.0,318.3,108.0,92.7,408.3,69.9,-66.9,-2889.9,390.6,194.4,299.4,1977.3,1305.3,-161.7,-234.6,-6.3,-4.2,352.2,-15.9,-1.8,216.0,-1543.8,874.5,0,108,0,112,0,
0.0633,-48.3,373.8,316.8,100.2,84.6,403.2,71.4,-69.9,-2815.8,368.7,186.6,294.3,1977.6,1309.2,-166.2,-245.1,-6.3,-4.5,342.9,-18.3,-1.8,201.3,-1559.4,900.9,0,114,0,113,0,
0.0667,-51.6,363.0,309.6,99.0,83.4,410.1,67.2,-73.5,-2889.9,382.8,184.8,292.8,1930.5,1321.5,-158.1,-223.2,-6.0,-4.8,342.9,-19.5,-2.1,200.7,-1566.0,892.5,0,120,0,114,0,
0.0700,-51.0,365.1,318.0,101.4,84.3,405.6,71.4,-71.4,-2889.9,396.0,192.6,295.2,1975.5,1308.3,-162.3,-221.7,-6.3,-4.5,349.8,-22.2,-1.8,188.4,-1568.1,873.9,0,126,0,115,0,
0.0733,-49.5,365.4,315.6,99.9,82.8,399.6,69.0,-71.1,-2889.9,383.7,189.3,294.3,1974.6,1296.3,-162.0,-222.3,-6.0,-4.2,346.2,-24.6,-1.5,196.5,-1552.5,873.9,0,132,0,116,0,
0.0767,-48.6,369.6,321.0,105.0,92.1,415.8,74.4,-67.8,-2889.9,388.2,191.1,297.0,1958.4,1299.0,-165.0,-228.6,-6.3,-4.5,350.4,-12.0,-1.8,202.5,-1560.3,919.8,0,138,0,117,0,
0.0800,-40.8,368.4,319.8,104.1,90.9,414.6,69.6,-67.2,-2815.8,389.4,194.1,298.8,1954.2,1320.9,-161.1,-234.6,-6.3,-4.5,354.0,-15.3,-1.8,215.7,-1563.3,856.2,0,144,0,118,0,
0.0833,-41.1,368.4,317.4,98.4,83.7,407.4,69.0,-70.8,-2964.0,397.8,191.1,287.1,1975.5,1304.1,-159.9,-233.7,-6.3,-4.5,352.8,-24.9,-1.8,197.1,-1555.8,892.8,0,150,0,119,0,
0.0867,-41.4,364.5,321.0,98.7,84.9,406.5,68.1,-69.9,-2964.0,408.6,196.2,294.6,1960.5,1305.6,-166.2,-240.3,-6.0,-4.5,354.6,-23.1,-2.1,225.0,-1568.4,856.2,0,156,0,120,0,
0.0900,-47.4,359.7,306.3,90.6,80.1,406.8,65.4,-80.4,-2815.8,379.8,181.2,288.3,1986.0,1314.9,-155.1,-225.6,-6.3,-4.5,340.5,-30.9,-1.8,199.2,-1555.2,878.4,0,162,0,121,0,
0.0933,-45.9,355.5,310.8,94.2,87.6,411.6,71.7,-75.6,-2815.8,392.1,183.6,293.7,1971.3,1314.9,-160.5,-214.8,-6.3,-4.5,340.2,-18.6,-1.8,210.3,-1549.8,903.9,0,168,0,122,0,
0.0967,-41.4,366.3,315.9,99.0,87.0,412.2,72.6,-78.9,-2815.8,384.9,186.9,293.4,1973.7,1311.0,-146.1,-208.5,-6.0,-4.2,348.6,-19.2,-1.8,187.8,-1556.1,873.6,0,174,0,123,0,
0.1000,-44.1,366.0,321.0,97.5,80.7,406.8,72.6,-75.3,-2889.9,397.8,188.4,288.6,1965.9,1326.0,-144.6,-220.2,-6.0,-4.8,351.0,-23.4,-1.5,213.9,-1558.2,855.6,0,180,0,124,0,
0.1033,-47.4,358.2,314.1,98.7,87.3,409.2,68.7,-74.1,-2889.9,384.6,187.2,291.6,1957.5,1297.2,-147.9,-212.1,-6.3,-4.2,343.2,-19.2,-1.5,212.1,-1563.3,873.0,0,186,0,125,0,
0.1067,-48.0,360.3,318.0,99.3,87.9,410.7,69.6,-71.4,-2889.9,396.6,192.6,295.5,1960.2,1307.4,-155.7,-224.4,-6.3,-4.5,348.6,-16.2,-1.5,208.2,-1558.5,874.5,0,192,0,126,0,
0.1100,-45.9,354.9,316.2,103.5,92.1,420.0,73.8,-70.8,-2741.7,394.8,197.7,303.0,1944.3,1302.6,-165.0,-237.0,-5.7,-4.2,349.5,-10.5,-1.5,207.0,-1548.6,896.7,0,198,0,127,0,
0.1133,-47.1,346.8,311.4,96.6,86.4,409.8,76.5,-73.8,-2889.9,397.5,192.3,295.2,1944.9,1320.0,-153.0,-208.2,-6.0,-4.2,343.2,-16.2,-1.5,226.8,-1556.7,888.0,0,204,0,128,0,
0.1167,-39.3,366.9,325.5,106.8,94.8,414.9,76.5,-69.0,-2815.8,400.8,204.6,305.1,1991.4,1311.6,-168.0,-238.5,-6.3,-4.5,361.5,-3.9,-1.5,221.4,-1532.4,877.2,0,210,0,129,0,
0.1200,-41.7,362.4,326.7,111.6,97.2,416.1,74.4,-69.0,-2889.9,410.4,207.9,305.7,1969.8,1316.7,-169.5,-233.7,-6.0,-4.5,360.9,-7.5,-2.1,225.0,-1569.6,903.0,0,216,0,130,0,
0.1233,-39.3,365.7,327.6,113.4,103.8,422.7,81.3,-65.1,-2815.8,406.8,207.9,314.1,1992.6,1298.7,-152.7,-217.2,-6.3,-4.2,359.1,-6.0,-1.8,205.5,-1536.3,889.8,0,222,0,131,0,
0.1267,-42.0,368.4,328.8,111.0,96.9,417.6,75.9,-65.4,-2889.9,409.5,201.6,300.6,2019.6,1314.0,-156.3,-209.1,-6.0,-4.5,357.0,-15.3,-1.8,220.8,-1557.3,872.7,0,228,0,132,0,
0.1300,-42.0,369.3,331.2,113.1,96.0,418.5,82.2,-66.9,-2815.8,409.5,209.7,305.1,1981.5,1298.1,-152.1,-230.7,-6.3,-4.8,366.3,-8.1,-1.5,209.4,-1538.4,880.5,0,234,0,133,0,
0.1333,-41.7,366.0,330.9,111.9,97.8,418.2,77.4,-66.3,-2964.0,403.5,206.1,307.8,1955.1,1309.2,-157.5,-231.0,-6.0,-4.5,360.3,-7.5,-1.8,236.4,-1560.6,860.1,0,240,0,134,0,
0.1367,-45.6,368.7,328.8,115.2,102.9,429.9,78.0,-63.3,-2964.0,384.6,204.6,312.6,1991.4,1291.5,-163.2,-246.6,-6.3,-4.5,361.5,2.4,-1.8,216.6,-1562.1,879.3,0,246,0,135,0,
0.1400,-42.0,361.5,327.0,111.0,93.6,410.1,75.3,-67.5,-2889.9,411.3,200.1,297.6,1960.5,1295.4,-159.6,-227.4,-6.0,-4.2,354.6,-13.8,-1.5,219.6,-1574.1,870.6,0,252,0,136,0,
0.1433,-42.0,370.2,322.2,109.2,94.2,413.7,70.2,-69.3,-2964.0,396.6,201.3,302.4,1950.9,1295.1,-159.9,-231.3,-6.0,-4.2,356.1,-11.1,-1.5,190.2,-1565.4,877.5,0,258,0,137,0,
0.1467,-51.6,353.4,314.1,103.5,94.2,405.6,72.3,-69.0,-2889.9,391.2,193.5,294.9,1945.5,1312.2,-147.3,-221.7,-6.3,-4.2,343.2,-19.2,-1.8,209.7,-1559.4,870.0,0,264,0,138,0,
0.1500,-45.3,355.8,316.8,102.6,92.4,407.1,70.8,-70.2,-2964.0,398.4,197.4,292.5,1953.3,1290.6,-147.3,-222.3,-6.3,-4.5,348.0,-17.1,-1.5,211.5,-1571.1,861.3,0,270,0,139,0,
0.1533,-41.4,356.7,322.2,106.2,102.3,415.8,72.9,-61.2,-2815.8,414.0,201.6,302.1,1948.2,1299.9,-151.2,-235.2,-6.0,-4.2,349.2,-18.6,-1.8,234.6,-1583.1,855.0,0,276,0,140,0,
0.1567,-49.5,349.8,324.0,101.7,99.9,411.0,70.2,-67.2,-2815.8,400.5,197.1,295.2,1979.4,1279.8,-158.1,-223.8,-6.0,-4.5,348.0,-28.8,-1.8,218.1,-1570.2,869.4,0,282,0,141,0,
0.1600,-43.5,360.6,320.4,103.5,104.4,426.6,75.9,-62.1,-2741.7,402.9,195.3,294.6,1990.5,1289.1,-167.7,-240.9,-6.0,-4.8,348.3,-29.1,-1.5,213.3,-1567.2,856.2,0,288,0,142,0,
0.1633,-41.1,354.0,313.5,101.7,93.9,420.3,80.1,-65.1,-3038.1,381.6,193.2,295.2,1945.8,1305.3,-162.6,-234.9,-6.0,-4.5,340.8,-15.3,-2.1,192.6,-1562.4,875.4,0,294,0,143,0,
0.1667,-41.1,351.6,314.1,100.5,92.4,414.9,81.3,-69.0,-2964.0,392.1,194.1,295.8,1960.8,1297.8,-153.6,-216.9,-6.0,-4.5,343.8,-17.4,-1.5,208.8,-1553.4,862.2,0,300,0,144,0,
0.1700,-40.5,356.1,316.2,104.1,90.3,415.5,80.7,-68.1,-2964.0,400.2,195.9,297.6,1967.7,1296.3,-156.0,-219.3,-6.0,-4.8,348.9,-13.5,-1.5,222.3,-1569.9,867.6,0,306,0,145,0,
0.1733,-42.3,352.2,315.9,104.7,90.0,416.7,81.0,-67.8,-2889.9,390.3,193.8,300.9,1959.9,1289.7,-154.5,-221.1,-6.3,-4.8,344.4,-15.6,-1.5,213.0,-1559.1,862.5,0,312,0,146,0,
0.1767,-36.3,357.6,319.8,108.6,93.3,419.1,80.7,-63.3,-2815.8,400.8,196.2,298.8,1967.7,1307.1,-162.3,-227.7,-6.0,-4.2,348.0,-15.6,-2.1,200.7,-1559.4,884.7,0,318,0,147,0,
0.1800,-31.8,363.9,323.1,109.8,99.6,423.3,78.0,-60.3,-2815.8,402.0,197.7,295.8,1981.2,1280.7,-160.2,-234.6,-6.0,-4.5,350.1,-15.6,-1.5,202.2,-1573.5,855.0,0,324,0,148,0,
0.1833,-37.2,361.8,328.2,114.6,91.2,410.4,78.0,-60.0,-2889.9,406.5,204.6,294.6,1973.4,1278.0,-143.4,-215.1,-6.6,-4.5,359.7,-20.1,-1.8,213.3,-1560.9,843.6,0,330,0,149,0,
0.1867,-35.1,361.2,321.3,105.3,90.9,407.7,82.2,-62.1,-2815.8,381.3,192.0,292.5,1957.5,1293.6,-142.8,-220.8,-6.0,-4.8,349.5,-20.4,-2.1,207.9,-1552.5,853.2,0,336,0,150,0,
0.1900,-38.1,361.2,320.1,109.2,99.6,413.1,77.4,-64.2,-2741.7,399.9,196.8,293.7,1964.4,1278.0,-161.4,-214.2,-6.3,-4.5,350.4,-16.5,-2.1,208.8,-1578.9,881.7,0,342,0,151,0,
0.1933,-32.1,357.3,321.6,107.1,99.3,413.7,78.6,-65.7,-2964.0,400.5,199.5,291.6,1963.2,1304.7,-152.4,-234.0,-6.0,-4.5,347.7,-22.2,-1.5,208.2,-1560.9,846.6,0,348,0,152,0,
0.1967,-40.8,350.1,317.4,103.8,93.9,410.1,81.6,-67.5,-2815.8,400.5,186.6,287.1,1931.7,1274.4,-149.7,-212.7,-6.3,-4.5,339.6,-22.5,-1.5,211.2,-1557.6,860.7,0,354,0,153,0,
0.2000,-39.3,358.2,313.8,106.8,91.8,413.4,79.2,-66.3,-2964.0,393.0,188.7,291.9,1949.4,1292.1,-159.3,-221.7,-6.3,-4.2,343.8,-19.8,-2.1,205.8,-1576.2,858.9,0,360,0,154,0,
0.2033,-43.2,347.1,312.9,101.4,89.4,412.5,76.8,-67.2,-2889.9,383.1,191.4,287.7,1954.2,1280.4,-165.9,-240.3,-6.3,-4.8,344.7,-26.4,-1.5,196.8,-1593.9,871.2,0,366,0,155,0,
0.2067,-41.1,341.1,309.6,100.8,87.3,412.8,81.3,-67.5,-2889.9,402.0,190.8,285.3,1934.7,1278.3,-158.7,-238.8,-6.3,-4.5,343.8,-27.3,-2.1,195.0,-1585.8,846.6,0,372,0,156,0,
0.2100,-39.9,354.6,311.7,102.0,86.4,405.9,81.9,-67.2,-2815.8,387.0,187.5,286.5,1944.6,1260.9,-166.2,-214.8,-6.3,-4.2,341.7,-24.9,-1.8,213.0,-1581.3,828.3,0,378,0,157,0,
0.2133,-46.5,342.6,301.5,96.3,81.6,409.8,84.9,-71.7,-2889.9,378.0,177.6,279.9,1931.4,1251.3,-162.9,-208.2,-6.3,-4.2,330.6,-29.4,-2.1,202.8,-1574.4,870.3,0,384,0,158,0,
0.2167,-42.0,345.3,312.6,109.5,93.0,409.5,78.6,-66.9,-2964.0,394.2,192.6,294.0,1954.8,1281.3,-172.2,-254.4,-6.0,-4.2,347.4,-18.9,-1.5,207.3,-1580.1,842.7,0,390,0,159,0,
0.2200,-39.0,350.7,311.7,106.5,86.1,410.7,79.8,-62.7,-2964.0,397.5,194.1,289.2,1948.8,1286.7,-165.0,-243.3,-6.0,-4.8,348.6,-23.1,-2.1,210.3,-1563.0,844.2,0,396,0,160,0,
0.2233,-42.6,344.7,308.4,98.7,83.4,391.5,74.4,-73.5,-2889.9,391.8,191.4,280.2,1982.1,1287.0,-147.6,-221.7,-6.0,-4.5,345.3,-36.0,-1.8,197.4,-1568.1,849.0,0,402,0,161,0,
0.2267,-36.3,347.1,312.3,102.9,95.1,407.4,82.8,-66.9,-2964.0,395.1,193.8,285.0,1967.1,1281.9,-168.3,-235.2,-6.3,-4.5,346.2,-25.8,-1.8,198.0,-1568.1,835.2,0,408,0,162,0,
0.2300,-36.3,349.5,314.7,108.0,90.0,405.3,80.4,-66.0,-2889.9,396.6,197.4,284.4,1947.9,1295.1,-150.9,-233.1,-6.3,-4.5,350.1,-18.9,-1.5,198.3,-1583.4,844.5,0,414,0,163,0,
0.2333,-31.2,361.8,319.2,108.9,95.7,408.0,74.1,-62.4,-2964.0,398.7,197.7,296.1,1964.7,1283.1,-167.1,-258.0,-6.3,-4.5,351.6,-22.2,-1.8,199.2,-1590.3,862.2,0,420,0,164,0,
0.2367,-34.5,356.4,317.7,108.9,91.5,397.2,73.8,-63.0,-2889.9,392.1,194.7,291.9,1945.8,1273.8,-158.7,-255.9,-6.3,-4.5,348.6,-17.4,-1.5,218.4,-1572.6,857.4,0,426,0,165,0,
0.2400,-38.4,344.1,314.7,104.7,91.5,395.7,72.6,-66.3,-2889.9,414.6,196.5,297.3,1935.0,1257.0,-148.8,-226.8,-6.3,-4.2,345.6,-12.9,-2.1,200.7,-1563.6,840.3,0,432,0,166,0,
0.2433,-37.8,344.4,314.1,103.5,89.4,392.4,69.3,-69.6,-2741.7,388.5,195.0,296.4,1929.0,1279.8,-142.2,-227.4,-6.3,-4.5,349.8,-13.2,-1.5,204.0,-1605.6,849.0,0,438,0,167,0,
0.2467,-32.7,351.9,319.8,108.3,103.2,420.0,77.4,-65.1,-2815.8,415.5,199.8,296.4,1933.8,1273.2,-163.8,-240.3,-6.3,-4.8,357.6,-7.2,-1.8,200.7,-1579.5,849.0,0,444,0,168,0,
0.2500,-36.6,345.6,314.7,104.4,90.3,400.5,72.0,-71.4,-3038.1,391.8,190.5,288.0,1938.9,1271.1,-142.2,-228.3,-6.3,-4.5,347.7,-15.3,-1.5,199.8,-1597.2,847.2,0,450,0,169,0,
0.2533,-34.5,343.8,324.0,110.4,100.2,396.3,76.8,-60.0,-2815.8,425.7,203.1,297.6,1966.8,1273.5,-156.0,-233.4,-6.0,-4.5,360.3,-12.6,-1.8,220.2,-1587.6,838.2,0,456,0,170,0,
0.2567,-38.7,340.5,318.6,107.4,97.8,396.9,77.1,-68.4,-2741.7,403.5,199.8,293.1,1958.4,1269.9,-143.7,-215.7,-6.0,-4.2,358.8,-13.8,-1.5,206.4,-1581.6,838.2,0,462,0,171,0,
0.2600,-37.5,332.7,312.9,107.1,102.9,404.7,81.6,-69.3,-2889.9,407.7,197.7,293.1,1926.6,1282.2,-140.1,-215.7,-6.3,-4.2,351.3,-11.4,-2.1,216.6,-1582.5,857.7,0,468,0,172,0,
0.2633,-35.7,335.7,309.3,103.5,95.7,396.9,78.3,-73.2,-2815.8,389.4,192.0,290.7,1953.9,1272.3,-144.0,-217.5,-6.6,-4.5,347.1,-17.4,-1.5,202.8,-1581.9,852.0,0,474,0,173,0,
0.2667,-35.7,342.6,321.0,107.1,102.3,403.5,79.5,-70.8,-2815.8,392.4,196.5,293.7,1966.8,1274.7,-157.5,-224.1,-6.0,-4.5,350.7,-10.2,-1.8,203.4,-1574.7,848.7,0,480,0,174,0,
0.2700,-39.3,337.8,315.6,111.6,105.6,409.2,81.0,-67.8,-2889.9,409.2,198.3,298.2,1908.9,1252.2,-161.4,-239.7,-6.3,-4.2,348.3,-8.4,-1.8,227.1,-1598.7,849.6,0,486,0,175,0,
0.2733,-39.9,338.7,326.7,114.9,110.1,410.1,84.0,-64.8,-2741.7,414.9,207.3,303.0,1924.2,1241.7,-156.3,-233.1,-6.3,-3.9,363.6,-6.3,-1.5,209.1,-1578.3,861.3,0,492,0,176,0,
0.2767,-38.4,333.0,318.3,110.7,112.8,411.6,83.4,-68.7,-2815.8,392.7,202.2,298.8,1932.9,1276.2,-147.9,-214.5,-6.3,-4.5,356.7,-14.1,-1.8,202.8,-1573.2,842.4,0,498,0,177,0,
0.2800,-33.3,340.5,324.6,112.2,109.8,409.2,77.7,-64.5,-2815.8,410.1,204.0,297.9,1948.5,1277.4,-150.6,-237.6,-6.3,-4.5,362.7,-24.0,-1.8,196.5,-1585.5,814.2,0,504,0,178,0,
0.2833,-39.0,341.1,324.0,114.6,100.8,394.8,77.1,-66.3,-3038.1,402.3,201.9,294.6,1932.0,1261.5,-144.6,-228.9,-6.0,-4.5,356.4,-16.8,-1.8,215.7,-1571.7,847.5,0,510,0,179,0,
0.2867,-35.4,341.1,328.2,115.5,105.3,403.2,80.1,-65.1,-2889.9,396.6,207.3,301.2,1935.6,1267.8,-157.2,-231.3,-6.0,-4.5,359.4,-8.7,-2.1,198.6,-1579.8,856.5,0,516,0,180,0,
0.2900,-38.4,333.9,320.7,110.7,97.2,397.8,79.8,-63.6,-2815.8,398.4,200.1,295.5,1933.2,1282.5,-152.4,-225.0,-6.3,-4.5,356.1,-10.5,-1.8,212.1,-1573.8,865.8,0,522,0,181,0,
0.2933,-36.6,331.2,316.2,105.6,89.4,388.5,74.4,-70.2,-2741.7,399.6,193.5,287.7,1944.3,1269.0,-152.4,-230.4,-6.3,-4.8,349.5,-19.2,-1.5,196.8,-1587.6,840.6,0,528,0,182,0,
0.2967,-40.5,337.2,325.5,113.1,103.8,397.8,78.0,-63.3,-2815.8,404.7,203.1,294.3,1947.3,1228.2,-157.2,-234.6,-6.0,-4.2,359.4,-13.5,-1.8,209.1,-1577.1,832.8,0,534,0,183,0,
0.3000,-35.1,338.4,319.5,105.9,98.7,401.4,79.2,-69.0,-2964.0,393.0,198.9,291.9,1911.9,1247.1,-153.3,-204.9,-6.6,-4.5,353.1,-28.8,-2.1,198.3,-1578.3,819.0,0,540,0,184,0,
0.3033,-34.8,331.5,317.4,107.1,96.0,398.4,73.5,-70.5,-2889.9,406.5,200.4,291.3,1923.9,1239.6,-151.5,-234.3,-6.3,-4.5,353.7,-23.4,-1.8,211.5,-1583.4,835.5,0,546,0,185,0,
0.3067,-38.4,331.8,313.5,102.6,90.3,397.2,73.8,-72.6,-2815.8,389.4,193.2,283.5,1936.2,1257.0,-168.6,-231.9,-6.6,-4.2,347.7,-16.2,-1.5,203.7,-1581.9,845.4,0,552,0,186,0,
0.3100,-40.8,330.9,314.1,100.2,86.4,390.0,76.8,-69.0,-2889.9,396.0,192.9,284.1,1924.5,1246.2,-152.7,-227.1,-6.0,-4.8,349.5,-21.0,-1.8,203.7,-1572.0,844.8,0,558,0,187,0,
0.3133,-35.4,337.8,321.6,112.2,99.6,400.5,81.6,-62.4,-2741.7,413.4,204.6,288.3,1935.3,1257.6,-163.2,-239.4,-6.3,-4.2,356.4,-25.2,-1.8,207.9,-1590.0,828.6,0,564,0,188,0,
0.3167,-40.2,330.9,317.1,106.2,96.3,394.2,71.7,-69.6,-2889.9,399.6,195.0,281.1,1947.0,1257.3,-161.7,-244.8,-6.3,-4.5,349.8,-35.7,-1.8,189.9,-1584.9,785.7,0,570,0,189,0,
0.3200,-43.8,321.6,309.3,98.4,82.8,385.2,69.9,-76.8,-2964.0,390.9,182.1,270.0,1925.7,1262.1,-149.4,-216.0,-6.3,-4.2,338.1,-34.8,-1.8,182.4,-1582.5,824.7,0,576,0,190,0,
0.3233,-43.2,323.4,320.4,103.8,89.4,390.6,75.3,-73.8,-2815.8,394.2,199.8,285.9,1930.8,1226.4,-165.6,-245.7,-5.7,-4.2,357.0,-22.2,-2.1,199.2,-1584.0,832.2,0,582,0,191,0,
0.3267,-36.9,334.5,319.5,107.1,91.8,392.1,78.3,-65.4,-2815.8,392.4,197.4,295.8,1926.6,1245.3,-164.7,-246.3,-6.3,-4.8,353.7,-14.1,-1.8,209.1,-1582.5,828.0,0,588,0,192,0,
0.3300,-44.1,325.5,315.0,102.9,92.4,393.6,80.1,-65.7,-2741.7,402.6,194.1,289.5,1916.7,1218.3,-183.9,-240.9,-6.0,-4.8,343.8,-19.2,-1.8,199.2,-1571.1,825.0,0,594,0,193,0,
0.3333,-41.1,317.4,308.7,96.9,99.0,390.0,78.6,-67.5,-3038.1,378.3,181.5,284.1,1923.3,1241.1,-167.1,-231.6,-6.6,-4.5,331.8,-40.2,-1.8,195.0,-1575.6,846.3,0,600,0,194,0,
0.3367,-44.7,317.1,310.8,98.1,100.2,393.9,78.6,-67.8,-2815.8,397.2,186.0,268.2,1931.4,1230.9,-173.4,-251.7,-6.0,-4.8,339.9,-47.4,-2.1,182.7,-1584.6,826.2,0,606,0,195,0,
0.3400,-42.9,315.9,303.3,91.2,85.5,390.9,72.9,-72.0,-2889.9,392.4,177.6,264.6,1917.9,1237.8,-161.1,-248.1,-6.0,-4.5,336.0,-34.2,-1.5,180.0,-1598.1,826.2,0,612,0,196,0,
0.3433,-39.6,329.1,311.4,97.5,86.1,385.5,71.7,-69.6,-2889.9,414.0,189.3,273.9,1917.6,1226.1,-175.5,-261.3,-6.0,-4.8,350.4,-29.7,-1.5,195.3,-1604.7,778.8,0,618,0,197,0,
0.3467,-40.8,313.8,302.7,93.0,86.7,392.4,75.9,-72.3,-2964.0,387.0,177.9,279.9,1877.7,1245.3,-160.8,-248.7,-6.6,-4.2,328.5,-16.8,-1.8,191.4,-1610.4,841.5,0,624,0,198,0,
0.3500,-40.8,318.9,308.1,95.1,82.2,380.7,72.0,-74.1,-2964.0,384.0,185.4,287.7,1945.8,1239.0,-155.4,-241.5,-6.3,-4.8,338.1,-21.0,-1.8,198.0,-1595.1,807.6,0,630,0,199,0,
0.3533,-41.4,312.0,306.0,93.9,87.9,386.4,78.3,-71.1,-2964.0,380.4,182.7,286.8,1928.1,1228.2,-159.3,-242.7,-6.6,-4.2,331.8,-18.6,-2.1,189.3,-1578.9,824.1,0,636,0,200,0,
0.3567,-44.7,310.8,302.7,88.8,81.6,379.8,75.3,-73.5,-2889.9,377.7,177.9,280.2,1926.6,1242.6,-164.7,-235.5,-6.0,-4.5,327.3,-24.9,-2.1,189.0,-1580.1,818.7,0,642,0,201,0,
0.3600,-44.7,313.2,298.8,87.3,87.6,394.2,77.7,-72.9,-2815.8,382.8,172.8,273.9,1912.2,1246.8,-147.9,-231.6,-6.0,-4.5,331.5,-30.0,-1.8,189.0,-1568.7,826.8,0,648,0,202,0,
0.3633,-47.1,309.6,302.1,88.2,88.5,383.7,72.0,-74.4,-2889.9,389.1,178.8,276.9,1896.9,1240.5,-153.9,-238.2,-6.0,-4.5,332.1,-32.4,-1.8,188.1,-1598.7,818.7,0,654,0,203,0,
0.3667,-49.8,299.7,291.0,84.6,89.1,383.1,74.7,-78.0,-2964.0,390.9,175.8,252.9,1884.6,1216.5,-157.5,-239.1,-6.0,-4.5,327.9,-44.1,-1.8,166.5,-1570.5,818.4,0,660,0,204,0,
0.3700,-47.7,312.9,298.8,91.5,82.2,378.0,72.6,-75.3,-2889.9,383.4,175.5,273.0,1928.7,1218.9,-161.1,-231.6,-6.6,-4.8,332.7,-38.4,-1.5,201.9,-1598.1,794.1,0,666,0,205,0,
0.3733,-44.7,315.9,301.2,89.7,85.8,387.6,80.1,-71.1,-2889.9,376.5,177.3,283.5,1896.9,1223.4,-168.9,-253.2,-6.3,-4.8,334.2,-28.5,-1.8,178.5,-1572.9,820.5,0,672,0,206,0,
0.3767,-47.7,304.8,302.1,93.3,87.0,375.3,72.0,-71.7,-2815.8,387.0,186.9,292.2,1893.6,1226.4,-158.7,-221.7,-6.3,-4.2,337.8,-20.7,-1.8,220.2,-1599.9,807.6,0,678,0,207,0,
0.3800,-46.8,310.2,301.2,92.1,91.2,380.1,72.6,-72.3,-2889.9,385.5,183.3,286.8,1860.6,1203.0,-150.9,-227.7,-6.6,-3.9,330.0,-26.4,-1.8,204.0,-1590.9,795.3,0,684,0,208,0,
0.3833,-42.0,316.5,309.6,100.8,93.6,381.3,73.2,-68.4,-2964.0,393.3,194.1,292.5,1908.3,1231.8,-152.1,-228.9,-6.0,-4.5,344.1,-17.4,-2.1,207.6,-1580.7,800.1,0,690,0,209,0,
0.3867,-46.8,309.0,308.1,98.4,93.0,384.6,71.1,-71.4,-2889.9,386.4,191.4,291.6,1950.3,1235.1,-149.7,-237.3,-6.3,-4.2,344.7,-17.4,-1.5,198.9,-1608.0,814.5,0,696,0,210,0,
0.3900,-43.2,312.9,314.1,111.3,101.1,391.8,76.5,-62.7,-2815.8,425.7,198.6,298.5,1903.8,1215.6,-157.5,-237.3,-6.3,-4.8,347.7,-6.3,-1.5,218.1,-1597.2,821.4,0,702,0,211,0,
0.3933,-45.3,318.0,314.1,103.8,94.2,386.7,72.0,-66.9,-2815.8,392.4,191.7,291.3,1896.0,1225.8,-150.3,-234.3,-6.3,-4.5,345.6,-18.0,-1.8,191.4,-1591.8,804.0,0,708,0,212,0,
0.3967,-42.6,312.0,312.6,110.4,96.6,386.4,72.0,-68.1,-2815.8,390.9,199.8,294.6,1913.1,1230.9,-159.3,-239.4,-6.0,-4.8,349.5,-15.9,-1.8,186.0,-1589.1,817.5,0,714,0,213,0,
0.4000,-43.5,306.3,315.0,111.0,99.3,377.4,70.2,-66.3,-2964.0,416.7,198.9,289.5,1913.4,1221.6,-144.9,-239.4,-6.3,-4.5,348.3,-20.1,-1.8,205.8,-1602.0,783.0,0,720,0,214,0,
0.4033,-36.3,318.6,320.7,115.2,104.4,391.8,73.8,-62.1,-2889.9,403.5,202.2,297.6,1929.9,1234.5,-149.7,-233.4,-6.0,-4.2,350.7,-12.6,-1.8,215.1,-1596.0,806.4,0,726,0,215,0,
0.4067,-41.7,316.5,313.8,108.0,96.9,379.8,69.9,-67.8,-2889.9,394.5,195.3,291.0,1915.5,1220.4,-137.4,-227.7,-6.0,-4.2,345.3,-23.4,-1.8,197.1,-1579.2,831.3,0,732,0,216,0,
0.4100,-41.1,316.2,316.5,108.0,98.4,383.7,69.9,-65.1,-2815.8,387.9,200.1,289.2,1876.2,1221.0,-151.5,-245.4,-6.0,-4.5,349.8,-20.4,-2.1,204.6,-1586.1,799.2,0,738,0,217,0,
0.4133,-42.0,308.4,311.7,109.5,98.1,390.6,76.2,-61.2,-2889.9,389.1,195.0,290.7,1886.4,1222.8,-168.3,-232.2,-6.3,-4.8,338.7,-30.3,-1.8,185.1,-1584.9,812.7,0,744,0,218,0,
0.4167,-38.4,319.2,315.9,111.9,105.0,393.0,81.9,-57.6,-2815.8,376.2,198.6,294.6,1928.7,1216.2,-172.2,-245.7,-6.6,-4.2,344.4,-16.2,-1.5,191.7,-1581.0,829.8,0,750,0,219,0,
0.4200,-38.4,323.4,323.4,120.0,104.4,384.3,78.9,-56.4,-2964.0,415.8,206.7,296.7,1895.1,1227.3,-173.1,-261.3,-6.3,-4.8,360.0,-10.8,-1.8,206.1,-1587.3,806.1,0,756,0,220,0,
0.4233,-41.1,317.1,320.7,119.4,111.6,395.1,80.1,-56.1,-2889.9,402.3,208.5,308.4,1921.2,1189.2,-172.5,-245.7,-6.3,-4.2,353.4,-2.1,-1.8,227.4,-1604.1,820.5,0,762,0,221,0,
0.4267,-41.7,308.1,313.8,114.3,113.7,395.1,81.0,-60.0,-2815.8,400.5,198.9,299.7,1908.9,1217.4,-165.6,-242.4,-6.0,-4.5,345.3,-15.9,-1.8,210.9,-1602.9,814.5,0,768,0,222,0,
0.4300,-43.2,305.1,309.0,108.9,104.7,390.9,85.2,-66.3,-2964.0,387.3,199.2,294.3,1889.1,1234.8,-166.2,-234.0,-6.0,-4.5,347.1,-17.4,-1.8,189.3,-1572.0,809.4,0,774,0,223,0,
0.4333,-40.2,310.5,311.1,111.0,104.1,391.8,79.2,-62.1,-2964.0,397.5,201.6,293.1,1899.0,1212.6,-156.9,-238.8,-6.3,-4.2,348.0,-12.3,-1.8,203.1,-1606.8,817.5,0,780,0,224,0,
0.4367,-41.4,308.7,316.2,113.1,99.6,389.4,78.9,-63.9,-2815.8,413.1,208.2,298.2,1912.2,1201.2,-168.9,-253.5,-6.0,-4.5,356.4,-9.6,-1.8,205.2,-1602.6,807.9,0,786,0,225,0,
0.4400,-39.0,310.2,305.4,104.1,86.7,378.6,75.9,-70.8,-2815.8,370.2,189.3,285.0,1915.8,1235.1,-155.7,-226.8,-6.3,-4.5,339.3,-19.8,-1.8,182.7,-1583.4,810.6,0,792,0,226,0,
0.4433,-48.6,298.2,301.5,100.2,90.0,383.1,78.0,-69.6,-2815.8,389.1,189.0,287.7,1872.3,1188.3,-151.2,-231.3,-6.0,-4.5,333.6,-20.1,-1.8,194.1,-1593.3,799.5,0,798,0,227,0,
0.4467,-39.9,303.3,307.2,101.7,87.3,378.9,75.3,-71.1,-2889.9,391.2,192.3,285.9,1907.4,1206.3,-147.3,-229.5,-6.0,-4.5,340.2,-21.6,-1.8,193.5,-1601.1,791.7,0,804,0,228,0,
0.4500,-39.9,300.6,309.9,108.3,99.6,389.1,77.4,-62.7,-2889.9,374.1,192.6,292.8,1922.7,1219.2,-146.4,-244.5,-6.3,-4.5,347.4,-13.2,-1.8,195.0,-1588.2,809.4,0,810,0,229,0,
0.4533,-41.4,299.7,314.4,109.5,99.3,378.3,75.0,-64.5,-2889.9,393.0,194.1,291.6,1895.1,1213.8,-159.3,-229.2,-6.0,-4.8,346.5,-19.2,-1.8,202.2,-1604.7,780.6,0,816,0,230,0,
0.4567,-44.7,298.5,308.7,105.0,94.8,379.2,75.6,-68.4,-2889.9,402.6,195.3,288.6,1885.8,1211.7,-150.0,-232.8,-6.6,-4.5,340.8,-23.7,-1.8,195.6,-1597.8,804.0,0,822,0,231,0,
0.4600,-38.7,302.7,310.2,104.7,91.2,376.8,77.4,-66.9,-2741.7,399.9,191.1,287.4,1910.4,1200.9,-144.3,-217.8,-6.3,-4.5,340.5,-26.1,-1.8,193.2,-1585.8,791.7,0,828,0,232,0,
0.4633,-42.0,299.1,307.2,97.2,88.8,378.6,74.7,-69.6,-2964.0,386.7,186.9,279.3,1914.3,1215.9,-135.9,-231.6,-6.3,-4.2,342.3,-25.8,-1.8,183.6,-1578.9,815.4,0,834,0,233,0,
0.4667,-37.8,305.4,309.3,102.0,92.4,384.9,73.8,-68.1,-2889.9,381.3,186.6,287.1,1904.7,1228.2,-144.0,-231.6,-6.3,-4.2,340.8,-19.8,-1.8,195.3,-1626.9,770.1,0,840,0,234,0,
0.4700,-42.0,300.3,308.1,103.8,95.7,378.0,74.7,-66.3,-2889.9,394.8,189.6,288.6,1865.1,1202.1,-155.4,-230.1,-6.3,-4.5,337.2,-17.1,-1.5,200.4,-1605.0,807.3,0,846,0,235,0,
0.4733,-42.9,304.2,315.0,109.8,101.4,385.8,78.3,-59.7,-2815.8,408.0,198.0,293.4,1913.1,1210.2,-160.5,-246.3,-6.0,-4.8,348.3,-14.1,-1.5,217.2,-1601.1,815.4,0,852,0,236,0,
0.4767,-41.7,304.8,307.8,101.1,91.5,381.6,75.6,-67.8,-2815.8,393.6,188.1,284.1,1882.5,1205.1,-140.4,-214.2,-6.3,-4.5,336.9,-19.5,-1.5,186.9,-1612.5,788.1,0,858,0,237,0,
0.4800,-39.6,309.3,310.8,99.9,91.2,377.7,73.8,-64.8,-2964.0,389.4,187.8,288.0,1912.2,1217.7,-156.6,-239.7,-5.7,-4.5,338.1,-24.0,-2.1,192.6,-1597.8,766.8,0,864,0,238,0,
0.4833,-46.8,297.0,307.5,100.5,90.9,381.9,75.0,-71.4,-2964.0,397.5,188.1,288.6,1887.6,1200.6,-149.7,-228.3,-6.3,-4.5,339.3,-23.7,-1.5,194.1,-1601.7,816.0,0,870,0,239,0,
0.4867,-44.4,299.7,309.3,101.7,95.1,381.3,69.3,-69.0,-2889.9,396.9,189.0,292.8,1874.7,1194.3,-153.3,-238.2,-6.3,-4.8,340.8,-19.2,-2.1,206.4,-1624.2,788.1,0,876,0,240,0,
0.4900,-48.3,290.4,300.6,98.1,95.4,381.0,74.1,-70.5,-2815.8,391.8,183.6,291.9,1899.3,1202.7,-144.9,-229.5,-6.3,-4.8,330.9,-19.5,-1.8,204.0,-1594.8,785.4,0,882,0,241,0,
0.4933,-42.3,303.0,310.5,105.0,98.7,387.0,80.4,-64.2,-2889.9,394.2,193.2,289.8,1922.4,1195.5,-154.2,-247.5,-6.3,-4.2,343.5,-20.4,-1.5,193.2,-1590.6,811.5,0,888,0,242,0,
0.4967,-43.2,284.4,298.8,99.6,93.3,378.6,73.2,-74.1,-2889.9,409.8,189.6,288.9,1883.7,1216.8,-142.8,-224.1,-6.3,-4.5,333.3,-25.5,-1.5,213.9,-1602.9,774.3,0,894,0,243,0,
0.5000,-42.6,293.4,304.8,99.3,90.3,375.3,73.2,-72.6,-3038.1,399.3,191.4,283.8,1899.0,1211.4,-140.7,-222.6,-6.3,-4.5,339.9,-29.7,-1.8,218.7,-1599.6,781.2,0,900,0,244,0,
0.5033,-42.9,294.6,309.9,107.7,98.1,377.7,71.1,-71.4,-2964.0,407.1,200.1,294.3,1900.5,1198.5,-149.7,-230.1,-6.3,-4.8,348.6,-12.6,-1.2,218.7,-1598.7,797.4,0,906,0,245,0,
0.5067,-48.9,292.5,307.5,104.7,99.6,377.1,75.9,-69.0,-2889.9,418.8,195.6,284.7,1907.7,1184.1,-157.2,-230.4,-6.3,-4.5,342.3,-39.0,-1.8,196.5,-1584.6,799.2,0,912,0,246,0,
0.5100,-41.1,307.5,315.0,108.3,101.1,378.0,69.0,-67.8,-2889.9,413.1,200.1,285.6,1923.6,1224.3,-148.8,-235.8,-6.3,-4.8,351.9,-41.1,-1.8,203.4,-1603.5,786.3,0,918,0,247,0,
0.5133,-36.0,311.1,320.4,114.9,108.3,392.4,79.5,-57.3,-2889.9,413.7,205.8,301.2,1881.9,1195.5,-154.5,-237.6,-6.0,-4.8,353.7,-13.8,-1.8,209.1,-1590.3,794.1,0,924,0,248,0,
0.5167,-45.0,288.9,305.4,110.1,99.6,386.4,81.3,-61.5,-2889.9,399.0,196.5,301.2,1859.1,1219.5,-157.2,-228.6,-6.3,-4.5,337.2,-6.6,-1.5,205.8,-1594.8,795.0,0,930,0,249,0,
0.5200,-40.8,295.8,311.1,108.3,99.9,385.8,78.0,-63.3,-2889.9,385.8,202.2,305.4,1904.4,1207.8,-165.9,-241.5,-6.0,-4.2,343.8,-2.7,-1.5,221.1,-1598.1,802.8,0,936,0,250,0,
0.5233,-40.2,291.6,308.4,111.0,99.9,388.8,78.6,-62.4,-2889.9,413.1,202.8,306.9,1896.6,1200.3,-165.6,-244.2,-6.3,-4.2,344.7,-3.9,-1.8,207.0,-1623.6,786.6,0,942,0,251,0,
0.5267,-40.8,291.3,309.6,108.3,96.9,379.2,72.3,-63.0,-2741.7,403.2,197.4,302.7,1883.7,1207.2,-162.3,-232.5,-6.3,-4.8,341.7,-9.0,-1.5,210.0,-1604.7,787.8,0,948,0,252,0,
0.5300,-37.8,293.4,316.2,114.9,104.1,386.1,80.7,-57.9,-2815.8,413.1,204.3,307.5,1912.5,1201.2,-152.4,-243.3,-6.0,-4.5,348.0,-3.0,-1.8,220.8,-1593.9,798.6,0,954,0,253,0,
0.5333,-34.2,298.8,317.4,114.9,106.2,384.9,76.8,-62.4,-3038.1,408.0,204.0,308.4,1877.1,1204.8,-149.7,-235.8,-6.3,-4.5,347.4,-5.1,-1.5,223.5,-1611.9,788.4,0,960,0,254,0,
0.5367,-31.5,307.5,318.0,117.6,109.5,385.2,78.0,-58.5,-2889.9,410.7,206.7,309.0,1916.1,1220.1,-157.2,-236.1,-6.0,-4.5,352.2,-4.8,-1.8,202.8,-1603.8,781.8,0,966,0,255,0,
0.5400,-35.1,291.9,320.1,116.4,108.6,385.5,75.3,-57.0,-2889.9,402.9,203.7,304.2,1922.1,1202.4,-156.0,-242.4,-6.3,-4.5,345.0,-7.5,-1.8,224.7,-1602.6,789.9,0,972,0,0,0,
0.5433,-35.7,295.2,315.3,111.0,104.7,379.5,80.4,-56.7,-2815.8,399.0,196.2,296.1,1887.9,1191.6,-147.6,-226.8,-6.6,-4.5,338.7,-17.1,-1.8,209.7,-1599.0,776.1,0,978,0,1,0,
0.5467,-32.7,296.4,314.4,107.7,106.5,378.3,78.9,-58.2,-2741.7,408.9,195.6,286.5,1887.3,1216.2,-146.7,-226.8,-6.3,-4.8,345.6,-29.7,-1.5,197.4,-1602.3,786.6,0,984,0,2,0,
0.5500,-37.5,289.8,313.2,108.0,105.0,385.5,86.7,-56.1,-2964.0,400.5,194.7,293.1,1885.5,1203.3,-154.2,-232.8,-6.0,-4.5,345.0,-17.4,-1.8,198.0,-1581.0,803.7,0,990,0,3,0,
0.5533,-41.7,286.5,312.0,109.8,104.7,381.9,80.1,-59.7,-2964.0,394.2,199.2,302.7,1881.0,1182.3,-144.9,-225.6,-6.0,-4.2,340.2,-6.3,-1.5,225.3,-1613.1,792.3,0,996,0,4,0,
0.5567,-38.7,285.0,306.6,100.8,90.3,374.4,76.2,-65.4,-2815.8,408.9,192.0,285.9,1881.6,1206.9,-154.2,-246.0,-5.7,-4.5,336.0,-26.4,-1.8,219.3,-1608.9,772.2,0,1002,0,5,0,
0.5600,-39.6,285.3,307.2,96.0,87.9,376.2,73.8,-68.1,-2741.7,399.3,189.3,284.1,1882.5,1203.0,-142.2,-219.3,-6.6,-4.5,335.7,-34.8,-1.8,197.4,-1622.7,751.8,0,1008,0,6,0,
0.5633,-37.8,287.7,309.6,106.8,102.6,397.8,77.1,-60.6,-2964.0,405.6,197.4,296.4,1894.2,1183.5,-145.8,-245.4,-6.0,-4.5,338.7,-11.4,-1.8,209.4,-1637.4,828.3,0,1014,0,7,0,
0.5667,-31.8,303.9,314.7,102.9,90.3,365.7,71.7,-62.1,-2964.0,376.8,192.3,290.7,1926.6,1180.2,-146.7,-225.6,-6.3,-4.5,342.3,-17.4,-1.5,203.4,-1621.5,771.9,0,1020,0,8,0,
0.5700,-43.2,284.1,306.3,98.4,87.6,371.7,75.0,-65.4,-2815.8,386.7,182.1,282.0,1894.2,1179.3,-150.3,-230.1,-6.3,-4.2,328.5,-26.1,-2.1,187.2,-1593.9,784.2,0,1026,0,9,0,
0.5733,-35.7,291.3,313.2,105.0,101.4,384.9,75.6,-62.1,-2815.8,411.6,194.1,291.3,1858.8,1175.7,-148.2,-227.4,-6.3,-4.5,338.1,-14.1,-1.5,216.9,-1605.0,776.7,0,1032,0,10,0,
0.5767,-37.2,288.0,306.3,101.1,96.9,385.5,81.0,-68.1,-2889.9,378.9,183.9,290.7,1869.0,1204.8,-156.3,-235.2,-6.0,-4.5,326.7,-18.6,-1.8,193.5,-1602.6,788.1,0,1038,0,11,0,
0.5800,-36.9,292.2,308.7,97.8,94.8,370.5,72.9,-69.9,-2889.9,390.0,185.1,283.2,1869.0,1187.1,-141.9,-215.7,-6.3,-4.5,329.7,-28.5,-1.5,194.1,-1627.2,756.3,0,1044,0,12,0,
0.5833,-37.2,281.7,304.2,99.0,95.1,372.0,72.9,-67.8,-2964.0,404.1,186.3,285.3,1885.8,1199.1,-134.4,-225.9,-6.3,-4.2,335.4,-30.3,-1.8,202.8,-1611.0,782.1,0,1050,0,13,0,
0.5867,-34.8,280.8,310.5,106.2,100.5,372.6,77.7,-62.4,-2741.7,391.5,192.0,293.1,1865.4,1187.4,-150.9,-241.8,-6.3,-4.2,336.9,-19.8,-1.8,209.4,-1599.6,786.3,0,1056,0,14,0,
0.5900,-33.9,279.6,307.2,103.8,96.6,381.6,78.3,-60.9,-2964.0,406.8,189.3,291.3,1882.8,1197.6,-129.6,-211.2,-6.0,-4.8,332.7,-20.1,-1.8,206.7,-1622.7,766.5,0,1062,0,15,0,
0.5933,-32.7,280.2,309.9,103.5,96.0,380.1,80.1,-66.0,-2964.0,395.1,189.6,291.3,1903.2,1202.1,-150.9,-226.5,-6.3,-4.5,332.4,-15.9,-1.5,205.8,-1611.6,783.9,0,1068,0,16,0,
0.5967,-29.7,292.8,310.2,99.3,93.6,368.1,74.1,-66.0,-2815.8,396.3,185.7,283.2,1913.1,1200.9,-130.5,-236.1,-6.3,-4.8,333.0,-27.6,-1.8,200.1,-1618.8,759.3,0,1074,0,17,0,
0.6000,-36.0,280.8,308.1,99.9,92.7,372.0,77.7,-68.4,-2889.9,400.2,189.0,282.3,1858.2,1206.3,-145.5,-231.6,-6.0,-4.5,337.5,-23.7,-1.8,198.9,-1582.2,777.9,0,1080,0,18,0,
0.6033,-37.5,279.3,306.3,93.6,85.5,359.7,69.6,-74.4,-2741.7,396.6,186.3,277.8,1891.5,1182.9,-126.9,-216.0,-6.6,-4.5,333.9,-26.4,-1.5,204.3,-1618.8,753.6,0,1086,0,19,0,
0.6067,-40.8,279.6,306.3,96.9,96.0,384.6,79.2,-72.9,-2815.8,399.3,187.8,279.6,1894.8,1183.5,-148.2,-237.9,-5.7,-4.2,330.3,-18.6,-1.8,211.2,-1600.5,800.1,0,1092,0,20,0,
0.6100,-35.4,285.9,311.4,98.4,93.3,372.6,75.0,-70.2,-2815.8,417.9,194.4,297.3,1890.0,1193.1,-139.8,-234.0,-6.3,-4.8,336.6,-19.8,-1.5,211.5,-1610.1,769.8,0,1098,0,21,0,
0.6133,-30.6,292.5,311.7,101.4,95.7,387.6,81.3,-66.0,-2889.9,405.0,193.8,291.9,1895.1,1182.9,-153.6,-228.6,-6.3,-4.8,338.4,-22.8,-1.8,197.1,-1602.0,795.9,0,1104,0,22,0,
0.6167,-36.9,286.5,309.6,97.8,93.9,378.9,81.3,-65.4,-2889.9,410.1,182.7,290.4,1881.3,1185.9,-154.8,-233.4,-6.0,-4.5,330.0,-23.1,-1.8,207.0,-1607.4,770.7,0,1110,0,23,0,
0.6200,-29.4,293.1,309.9,99.3,95.4,383.1,80.7,-63.3,-3038.1,359.7,182.7,287.4,1928.7,1193.1,-153.3,-257.4,-6.0,-4.5,331.2,-30.9,-2.1,211.5,-1598.7,758.4,0,1116,0,24,0,
0.6233,-43.2,269.1,304.5,101.4,100.2,380.1,77.4,-64.8,-2815.8,404.4,188.7,296.4,1864.2,1182.6,-147.3,-231.0,-6.0,-4.2,327.9,-24.9,-1.8,220.8,-1625.4,756.0,0,1122,0,25,0,
0.6267,-34.5,293.4,312.6,101.1,93.9,378.3,76.5,-64.8,-2889.9,416.1,191.7,294.3,1884.9,1174.5,-161.4,-247.5,-6.3,-4.2,338.7,-18.0,-1.5,218.1,-1629.9,777.0,0,1128,0,26,0,
0.6300,-31.5,291.6,312.9,99.3,94.8,373.8,78.3,-63.0,-2741.7,414.3,191.7,289.8,1811.7,1178.1,-141.3,-229.5,-6.0,-4.5,339.3,-23.4,-1.8,226.2,-1624.8,762.3,0,1134,0,27,0,
0.6333,-32.4,281.1,311.4,107.4,102.0,384.6,85.5,-59.7,-2889.9,418.8,198.3,301.5,1886.4,1197.3,-148.5,-234.6,-6.3,-4.5,340.5,-13.2,-1.8,216.6,-1601.7,804.0,0,1140,0,28,0,
0.6367,-34.5,282.3,310.8,103.8,91.8,373.8,80.7,-65.1,-2889.9,417.9,194.1,289.5,1877.1,1186.5,-143.1,-236.4,-6.3,-4.5,343.2,-24.6,-1.8,199.8,-1607.4,769.5,0,1146,0,29,0,
0.6400,-25.8,290.7,318.3,110.4,99.3,377.1,81.0,-56.1,-2815.8,434.4,204.9,298.8,1906.2,1205.7,-153.3,-262.8,-6.0,-4.2,355.2,-19.8,-1.8,209.4,-1633.8,784.8,0,1152,0,30,0,
0.6433,-31.5,280.5,313.5,102.6,99.9,369.6,78.9,-65.1,-2815.8,413.4,195.3,287.7,1906.5,1197.0,-148.8,-234.0,-6.3,-4.5,345.9,-37.5,-2.1,216.6,-1642.2,751.8,0,1158,0,31,0,
0.6467,-29.7,280.8,310.2,107.4,102.9,377.4,81.6,-65.7,-2889.9,406.8,195.9,291.3,1887.3,1207.8,-156.6,-244.8,-6.3,-4.5,339.9,-22.2,-1.8,208.5,-1615.8,794.7,0,1164,0,32,0,
0.6500,-36.6,276.9,309.3,102.3,96.3,381.9,84.6,-69.6,-2964.0,401.7,188.7,288.9,1879.8,1185.9,-134.7,-237.9,-6.6,-4.5,328.2,-22.8,-1.5,209.7,-1618.5,751.2,0,1170,0,33,0,
0.6533,-35.7,281.7,312.3,106.2,98.4,383.1,81.6,-64.8,-2815.8,415.2,197.7,302.7,1889.7,1185.6,-135.0,-224.1,-6.0,-4.5,336.0,-13.8,-1.8,220.8,-1613.4,776.1,0,1176,0,34,0,
0.6567,-35.1,289.8,315.6,107.1,98.7,375.0,82.8,-64.5,-2889.9,408.6,194.4,300.0,1880.7,1176.3,-143.4,-222.6,-6.3,-4.5,340.5,-23.1,-1.8,226.5,-1618.2,759.3,0,1182,0,35,0,
0.6600,-37.2,279.9,312.9,112.8,101.4,375.3,78.9,-64.8,-2815.8,422.1,201.9,303.0,1885.5,1186.8,-154.2,-245.7,-6.3,-4.2,349.2,-13.8,-1.8,219.6,-1626.9,762.9,0,1188,0,36,0,
0.6633,-37.5,275.1,305.4,99.9,94.2,374.4,77.7,-67.5,-2964.0,391.2,189.9,293.1,1904.7,1177.8,-144.9,-233.4,-6.0,-4.2,334.8,-22.8,-2.1,203.1,-1629.6,762.3,0,1194,0,37,0,
0.6667,-40.5,263.7,296.4,94.8,84.3,360.6,76.5,-70.5,-2964.0,413.4,188.1,279.3,1857.9,1176.0,-144.0,-233.7,-6.6,-4.8,331.5,-32.4,-1.8,202.2,-1627.2,753.9,0,1200,0,38,0,
0.6700,-42.6,267.9,295.5,90.9,82.8,362.7,78.0,-75.6,-2815.8,383.1,177.3,281.4,1869.0,1170.3,-155.1,-227.4,-6.3,-4.2,320.4,-30.6,-1.5,213.0,-1635.3,776.4,0,1206,0,39,0,
0.6733,-43.5,263.4,297.3,97.2,93.9,376.8,79.5,-71.7,-2889.9,417.6,188.4,285.3,1853.4,1178.1,-153.9,-235.8,-6.3,-4.8,330.3,-23.4,-1.8,204.3,-1640.4,784.5,0,1212,0,40,0,
0.6767,-42.0,270.6,300.6,100.8,95.1,373.5,83.4,-67.8,-2889.9,403.5,189.0,289.8,1881.3,1173.6,-142.2,-219.3,-6.0,-4.5,330.3,-21.9,-2.1,204.6,-1611.9,759.3,0,1218,0,41,0,
0.6800,-38.4,272.4,303.6,103.2,95.1,361.8,79.8,-69.0,-2889.9,410.4,193.5,289.8,1857.6,1183.2,-144.0,-217.2,-6.0,-4.5,337.8,-30.0,-1.5,223.8,-1623.3,744.0,0,1224,0,42,0,
0.6833,-44.7,262.5,304.8,102.6,103.8,386.7,86.1,-68.7,-2964.0,403.2,189.6,291.6,1849.8,1164.9,-145.8,-236.7,-6.3,-4.8,332.1,-19.5,-1.5,200.4,-1615.8,809.7,0,1230,0,43,0,
0.6867,-33.9,278.4,310.5,104.7,104.4,380.1,80.4,-68.7,-2815.8,402.9,194.7,294.9,1875.0,1193.1,-149.7,-229.5,-6.0,-4.5,344.7,-22.5,-1.8,209.4,-1633.5,750.0,0,1236,0,44,0,
0.6900,-38.1,271.8,305.4,100.2,96.9,367.5,77.7,-76.2,-2964.0,412.8,191.1,285.9,1882.8,1173.0,-133.8,-215.7,-6.3,-4.5,340.5,-28.2,-1.5,206.4,-1623.6,762.9,0,1242,0,45,0,
0.6933,-42.0,267.3,296.4,94.5,90.3,360.9,78.6,-78.0,-2815.8,415.8,188.4,288.6,1845.3,1175.7,-133.2,-212.1,-6.0,-4.5,332.7,-26.7,-1.5,213.0,-1619.7,757.2,0,1248,0,46,0,
0.6967,-39.9,267.9,305.1,97.8,91.8,371.4,84.9,-70.8,-2815.8,417.0,192.6,290.4,1857.3,1179.9,-135.0,-220.8,-6.3,-4.5,340.2,-20.7,-1.8,208.2,-1611.9,741.0,0,1254,0,47,0,
0.7000,-40.2,266.1,305.1,99.9,99.0,380.1,82.8,-71.4,-3038.1,408.3,190.2,292.5,1883.4,1177.8,-141.3,-229.2,-6.3,-4.8,339.3,-24.6,-1.5,211.2,-1611.6,753.9,0,1260,0,48,0,
0.7033,-36.6,270.6,305.4,97.8,103.8,376.8,83.7,-68.4,-2815.8,413.4,195.9,291.0,1890.3,1185.3,-141.3,-223.2,-6.3,-4.5,338.4,-36.6,-2.1,211.8,-1632.6,764.1,0,1266,0,49,0,
0.7067,-36.6,277.5,313.8,102.0,103.8,375.9,81.3,-70.8,-2815.8,423.6,200.1,293.1,1888.2,1170.3,-143.1,-229.8,-6.0,-4.5,352.8,-14.7,-2.1,224.1,-1631.7,775.2,0,1272,0,50,0,
0.7100,-39.9,267.6,309.6,98.4,97.2,372.0,79.8,-68.4,-2815.8,422.1,197.1,297.6,1868.4,1173.3,-132.9,-229.2,-6.6,-4.5,343.8,-23.4,-1.8,204.3,-1631.1,749.7,0,1278,0,51,0,
0.7133,-37.5,271.5,306.3,100.5,95.7,375.0,84.9,-65.7,-2889.9,389.4,192.0,291.3,1872.9,1191.9,-140.4,-225.6,-6.3,-4.8,341.4,-17.7,-2.1,196.2,-1623.6,784.5,0,1284,0,52,0,
0.7167,-39.0,265.2,302.1,95.1,90.9,363.6,80.7,-67.5,-2964.0,396.0,185.7,289.2,1863.0,1176.6,-147.6,-225.9,-6.3,-4.8,333.6,-19.2,-1.5,207.9,-1634.1,751.8,0,1290,0,53,0,
0.7200,-46.2,262.2,300.9,92.4,93.3,373.5,84.6,-68.7,-2889.9,388.5,181.5,290.4,1863.6,1164.9,-151.5,-220.5,-6.3,-4.5,329.7,-18.0,-1.5,217.5,-1629.0,770.4,0,1296,0,54,0,
0.7233,-37.8,269.4,311.1,100.2,95.4,374.1,85.8,-58.5,-2815.8,414.0,199.8,297.9,1832.7,1174.2,-158.7,-235.8,-6.6,-4.5,350.7,-16.2,-1.5,213.0,-1641.9,759.3,0,1302,0,55,0,
0.7267,-39.9,267.0,312.0,104.7,100.8,373.8,87.0,-60.9,-2815.8,431.4,207.3,299.7,1831.5,1169.4,-161.1,-235.8,-6.0,-4.5,354.3,-9.6,-2.1,197.4,-1618.8,772.5,0,1308,0,56,0,
0.7300,-39.0,265.5,307.5,101.4,98.4,371.4,86.4,-62.4,-2889.9,417.9,201.3,291.9,1868.1,1187.4,-156.9,-231.9,-6.3,-4.5,351.0,-15.6,-1.8,213.3,-1629.3,757.5,0,1314,0,57,0,
0.7333,-37.2,278.7,315.0,108.9,108.9,385.2,91.8,-57.0,-2964.0,419.4,205.2,295.2,1879.5,1166.1,-157.5,-238.2,-6.0,-4.2,352.8,-0.3,-1.2,216.0,-1633.8,789.9,0,1320,0,58,0,
0.7367,-36.9,273.3,308.7,100.2,98.1,371.7,89.7,-59.7,-2815.8,393.3,197.7,299.1,1857.3,1175.1,-152.4,-222.9,-6.0,-3.9,345.6,-12.3,-1.8,237.6,-1620.6,769.5,0,1326,0,59,0,
0.7400,-38.4,271.5,311.4,100.8,98.4,372.3,84.6,-62.1,-2889.9,413.1,200.7,302.1,1864.2,1167.9,-146.7,-234.6,-6.0,-4.5,347.1,-10.5,-1.8,218.4,-1620.6,744.0,0,1332,0,60,0,
0.7433,-37.5,279.0,315.0,105.9,103.8,381.6,90.0,-56.1,-2815.8,429.6,200.1,298.2,1887.6,1163.4,-146.7,-238.2,-6.3,-4.5,350.4,-10.5,-1.5,213.9,-1612.8,767.4,0,1338,0,61,0,
0.7467,-33.0,280.8,316.8,101.7,103.2,377.4,85.8,-55.8,-2815.8,413.1,200.1,301.5,1884.0,1177.2,-150.0,-249.6,-6.0,-4.2,345.9,-10.8,-1.5,215.7,-1634.1,765.9,0,1344,0,62,0,
0.7500,-34.5,278.7,320.7,109.5,113.7,385.5,90.9,-52.5,-2889.9,419.1,209.4,310.5,1871.1,1160.1,-144.6,-230.1,-6.3,-4.5,353.4,0.6,-1.8,233.7,-1649.1,799.8,0,1350,0,63,0,
0.7533,-39.3,267.3,310.2,94.8,94.2,365.1,87.3,-66.0,-3038.1,410.7,192.9,291.0,1869.9,1180.2,-133.5,-203.7,-6.3,-3.9,339.3,-21.9,-1.8,210.9,-1617.3,745.2,0,1356,0,64,0,
0.7567,-37.8,275.1,308.7,100.8,103.5,374.7,95.4,-63.0,-2889.9,409.5,196.2,296.1,1831.5,1164.0,-147.3,-216.9,-6.3,-4.8,343.8,-19.8,-1.8,203.4,-1617.0,763.8,0,1362,0,65,0,
0.7600,-36.3,271.2,315.0,101.7,111.0,377.4,91.2,-59.4,-2741.7,423.0,198.6,297.3,1856.4,1176.3,-146.4,-231.3,-6.0,-4.5,348.6,-20.1,-1.8,204.3,-1629.6,774.9,0,1368,0,66,0,
0.7633,-44.1,256.8,304.2,99.0,105.3,375.0,86.1,-63.3,-2815.8,409.2,198.0,291.9,1866.9,1157.4,-143.7,-223.2,-6.3,-4.5,341.7,-19.5,-1.5,216.9,-1626.3,766.2,0,1374,0,67,0,
0.7667,-41.1,268.2,309.0,99.3,101.7,376.8,90.3,-64.2,-2964.0,396.3,195.0,297.9,1868.7,1153.8,-156.0,-222.3,-6.0,-4.5,339.0,-15.6,-1.8,203.7,-1627.2,759.6,0,1380,0,68,0,
0.7700,-49.8,256.5,304.8,98.4,102.9,368.4,86.4,-63.6,-3038.1,418.2,195.6,294.6,1837.5,1149.3,-147.9,-222.0,-6.3,-4.8,337.2,-24.6,-1.8,209.1,-1629.9,748.8,0,1386,0,69,0,
0.7733,-41.1,265.5,306.3,98.1,95.1,371.4,88.5,-63.6,-2889.9,387.6,195.3,289.8,1880.4,1173.6,-153.3,-231.9,-6.3,-4.5,342.9,-16.8,-1.5,202.5,-1631.4,754.2,0,1392,0,70,0,
0.7767,-43.2,258.0,300.0,99.6,99.9,380.1,88.5,-66.3,-2815.8,401.4,193.5,293.1,1852.5,1155.0,-139.5,-202.5,-6.0,-4.2,335.4,-8.4,-1.5,214.8,-1647.9,753.0,0,1398,0,71,0,
0.7800,-42.9,267.0,306.9,102.9,102.0,371.4,87.6,-62.1,-2889.9,401.7,196.8,301.2,1865.1,1150.8,-154.2,-229.8,-6.3,-4.5,337.5,-6.3,-1.5,219.0,-1627.2,747.9,0,1404,0,72,0,
0.7833,-36.9,271.5,307.2,102.6,96.9,364.2,86.4,-62.7,-2964.0,412.5,194.1,291.3,1837.5,1165.2,-132.6,-208.2,-5.7,-3.6,339.0,-19.2,-1.5,203.7,-1623.6,763.5,0,1410,0,73,0,
0.7867,-39.6,270.6,307.2,101.1,101.7,366.3,84.9,-62.4,-2964.0,414.9,196.8,296.7,1840.5,1165.2,-147.9,-225.6,-6.3,-4.5,341.4,-16.2,-2.1,210.9,-1626.3,756.0,0,1416,0,74,0,
0.7900,-38.4,266.1,312.3,107.1,103.5,372.6,84.9,-61.2,-2889.9,422.4,205.5,301.2,1863.0,1162.5,-143.4,-227.4,-6.0,-4.5,350.1,-12.0,-1.8,205.2,-1640.1,758.4,0,1422,0,75,0,
0.7933,-33.6,270.9,309.9,102.0,96.0,363.0,80.1,-64.8,-2815.8,417.0,195.9,295.8,1853.7,1174.2,-147.0,-225.3,-6.0,-4.8,342.6,-19.8,-1.8,216.6,-1652.4,731.1,0,1428,0,76,0,
0.7967,-30.6,276.0,318.3,108.0,103.5,373.2,83.7,-62.1,-2889.9,419.7,204.9,297.9,1878.9,1173.3,-143.4,-237.6,-6.0,-4.2,350.7,-11.4,-1.8,199.2,-1664.4,760.2,0,1434,0,77,0,
0.8000,-29.4,277.5,320.1,110.1,105.0,367.2,79.2,-61.5,-2889.9,429.0,208.8,303.3,1881.0,1162.5,-144.3,-239.1,-6.6,-4.5,358.2,-16.2,-1.8,218.4,-1665.3,723.3,0,1440,0,78,0,
0.8033,-35.7,270.9,318.0,112.5,110.7,373.8,87.0,-57.9,-2815.8,428.1,205.5,299.1,1867.8,1131.6,-138.6,-221.1,-6.0,-4.2,352.5,-28.8,-1.8,211.8,-1644.9,742.2,0,1446,0,79,0,
0.8067,-31.8,266.1,308.1,104.1,106.8,369.3,85.5,-61.8,-3038.1,393.6,196.2,296.7,1882.5,1183.8,-141.6,-204.6,-5.7,-4.5,339.0,-31.2,-1.8,203.7,-1621.8,732.9,0,1452,0,80,0,
0.8100,-28.8,277.2,322.8,113.7,106.2,364.8,89.1,-56.7,-2815.8,425.7,210.0,295.5,1926.6,1168.5,-162.6,-242.1,-5.7,-4.8,359.7,-20.7,-1.5,204.9,-1644.9,756.0,0,1458,0,81,0,
0.8133,-37.2,274.5,321.9,113.7,117.6,379.5,87.3,-53.4,-2889.9,426.0,214.8,302.7,1881.6,1140.3,-150.3,-248.1,-6.0,-4.8,356.7,-15.3,-1.2,201.0,-1646.4,744.3,0,1464,0,82,0,
0.8167,-36.3,269.4,312.3,110.7,104.7,374.7,88.8,-58.2,-3038.1,406.5,199.8,294.6,1848.6,1156.8,-154.8,-239.7,-6.3,-4.5,342.6,-5.1,-1.8,209.7,-1663.8,727.5,0,1470,0,83,0,
0.8200,-39.3,267.3,318.3,110.4,100.8,372.9,87.0,-58.5,-2815.8,410.7,207.6,306.9,1842.6,1147.5,-157.5,-230.7,-6.3,-5.1,352.5,-3.3,-1.8,199.8,-1650.6,747.0,0,1476,0,84,0,
0.8233,-40.8,261.0,315.3,118.2,109.5,365.7,83.4,-55.5,-2889.9,435.6,212.4,310.8,1869.3,1167.3,-167.7,-239.1,-6.3,-4.2,354.9,3.9,-1.8,210.0,-1656.0,753.3,0,1482,0,85,0,
0.8267,-37.2,266.4,315.6,117.6,105.9,364.8,87.9,-56.7,-2815.8,418.8,210.6,310.8,1844.1,1147.8,-156.9,-229.5,-6.0,-4.2,353.4,0.6,-1.8,217.2,-1642.8,746.1,0,1488,0,86,0,
0.8300,-42.9,258.6,306.6,107.1,102.0,365.4,87.0,-63.6,-2889.9,424.5,198.9,300.0,1841.4,1141.2,-155.7,-225.6,-6.0,-4.2,347.7,-8.4,-1.8,198.6,-1642.8,741.9,0,1494,0,87,0,
0.8333,-38.7,264.3,310.2,107.7,96.6,368.7,82.5,-66.9,-2964.0,397.8,199.2,289.2,1882.2,1153.2,-158.7,-235.2,-6.3,-4.8,350.4,-18.6,-1.8,199.5,-1674.3,722.4,0,1500,0,88,0,
0.8367,-34.2,259.5,307.5,107.4,101.7,366.6,86.4,-62.7,-3038.1,408.9,196.2,288.0,1871.1,1166.1,-154.5,-230.1,-6.0,-4.5,342.0,-16.2,-2.1,216.0,-1650.9,748.2,0,1506,0,89,0,
0.8400,-37.5,262.2,307.2,106.8,103.8,359.4,79.8,-63.9,-3038.1,403.8,194.4,293.4,1873.2,1144.8,-146.1,-245.1,-6.3,-4.5,341.7,-12.3,-1.8,214.2,-1654.8,755.1,0,1512,0,90,0,
0.8433,-32.7,272.4,320.4,121.2,115.8,375.9,81.0,-55.2,-2815.8,429.0,213.3,311.7,1907.1,1152.3,-168.6,-249.9,-6.0,-4.5,361.5,2.7,-1.8,214.5,-1653.9,738.9,0,1518,0,91,0,
0.8467,-35.1,259.5,317.4,116.4,109.5,375.0,83.1,-58.8,-2889.9,419.4,207.9,309.0,1858.2,1162.8,-138.9,-231.3,-6.0,-4.5,351.0,-2.7,-1.8,214.2,-1659.9,754.2,0,1524,0,92,0,
0.8500,-31.5,258.9,312.6,111.0,107.4,371.4,87.0,-58.5,-3038.1,427.2,198.6,297.0,1855.2,1169.1,-124.2,-210.9,-6.0,-4.5,340.2,-9.3,-1.5,208.8,-1634.4,749.7,0,1530,0,93,0,
0.8533,-30.9,272.4,318.0,113.1,113.4,374.1,87.9,-56.4,-2889.9,421.2,203.4,303.6,1882.5,1156.5,-138.9,-222.6,-6.3,-4.2,350.1,-3.0,-1.5,220.5,-1629.0,728.1,0,1536,0,94,0,
0.8567,-27.3,275.4,325.2,124.5,119.1,375.9,85.5,-48.6,-2889.9,433.8,218.7,316.8,1876.2,1159.8,-147.9,-255.3,-6.0,-4.5,362.4,5.1,-2.1,234.9,-1661.7,763.8,0,1542,0,95,0,
0.8600,-32.1,264.3,319.5,116.1,114.6,366.3,85.2,-54.9,-2815.8,440.1,211.2,311.1,1859.1,1139.7,-132.3,-231.0,-6.3,-4.5,360.0,4.5,-1.8,230.4,-1654.2,743.1,0,1548,0,96,0,
0.8633,-28.5,256.5,308.4,106.8,100.8,361.2,81.3,-61.5,-2889.9,413.1,196.5,293.7,1862.4,1165.8,-134.7,-242.1,-6.3,-4.5,345.6,-16.2,-1.8,212.1,-1647.3,743.4,0,1554,0,97,0,
0.8667,-33.9,258.3,306.0,102.0,98.7,354.6,81.6,-70.2,-3112.2,424.2,192.9,292.2,1831.8,1143.9,-131.4,-212.4,-6.6,-4.8,343.5,-13.8,-1.5,228.0,-1649.7,723.3,0,1560,0,98,0,
0.8700,-34.2,261.0,307.5,105.3,102.9,363.6,84.6,-63.6,-2964.0,405.0,195.9,291.0,1875.3,1161.3,-135.6,-237.9,-6.3,-4.5,342.6,-17.4,-1.8,224.4,-1637.1,754.2,0,1566,0,99,0,
0.8733,-34.8,263.4,306.9,102.0,100.8,359.1,82.2,-62.7,-3038.1,424.2,199.5,294.9,1871.4,1160.1,-142.8,-234.0,-5.7,-4.5,346.5,-17.4,-1.8,219.3,-1658.4,730.5,0,1572,0,100,0,
0.8767,-34.5,264.9,316.2,109.5,111.9,373.2,85.8,-58.5,-2889.9,434.1,204.6,297.9,1903.5,1121.1,-139.8,-225.6,-6.3,-4.5,354.0,-17.1,-1.8,226.2,-1648.8,754.2,0,1578,0,101,0,
0.8800,-32.4,264.3,311.7,104.7,109.5,364.2,83.1,-60.9,-2889.9,410.1,195.9,295.2,1856.7,1153.8,-144.6,-219.0,-6.0,-4.8,338.4,-16.2,-1.8,218.7,-1639.2,748.2,0,1584,0,102,0,
0.8833,-33.0,263.4,314.4,104.7,111.0,372.3,83.4,-60.0,-3038.1,418.8,202.5,294.9,1866.9,1147.2,-144.0,-229.2,-6.0,-4.2,347.7,-11.1,-2.1,216.0,-1659.6,771.3,0,1590,0,103,0,
0.8867,-32.1,266.1,316.5,108.0,108.3,356.1,78.3,-57.3,-2964.0,424.8,204.6,296.4,1874.4,1149.3,-133.8,-221.4,-6.0,-4.5,349.2,-15.9,-1.8,229.5,-1646.1,723.9,0,1596,0,104,0,
0.8900,-41.7,243.3,304.2,101.4,105.3,365.1,83.4,-63.9,-2964.0,423.3,198.0,298.5,1833.0,1153.8,-120.9,-195.0,-6.6,-4.2,336.3,-10.8,-1.8,228.9,-1646.1,755.4,0,1602,0,105,0,
0.8933,-38.7,252.0,312.9,105.9,105.3,356.4,77.7,-62.4,-2741.7,435.6,204.6,297.6,1856.7,1163.7,-127.5,-216.3,-6.3,-4.2,347.7,-15.0,-1.5,231.0,-1652.4,692.1,0,1608,0,106,0,
0.8967,-37.2,255.3,313.8,105.0,107.7,353.1,83.4,-63.0,-2889.9,414.0,203.7,301.8,1869.0,1160.1,-132.6,-218.4,-6.3,-4.5,349.8,-9.0,-1.8,234.3,-1640.7,745.8,0,1614,0,107,0,
0.9000,-36.9,246.6,305.4,102.0,105.9,355.8,80.1,-66.9,-2964.0,441.9,199.8,297.6,1838.4,1167.3,-116.4,-208.8,-6.3,-4.5,343.5,-14.7,-1.8,231.3,-1658.1,752.4,0,1620,0,108,0,
0.9033,-27.9,270.3,315.3,106.2,103.2,353.7,78.9,-63.9,-2889.9,428.1,202.2,299.7,1902.6,1161.9,-135.9,-225.9,-6.0,-4.5,347.4,-10.5,-1.8,219.9,-1652.4,743.7,0,1626,0,109,0,
0.9067,-33.3,256.8,307.5,105.0,107.1,352.2,77.4,-66.6,-2815.8,425.7,205.5,304.2,1860.0,1145.7,-120.6,-210.9,-6.0,-4.2,343.8,-5.1,-1.5,256.5,-1643.4,738.3,0,1632,0,110,0,
0.9100,-33.0,252.3,306.9,106.2,108.0,360.6,79.8,-63.6,-2889.9,438.0,205.8,304.2,1852.5,1149.3,-136.2,-225.9,-6.6,-4.8,347.1,-1.5,-1.5,234.9,-1650.0,760.2,0,1638,0,111,0,
0.9133,-36.3,249.3,300.3,96.9,102.0,352.2,80.4,-72.3,-2889.9,419.1,200.4,295.5,1859.7,1156.2,-135.9,-213.9,-6.0,-4.5,341.1,-12.3,-1.8,215.1,-1651.5,735.9,0,1644,0,112,0,
0.9167,-33.9,255.3,307.8,101.7,105.6,361.8,82.5,-69.6,-2964.0,415.8,203.7,300.3,1872.9,1164.9,-147.9,-228.0,-6.3,-4.2,345.3,-8.1,-1.8,211.5,-1653.3,743.7,0,1650,0,113,0,
0.9200,-34.8,262.8,306.0,100.8,105.0,357.3,85.5,-69.0,-2889.9,437.7,201.6,293.4,1872.3,1143.6,-144.0,-228.3,-6.3,-4.5,345.3,-21.6,-1.5,230.4,-1658.7,732.0,0,1656,0,114,0,
0.9233,-31.5,264.3,311.4,108.3,110.4,363.6,83.1,-66.0,-2815.8,432.9,206.7,300.6,1847.1,1161.6,-136.2,-220.5,-6.3,-4.5,352.2,-15.0,-1.8,216.6,-1657.2,728.4,0,1662,0,115,0,
0.9267,-33.6,258.3,311.1,111.0,106.5,358.5,87.6,-65.7,-2815.8,441.0,212.4,300.0,1848.3,1152.9,-144.0,-239.1,-6.0,-4.5,352.8,-15.3,-1.8,238.2,-1621.8,737.1,0,1668,0,116,0,
0.9300,-33.3,266.1,319.2,112.8,114.3,351.6,79.2,-64.2,-2889.9,438.3,217.2,297.9,1861.8,1159.2,-152.1,-233.1,-6.0,-4.2,358.5,-6.9,-1.8,237.3,-1656.3,736.2,0,1674,0,117,0,
0.9333,-38.4,252.0,314.4,110.4,116.4,362.7,87.3,-62.7,-2964.0,421.2,209.4,309.6,1864.2,1148.7,-140.1,-219.3,-6.0,-4.5,355.2,-14.4,-1.8,240.9,-1653.9,752.4,0,1680,0,118,0,
0.9367,-27.6,269.1,325.5,118.2,114.9,364.2,83.4,-60.3,-2889.9,424.8,219.0,313.5,1910.4,1157.4,-143.1,-234.0,-6.3,-4.2,361.2,-5.7,-1.8,237.9,-1658.1,742.2,0,1686,0,119,0,
0.9400,-43.5,253.5,311.7,107.7,108.0,361.5,82.2,-68.4,-2815.8,419.1,205.5,303.6,1858.8,1135.5,-142.5,-216.0,-6.0,-4.5,343.5,-8.7,-1.5,222.0,-1656.9,732.3,0,1692,0,120,0,
0.9433,-36.0,260.4,322.5,120.6,119.7,373.5,84.9,-62.1,-2741.7,424.2,223.8,315.0,1809.9,1153.5,-145.8,-234.9,-6.6,-4.5,360.0,7.2,-1.8,249.3,-1676.4,736.5,0,1698,0,121,0,
0.9467,-39.9,252.0,316.2,113.4,112.5,360.9,80.7,-62.4,-2815.8,431.1,220.2,311.1,1857.6,1151.1,-145.8,-242.1,-6.3,-4.5,356.1,-1.5,-1.5,218.4,-1652.7,716.1,0,1704,0,122,0,
0.9500,-36.6,250.2,308.1,111.0,108.6,360.3,85.5,-64.5,-2815.8,425.1,211.8,308.1,1863.6,1158.9,-137.1,-226.5,-6.0,-4.8,347.1,-5.1,-1.5,226.8,-1643.7,739.5,0,1710,0,123,0,
0.9533,-31.5,262.8,317.7,114.9,114.9,368.7,84.9,-60.9,-2889.9,426.3,216.3,307.5,1869.0,1143.3,-127.5,-235.8,-6.0,-4.5,352.8,1.5,-1.8,233.7,-1681.8,762.9,0,1716,0,124,0,
0.9567,-33.0,257.1,319.8,117.0,116.1,365.1,86.4,-60.0,-2815.8,436.5,218.7,306.6,1856.4,1138.2,-148.2,-233.7,-6.0,-4.8,355.2,-8.7,-1.8,231.6,-1655.1,722.7,0,1722,0,125,0,
0.9600,-35.7,253.2,316.8,117.6,121.2,375.9,93.9,-57.3,-2741.7,424.2,212.4,302.4,1839.3,1133.1,-148.8,-230.1,-6.0,-4.5,346.8,-17.1,-1.8,221.1,-1652.7,739.8,0,1728,0,126,0,
0.9633,-38.1,254.4,310.8,111.6,117.6,369.6,92.4,-59.7,-2741.7,437.4,209.7,303.0,1849.2,1117.8,-136.2,-217.8,-6.3,-4.5,341.1,-12.6,-2.1,218.1,-1652.7,739.2,0,1734,0,127,0,
0.9667,-39.0,251.4,303.9,105.9,111.6,371.7,91.8,-63.3,-2964.0,396.9,197.4,294.0,1868.4,1133.4,-145.2,-212.1,-6.3,-4.2,330.0,-9.0,-1.8,211.2,-1652.4,743.4,0,1740,0,128,0,
0.9700,-37.5,243.0,304.8,107.1,105.0,362.1,91.2,-64.2,-2815.8,408.9,206.4,303.9,1819.2,1143.3,-130.8,-216.9,-6.3,-4.5,335.1,-6.3,-1.5,219.3,-1657.2,726.6,0,1746,0,129,0,
0.9733,-31.5,255.0,317.4,117.3,113.7,365.4,92.1,-56.1,-2889.9,429.0,211.2,306.0,1858.8,1144.5,-139.5,-231.9,-6.0,-4.5,349.2,-1.8,-1.8,231.9,-1639.2,731.7,0,1752,0,130,0,
0.9767,-39.6,246.9,310.8,111.3,109.5,367.2,92.4,-63.0,-2667.6,426.6,206.4,305.7,1830.0,1122.0,-138.0,-214.5,-6.3,-4.8,341.4,0.0,-2.1,218.7,-1646.7,750.0,0,1758,0,131,0,
0.9800,-39.0,243.6,305.1,101.4,100.2,359.7,87.0,-66.6,-2964.0,409.5,201.9,293.1,1828.5,1131.3,-138.6,-201.3,-6.6,-4.5,333.3,-12.9,-1.8,232.2,-1653.6,726.0,0,1764,0,132,0,
0.9833,-39.0,244.2,305.4,102.6,97.5,349.5,89.1,-65.4,-2889.9,413.4,200.7,290.4,1853.1,1155.3,-139.8,-225.3,-6.6,-4.5,332.4,-20.7,-1.5,227.1,-1652.7,701.4,0,1770,0,133,0,
0.9867,-38.1,239.1,308.1,108.9,114.9,364.8,82.8,-63.9,-2815.8,432.3,207.9,295.5,1826.1,1138.2,-141.0,-248.1,-6.3,-4.8,336.9,-11.7,-1.8,235.2,-1680.9,733.5,0,1776,0,134,0,
0.9900,-36.0,238.5,301.8,101.4,108.6,354.9,86.1,-68.4,-2815.8,411.3,200.4,291.0,1840.2,1147.2,-137.4,-227.7,-6.0,-4.8,332.7,-13.8,-1.8,229.5,-1669.2,736.5,0,1782,0,135,0,
0.9933,-39.9,240.3,300.0,96.9,96.9,346.5,85.5,-69.6,-2815.8,396.9,198.9,285.3,1860.0,1126.5,-156.6,-232.2,-6.3,-4.5,329.7,-24.3,-1.5,217.8,-1657.5,711.6,0,1788,0,136,0,
0.9967,-41.1,247.2,303.9,99.6,99.6,350.1,81.9,-68.4,-2889.9,418.8,200.4,288.6,1863.0,1122.3,-135.9,-236.4,-6.3,-4.2,331.5,-24.6,-1.8,207.6,-1682.1,716.1,0,1794,0,137,0,
1.0000,-38.4,243.9,300.0,97.5,96.3,350.1,80.7,-67.5,-2889.9,413.1,196.2,282.0,1821.0,1133.1,-157.2,-237.9,-6.3,-4.5,329.7,-28.2,-1.8,202.5,-1680.0,707.4,0,1800,0,138,0,
1.0033,-40.8,237.9,299.7,98.1,93.9,348.9,79.8,-65.4,-2889.9,407.7,194.7,285.0,1812.0,1132.8,-140.7,-227.1,-6.3,-4.5,330.0,-24.3,-1.8,200.4,-1683.3,707.1,0,1806,0,139,0,
1.0067,-42.0,235.2,304.8,101.7,100.5,354.9,84.6,-61.2,-2815.8,430.5,198.9,288.3,1832.4,1123.2,-143.1,-233.4,-6.3,-4.5,337.5,-18.3,-1.5,225.6,-1676.1,717.0,0,1812,0,140,0,
1.0100,-40.8,235.2,302.1,101.1,97.5,345.6,84.6,-63.3,-2741.7,419.7,196.2,291.9,1835.4,1114.2,-151.2,-235.5,-6.0,-4.2,333.0,-16.8,-2.1,209.1,-1682.1,744.0,0,1818,0,141,0,
1.0133,-36.3,246.0,298.8,97.8,100.2,341.4,78.9,-63.6,-2964.0,395.1,188.4,279.6,1813.2,1139.1,-153.0,-247.2,-6.0,-4.5,325.5,-38.7,-1.5,199.5,-1689.9,690.9,0,1824,0,142,0,
1.0167,-38.4,241.8,296.1,95.7,105.3,351.0,81.9,-67.8,-2815.8,384.9,187.8,280.2,1817.1,1104.0,-155.7,-238.2,-6.0,-4.5,325.2,-39.3,-1.8,201.9,-1674.3,696.9,0,1830,0,143,0,
1.0200,-44.1,231.3,290.7,91.5,97.2,352.5,84.0,-72.6,-2741.7,405.0,184.2,276.0,1834.2,1116.6,-147.0,-229.8,-5.7,-4.2,322.8,-24.0,-1.5,183.6,-1657.2,748.2,0,1836,0,144,0,
1.0233,-35.7,249.0,307.2,105.9,103.5,354.0,87.3,-59.7,-2741.7,417.0,206.1,291.9,1860.9,1133.7,-152.4,-249.0,-6.3,-4.5,346.5,-15.9,-1.8,212.7,-1673.1,734.1,0,1842,0,145,0,
1.0267,-36.9,244.2,297.3,97.2,97.5,347.4,81.9,-64.2,-2741.7,414.3,196.5,285.3,1856.4,1131.9,-147.6,-237.3,-6.0,-4.2,332.7,-24.9,-1.5,213.0,-1692.9,699.9,0,1848,0,146,0,
1.0300,-38.4,251.1,303.0,100.2,97.5,344.1,84.0,-66.6,-2741.7,416.4,200.4,285.0,1837.2,1097.1,-145.8,-222.3,-6.0,-3.9,340.5,-22.8,-1.5,218.4,-1681.2,699.3,0,1854,0,147,0,
1.0333,-35.1,248.1,303.3,106.5,109.2,359.7,87.6,-60.3,-2815.8,414.9,206.1,299.1,1825.8,1126.2,-147.6,-242.1,-5.7,-4.2,336.9,-18.3,-1.8,235.5,-1686.0,728.1,0,1860,0,148,0,
1.0367,-33.3,242.4,300.6,104.4,103.8,348.3,76.2,-65.1,-2889.9,414.6,199.5,291.3,1823.4,1137.6,-148.2,-240.6,-6.0,-4.5,330.3,-29.4,-1.8,220.2,-1685.1,734.4,0,1866,0,149,0,
1.0400,-30.0,249.9,304.5,106.8,108.9,344.7,76.8,-64.2,-2815.8,419.7,199.5,290.4,1830.9,1126.8,-138.9,-231.9,-6.3,-4.2,337.5,-19.5,-1.5,213.3,-1690.5,707.1,0,1872,0,150,0,
1.0433,-36.9,237.0,287.7,92.7,93.6,334.5,73.8,-75.9,-2741.7,409.8,185.1,279.6,1829.7,1134.6,-135.0,-217.8,-6.3,-4.8,319.5,-32.7,-1.8,197.1,-1691.1,708.6,0,1878,0,151,0,
1.0467,-39.3,232.8,297.3,100.2,102.3,342.9,79.2,-66.3,-2667.6,428.4,199.5,290.4,1827.3,1116.9,-140.1,-238.8,-6.3,-4.5,332.1,-20.4,-1.8,206.4,-1691.4,718.5,0,1884,0,152,0,
1.0500,-37.5,243.9,299.1,97.8,98.7,340.5,80.7,-69.9,-2889.9,409.5,201.0,293.7,1824.9,1123.5,-147.6,-236.4,-6.3,-4.8,335.4,-21.0,-1.8,204.3,-1692.9,706.8,0,1890,0,153,0,
1.0533,-39.6,231.0,290.7,93.3,92.1,340.2,78.9,-73.5,-2964.0,410.7,191.7,285.9,1780.8,1128.3,-144.0,-224.4,-6.0,-4.5,327.9,-35.7,-1.5,209.7,-1681.2,705.0,0,1896,0,154,0,
1.0567,-42.3,231.6,296.1,91.8,94.5,342.3,84.3,-71.7,-2889.9,424.8,194.7,286.5,1860.6,1116.9,-145.8,-234.6,-6.0,-4.5,331.2,-33.6,-1.8,209.1,-1686.9,707.1,0,1902,0,155,0,
1.0600,-38.4,238.5,299.1,100.5,99.3,346.2,79.2,-69.9,-2741.7,407.7,198.0,291.9,1822.8,1117.2,-151.2,-236.4,-6.3,-4.5,332.4,-22.5,-1.8,206.4,-1694.4,699.6,0,1908,0,156,0,
1.0633,-47.1,221.7,293.1,92.7,102.3,349.8,82.8,-74.4,-2815.8,412.5,191.4,282.0,1808.4,1106.7,-148.5,-231.3,-6.3,-4.5,327.3,-19.8,-2.1,188.1,-1678.5,713.1,0,1914,0,157,0,
1.0667,-41.7,231.6,300.3,96.9,98.7,342.6,80.7,-70.8,-2815.8,408.3,195.9,282.3,1812.0,1114.5,-154.8,-249.9,-6.3,-4.5,331.2,-45.0,-1.5,201.6,-1691.1,701.4,0,1920,0,158,0,
1.0700,-40.5,236.4,304.8,101.4,103.2,346.8,83.7,-70.5,-2889.9,416.4,200.4,285.3,1821.9,1105.8,-146.4,-238.5,-6.3,-4.2,337.5,-28.2,-2.1,218.7,-1699.5,703.2,0,1926,0,159,0,
1.0733,-42.9,222.6,299.4,97.8,98.1,342.9,81.6,-72.3,-2741.7,415.5,194.1,281.7,1828.2,1123.2,-146.4,-218.7,-6.0,-4.2,328.8,-18.9,-1.5,203.4,-1690.2,698.7,0,1932,0,160,0,
1.0767,-42.6,225.9,294.0,93.3,90.0,333.6,79.8,-75.3,-2815.8,415.5,192.0,283.5,1824.0,1113.3,-134.1,-223.8,-6.3,-4.5,325.8,-25.8,-1.8,208.2,-1686.6,707.4,0,1938,0,161,0,
1.0800,-41.4,228.0,300.3,100.2,98.4,338.7,81.0,-70.2,-2889.9,418.2,198.3,290.7,1812.0,1107.6,-144.9,-234.3,-6.0,-4.5,333.6,-13.5,-1.8,218.1,-1689.0,706.5,0,1944,0,162,0,
1.0833,-36.9,232.2,296.1,96.3,93.6,335.7,81.6,-77.1,-2889.9,397.2,193.2,284.1,1824.6,1155.9,-145.8,-240.0,-6.3,-4.8,329.1,-24.0,-1.5,200.1,-1680.6,712.2,0,1950,0,163,0,
1.0867,-38.7,230.7,298.8,100.2,94.5,331.8,80.4,-75.9,-2889.9,411.0,195.9,281.4,1848.6,1109.7,-147.6,-221.7,-6.3,-4.5,330.6,-26.7,-1.5,193.5,-1691.4,702.3,0,1956,0,164,0,
1.0900,-45.3,218.4,298.2,102.0,94.2,335.4,84.9,-75.9,-2741.7,428.1,199.5,283.2,1776.9,1103.4,-129.6,-236.4,-6.3,-4.5,331.8,-33.6,-1.8,208.5,-1703.1,726.6,0,1962,0,165,0,
1.0933,-35.4,228.3,300.0,100.5,98.7,336.3,78.3,-72.6,-2815.8,417.9,196.2,285.9,1813.2,1131.6,-150.6,-227.7,-6.0,-4.5,328.2,-25.8,-1.8,198.3,-1707.6,688.5,0,1968,0,166,0,
1.0967,-36.0,236.1,303.6,100.2,100.5,329.4,78.3,-73.8,-2815.8,401.4,198.3,281.4,1814.1,1117.5,-133.8,-227.4,-6.3,-4.5,331.2,-29.4,-1.8,189.0,-1689.0,699.0,0,1974,0,167,0,
1.1000,-44.7,225.9,299.7,99.3,101.4,341.1,74.7,-74.7,-2889.9,409.8,197.1,285.9,1819.5,1084.2,-148.8,-235.5,-6.0,-4.5,330.6,-30.3,-1.8,195.6,-1704.6,671.4,0,1980,0,168,0,
1.1033,-47.1,214.5,291.0,92.1,89.1,332.4,75.9,-80.1,-2741.7,404.1,189.3,280.5,1788.9,1111.8,-140.1,-235.8,-6.3,-4.5,321.9,-40.5,-1.8,195.3,-1703.7,702.0,0,1986,0,169,0,
1.1067,-47.4,210.6,292.2,93.6,90.0,324.9,76.5,-79.8,-2889.9,408.0,189.0,279.6,1815.3,1094.4,-136.2,-221.1,-6.0,-4.8,320.7,-36.9,-1.8,200.7,-1689.9,700.2,0,1992,0,170,0,
1.1100,-42.3,220.2,294.0,97.8,95.1,338.7,77.4,-77.4,-2815.8,406.5,196.8,282.3,1793.1,1118.1,-147.9,-235.5,-6.0,-4.5,326.1,-30.6,-1.8,191.4,-1694.1,688.8,0,1998,0,171,0,
1.1133,-36.6,221.4,299.4,103.8,97.8,341.4,80.7,-70.8,-2815.8,409.2,196.8,285.0,1815.6,1115.7,-149.1,-229.8,-6.3,-4.2,329.4,-24.0,-1.5,202.5,-1706.7,686.7,0,2004,0,172,0,
1.1167,-44.1,214.8,293.4,102.0,95.7,338.1,79.2,-70.5,-2741.7,406.2,189.0,278.7,1807.5,1091.1,-154.2,-232.5,-6.3,-4.5,324.0,-29.4,-1.8,198.0,-1705.5,672.3,0,2010,0,173,0,
1.1200,-44.7,209.7,291.0,99.9,94.8,333.0,84.9,-66.9,-2815.8,386.7,182.1,281.4,1785.6,1092.0,-151.8,-235.5,-6.3,-4.5,311.7,-34.2,-1.8,201.6,-1681.2,706.2,0,2016,0,174,0,
1.1233,-39.9,219.0,298.8,104.7,98.4,336.9,82.5,-67.2,-2815.8,408.3,189.3,278.7,1808.1,1102.8,-157.8,-235.8,-6.6,-4.5,323.7,-46.5,-1.8,199.8,-1702.8,695.4,0,2022,0,175,0,
1.1267,-39.6,218.4,300.9,100.8,98.4,327.6,85.2,-68.7,-2815.8,420.9,197.4,275.1,1792.2,1125.6,-140.4,-230.1,-6.6,-4.5,331.8,-53.4,-1.8,198.9,-1695.6,692.7,0,2028,0,176,0,
1.1300,-38.7,222.9,305.1,107.1,101.4,334.5,81.6,-67.8,-2815.8,402.3,203.7,281.1,1782.9,1102.2,-166.5,-244.8,-6.3,-4.5,332.7,-27.9,-1.5,202.2,-1705.8,701.7,0,2034,0,177,0,
1.1333,-39.0,221.4,311.4,112.5,102.9,329.1,80.7,-59.7,-2815.8,405.3,207.0,286.5,1831.8,1094.4,-158.4,-228.9,-6.3,-4.5,341.7,-23.1,-2.1,205.2,-1684.8,693.6,0,2040,0,178,0,
1.1367,-32.7,230.1,311.1,110.1,98.1,329.4,82.8,-63.6,-2815.8,415.2,211.5,294.9,1838.1,1102.2,-151.8,-212.1,-6.3,-4.5,342.0,-17.7,-1.8,190.5,-1689.3,686.7,0,2046,0,179,0,
1.1400,-33.9,221.4,306.6,113.1,106.5,337.2,86.7,-63.6,-2667.6,406.8,202.8,291.9,1798.2,1112.7,-148.2,-232.8,-6.3,-4.5,334.2,-15.0,-1.5,203.4,-1683.3,711.3,0,2052,0,180,0,
1.1433,-32.7,227.4,315.3,117.3,112.2,345.0,82.5,-56.7,-2889.9,408.9,213.3,299.4,1803.0,1109.7,-150.6,-239.1,-6.0,-4.2,340.5,-12.0,-1.2,201.9,-1686.9,696.3,0,2058,0,181,0,
1.1467,-32.1,231.6,313.5,118.8,116.1,346.2,78.6,-55.8,-2741.7,414.9,214.2,293.4,1799.7,1098.3,-147.6,-256.2,-6.3,-4.2,344.4,-8.1,-1.8,195.6,-1718.7,683.4,0,2064,0,182,0,
1.1500,-37.2,233.1,313.8,116.4,117.0,345.9,82.5,-57.9,-2815.8,412.5,207.3,288.0,1805.7,1064.1,-158.7,-244.8,-6.6,-4.5,337.2,-15.0,-1.8,207.3,-1690.5,693.6,0,2070,0,183,0,
1.1533,-34.5,214.8,306.0,108.6,111.9,333.3,78.3,-63.9,-2815.8,398.4,202.8,284.7,1816.8,1130.7,-143.1,-245.7,-6.0,-4.2,335.1,-23.7,-2.1,209.4,-1708.8,697.2,0,2076,0,184,0,
1.1567,-42.9,208.2,299.4,103.5,107.7,330.3,78.9,-70.2,-2667.6,404.7,194.7,287.4,1783.5,1083.6,-147.0,-235.5,-6.3,-4.5,323.1,-33.3,-1.8,193.5,-1699.5,691.2,0,2082,0,185,0,
1.1600,-40.8,216.0,305.7,111.0,113.1,328.5,79.2,-65.7,-2815.8,418.2,205.2,290.7,1787.7,1092.6,-151.5,-231.6,-6.3,-4.8,334.5,-20.1,-2.1,188.7,-1688.1,691.2,0,2088,0,186,0,
1.1633,-36.0,227.7,310.2,112.2,113.4,331.2,82.2,-62.4,-2815.8,407.7,204.9,295.8,1817.1,1085.7,-146.1,-231.6,-6.3,-4.2,338.4,-13.2,-1.5,192.3,-1676.4,688.2,0,2094,0,187,0,
1.1667,-46.8,212.4,305.7,108.3,111.0,327.6,76.8,-65.1,-2889.9,410.1,204.9,293.1,1752.3,1089.0,-144.9,-225.0,-6.3,-4.5,332.4,-16.8,-1.8,202.5,-1691.7,689.4,0,2100,0,188,0,
1.1700,-48.0,208.5,303.0,104.7,108.0,324.6,77.7,-69.3,-2889.9,402.0,201.0,289.5,1786.2,1092.3,-142.8,-227.1,-6.6,-4.8,328.5,-16.5,-1.5,202.5,-1692.6,670.8,0,2106,0,189,0,
1.1733,-41.4,217.8,309.0,111.0,111.0,329.1,87.6,-64.8,-2889.9,406.8,207.9,288.9,1806.0,1082.7,-143.7,-239.7,-6.0,-4.2,336.0,-15.6,-1.8,196.2,-1675.8,702.9,0,2112,0,190,0,
1.1767,-38.4,216.3,306.3,110.7,114.9,335.4,87.3,-63.9,-2667.6,412.8,205.5,289.5,1792.2,1099.8,-137.1,-230.4,-6.0,-4.5,333.0,-11.4,-1.8,201.6,-1679.4,718.2,0,2118,0,191,0,
1.1800,-39.6,211.5,303.9,110.4,107.1,324.6,81.3,-65.7,-2667.6,407.4,201.6,291.0,1804.5,1108.5,-140.1,-226.5,-6.3,-4.5,333.6,-17.7,-1.8,207.3,-1677.9,696.3,0,2124,0,192,0,
1.1833,-41.7,209.4,305.1,110.4,113.4,332.4,83.4,-66.6,-2889.9,420.3,209.4,298.8,1785.0,1085.1,-152.4,-237.9,-6.3,-4.5,337.8,-16.8,-1.5,215.1,-1699.8,681.9,0,2130,0,193,0,
1.1867,-41.4,210.3,301.8,102.3,101.4,316.5,83.7,-71.7,-2815.8,396.0,198.6,290.1,1812.0,1101.0,-131.7,-219.0,-6.0,-3.9,328.8,-24.6,-1.8,213.6,-1675.5,702.9,0,2136,0,194,0,
1.1900,-44.1,202.5,298.8,102.3,105.3,325.5,87.3,-66.0,-2964.0,417.6,198.6,285.9,1778.7,1094.4,-138.9,-219.3,-6.0,-4.5,329.4,-22.8,-1.8,195.6,-1675.5,703.2,0,2142,0,195,0,
1.1933,-36.3,219.9,306.3,104.7,106.8,328.2,86.7,-68.1,-2815.8,409.8,203.4,288.0,1833.9,1111.5,-140.7,-220.5,-6.0,-4.8,339.0,-29.7,-1.5,189.0,-1662.3,692.1,0,2148,0,196,0,
1.1967,-36.3,225.3,319.8,115.2,120.3,336.9,81.9,-61.2,-2815.8,435.3,218.1,300.6,1824.3,1071.0,-147.9,-262.5,-6.6,-4.5,351.6,-20.4,-1.5,220.5,-1718.4,689.7,0,2154,0,197,0,
1.2000,-36.9,215.7,309.3,107.7,113.4,330.9,82.2,-66.3,-2964.0,398.4,209.1,295.5,1789.5,1107.6,-136.8,-230.4,-6.0,-4.2,336.9,-13.8,-1.8,229.5,-1692.6,720.9,0,2160,0,198,0,
1.2033,-37.5,215.1,312.0,109.5,111.6,316.2,77.4,-63.3,-2815.8,414.0,213.9,297.0,1786.5,1102.8,-140.7,-231.0,-6.0,-4.5,342.9,-20.1,-1.8,217.5,-1675.8,669.9,0,2166,0,199,0,
1.2067,-32.7,211.8,302.4,103.8,108.3,313.8,78.0,-69.0,-2815.8,406.2,201.3,288.9,1784.4,1105.2,-128.4,-224.7,-6.0,-4.5,327.9,-23.1,-1.5,209.4,-1685.7,691.5,0,2172,0,200,0,
1.2100,-30.6,223.8,312.0,108.0,114.3,333.0,82.2,-63.3,-2815.8,410.1,210.0,295.5,1805.4,1092.9,-130.2,-237.0,-6.6,-4.2,342.6,-14.7,-1.8,203.1,-1696.5,696.6,0,2178,0,201,0,
1.2133,-33.6,211.2,310.5,108.6,113.4,324.9,86.1,-63.9,-2889.9,418.8,208.5,299.1,1797.0,1085.4,-154.8,-235.2,-6.0,-4.5,336.9,-14.1,-1.8,206.7,-1686.0,677.4,0,2184,0,202,0,
1.2167,-38.4,207.9,310.8,104.1,114.3,321.6,84.9,-65.7,-2889.9,413.7,204.6,295.5,1778.4,1088.4,-151.8,-230.4,-6.3,-4.5,337.5,-18.0,-1.8,207.3,-1687.5,686.7,0,2190,0,203,0,
1.2200,-38.4,211.5,309.3,107.7,111.9,321.6,81.0,-66.0,-2964.0,418.2,201.9,288.3,1798.8,1109.4,-147.6,-239.7,-6.3,-4.8,334.2,-33.9,-1.5,203.4,-1684.8,680.1,0,2196,0,204,0,
1.2233,-36.0,209.7,309.3,109.5,119.7,322.8,81.9,-64.5,-2815.8,418.2,204.9,294.3,1787.4,1109.1,-150.9,-228.6,-6.6,-4.5,335.1,-24.6,-1.8,212.7,-1677.6,676.5,0,2202,0,205,0,
1.2267,-39.9,206.4,308.7,110.7,119.7,324.0,85.8,-68.7,-2889.9,411.0,203.7,288.0,1785.9,1085.7,-152.4,-236.1,-6.3,-4.5,330.9,-15.0,-1.8,210.6,-1683.6,669.3,0,2208,0,206,0,
1.2300,-41.4,210.6,305.1,106.2,116.1,323.1,85.8,-65.4,-2889.9,414.9,201.9,285.6,1805.1,1080.9,-147.0,-230.4,-6.3,-4.5,328.5,-20.4,-1.8,205.2,-1684.5,687.3,0,2214,0,207,0,
1.2333,-40.5,212.7,310.5,109.2,113.1,326.7,84.0,-64.2,-2889.9,414.9,206.7,295.8,1803.6,1091.7,-146.7,-245.1,-6.6,-4.8,333.3,-15.3,-1.8,197.1,-1685.7,693.3,0,2220,0,208,0,
1.2367,-40.2,214.5,309.9,110.7,112.2,327.0,87.6,-59.4,-2815.8,409.8,204.6,294.6,1797.0,1091.7,-148.5,-232.2,-6.0,-4.8,328.2,-23.4,-1.8,198.3,-1700.7,686.1,0,2226,0,209,0,
1.2400,-39.0,212.4,304.5,109.5,117.3,329.1,84.6,-63.0,-2741.7,406.2,197.4,293.4,1798.2,1083.6,-141.3,-242.7,-6.3,-4.5,328.2,-53.7,-1.8,209.4,-1723.5,674.4,0,2232,0,210,0,
1.2433,-39.3,205.2,302.1,105.6,123.3,322.8,81.0,-62.4,-2815.8,411.9,199.5,280.2,1761.0,1080.0,-145.5,-237.9,-6.3,-4.5,330.0,-40.2,-2.1,205.5,-1706.7,662.4,0,2238,0,211,0,
1.2467,-34.5,210.9,308.7,110.1,123.3,324.0,81.3,-60.3,-2889.9,406.5,203.1,270.0,1787.7,1086.9,-134.1,-232.5,-6.6,-4.2,332.4,-26.1,-1.5,200.1,-1701.6,685.2,0,2244,0,212,0,
1.2500,-31.8,215.4,309.0,109.2,117.9,323.1,84.0,-63.0,-2964.0,406.8,207.6,284.7,1809.6,1090.2,-138.6,-225.6,-6.0,-4.8,334.5,-32.4,-1.5,213.0,-1707.0,660.9,0,2250,0,213,0,
1.2533,-32.7,213.0,305.4,106.8,110.1,319.8,81.0,-61.5,-2815.8,420.0,207.9,300.9,1784.4,1084.8,-145.5,-236.1,-6.3,-4.5,334.5,-9.0,-1.8,215.4,-1713.0,701.4,0,2256,0,214,0,
1.2567,-35.4,211.5,306.0,105.0,103.8,312.0,81.3,-61.2,-2889.9,414.0,205.8,303.3,1819.8,1098.6,-144.0,-243.9,-6.3,-4.5,333.6,-12.6,-1.8,205.8,-1713.0,680.1,0,2262,0,215,0,
1.2600,-40.2,202.2,299.4,102.0,99.3,309.3,80.7,-68.1,-2667.6,406.5,202.8,294.6,1786.2,1077.9,-138.0,-228.9,-6.3,-4.2,327.6,-15.6,-1.5,201.0,-1693.5,689.1,0,2268,0,216,0,
1.2633,-39.9,211.2,303.9,104.7,103.8,317.1,81.0,-66.9,-2815.8,413.7,206.4,299.1,1830.0,1086.9,-142.5,-242.4,-6.6,-4.5,335.7,-15.0,-1.8,201.9,-1693.2,685.5,0,2274,0,217,0,
1.2667,-38.7,205.2,300.6,103.8,110.4,327.0,85.5,-63.9,-2889.9,412.8,202.8,296.1,1782.3,1080.3,-140.1,-224.7,-6.0,-4.5,330.0,-11.4,-2.1,207.3,-1695.6,702.3,0,2280,0,218,0,
1.2700,-38.1,213.6,303.3,99.6,103.5,314.4,78.9,-66.6,-2815.8,394.8,202.2,292.8,1822.8,1074.9,-131.1,-230.1,-6.3,-4.2,331.2,-12.6,-1.8,218.4,-1699.8,663.9,0,2286,0,219,0,
1.2733,-45.0,199.5,299.7,102.0,109.8,319.8,84.9,-67.5,-2741.7,423.6,206.7,299.7,1767.9,1083.6,-136.2,-217.2,-6.0,-4.2,329.4,-9.0,-1.8,221.7,-1684.2,679.8,0,2292,0,220,0,
1.2767,-39.3,206.7,306.3,103.5,103.8,309.0,82.5,-66.9,-2815.8,417.3,204.9,296.4,1789.8,1078.2,-134.1,-232.5,-6.6,-4.5,340.8,-21.0,-1.8,218.7,-1691.1,677.1,0,2298,0,221,0,
1.2800,-41.4,207.9,301.5,98.1,103.2,315.0,87.0,-65.7,-2815.8,412.8,200.7,294.9,1795.2,1087.5,-141.6,-223.5,-6.3,-4.5,333.6,-17.1,-2.4,215.1,-1691.4,697.2,0,2304,0,222,0,
1.2833,-40.5,209.1,302.4,101.4,103.8,317.7,83.1,-64.5,-2815.8,425.4,206.4,299.4,1802.4,1081.2,-135.6,-237.6,-6.3,-4.2,341.1,-17.4,-1.8,212.7,-1689.6,679.2,0,2310,0,223,0,
1.2867,-40.8,204.6,300.6,99.6,104.4,323.7,84.3,-66.3,-2889.9,422.1,204.6,294.9,1779.9,1094.1,-133.2,-228.9,-6.3,-4.5,334.8,-28.2,-1.8,210.3,-1699.5,648.0,0,2316,0,224,0,
1.2900,-35.7,206.4,307.2,108.0,114.0,327.9,83.7,-61.8,-2889.9,428.7,212.4,303.6,1806.9,1104.9,-121.8,-229.2,-6.3,-4.5,344.1,-17.1,-1.5,230.7,-1704.9,681.0,0,2322,0,225,0,
1.2933,-36.0,219.3,315.6,111.3,111.3,322.8,87.0,-60.9,-2741.7,422.7,216.9,304.8,1818.6,1086.9,-126.9,-228.0,-6.6,-4.2,348.0,-6.3,-1.8,230.1,-1691.4,697.8,0,2328,0,226,0,
1.2967,-43.2,198.6,308.7,110.4,118.5,331.5,91.5,-60.6,-2815.8,417.9,213.3,305.1,1793.7,1076.4,-128.7,-230.7,-6.3,-4.5,342.3,-6.6,-1.8,230.7,-1675.5,699.9,0,2334,0,227,0,
1.3000,-38.4,206.4,314.1,111.0,119.4,326.1,86.4,-61.8,-2889.9,429.0,217.2,307.2,1802.1,1085.7,-131.1,-221.7,-6.6,-4.2,348.6,-30.6,-1.8,227.4,-1686.9,675.3,0,2340,0,228,0,
1.3033,-37.2,204.9,312.0,107.1,110.1,318.3,84.6,-64.5,-2889.9,433.2,212.7,299.7,1800.9,1094.1,-132.6,-224.1,-6.3,-4.5,348.3,-34.5,-1.2,214.5,-1679.1,677.7,0,2346,0,229,0,
1.3067,-38.4,210.3,314.7,111.3,114.3,327.0,84.9,-65.1,-2667.6,409.8,216.3,307.5,1834.2,1080.3,-131.4,-219.3,-6.3,-4.2,348.0,-15.6,-2.1,211.8,-1692.9,700.8,0,2352,0,230,0,
1.3100,-38.1,205.8,310.2,105.6,107.1,318.0,80.1,-67.8,-2741.7,417.6,208.5,299.4,1807.2,1077.3,-140.4,-232.2,-6.6,-4.5,340.8,-6.6,-1.5,221.7,-1688.7,684.0,0,2358,0,231,0,
1.3133,-39.6,204.9,314.7,109.2,106.2,311.7,84.0,-64.5,-2741.7,413.7,216.3,302.4,1793.4,1073.7,-148.2,-229.8,-6.0,-4.5,351.0,-10.2,-1.8,222.0,-1695.6,691.5,0,2364,0,232,0,
1.3167,-38.1,211.8,312.0,109.2,108.6,314.7,89.4,-64.5,-2889.9,411.3,212.1,299.7,1809.3,1070.4,-143.4,-229.5,-6.3,-4.2,347.4,-9.6,-1.5,216.9,-1681.8,682.2,0,2370,0,233,0,
1.3200,-38.7,208.2,310.2,105.9,108.9,317.7,85.5,-70.5,-2815.8,414.0,209.4,293.1,1782.3,1063.8,-155.1,-243.6,-6.0,-4.5,343.8,-24.0,-1.8,214.5,-1704.6,665.7,0,2376,0,234,0,
1.3233,-34.8,204.9,306.3,106.8,112.2,323.4,89.4,-69.6,-2889.9,406.8,204.6,297.9,1791.3,1072.2,-155.7,-237.6,-6.3,-4.2,338.7,-34.5,-1.5,215.1,-1713.9,690.0,0,2382,0,235,0,
1.3267,-40.8,203.7,303.9,98.7,101.4,313.2,83.4,-75.6,-2741.7,416.1,206.7,290.4,1793.1,1057.2,-156.3,-246.6,-6.3,-4.8,336.9,-31.8,-1.8,205.5,-1709.1,671.7,0,2388,0,236,0,
1.3300,-39.0,198.6,301.2,99.9,104.4,313.2,85.5,-72.3,-2889.9,414.6,200.7,285.6,1775.7,1067.1,-146.4,-240.9,-6.0,-4.2,336.3,-23.4,-1.5,197.7,-1713.3,663.9,0,2394,0,237,0,
1.3333,-39.6,195.0,299.1,99.9,101.4,313.2,80.4,-74.4,-2889.9,412.2,199.5,287.4,1794.3,1061.1,-146.7,-242.7,-6.3,-4.8,333.3,-22.5,-2.1,203.7,-1723.5,680.1,0,2400,0,238,0,
1.3367,-41.4,196.5,298.5,99.6,103.5,318.0,81.0,-74.1,-2815.8,401.4,195.0,286.2,1800.3,1053.9,-145.5,-235.5,-6.3,-4.5,327.9,-23.4,-1.8,185.1,-1711.8,659.7,0,2406,0,239,0,
1.3400,-35.4,196.8,298.8,103.5,108.9,323.7,83.7,-69.0,-2815.8,391.8,197.4,288.3,1774.2,1083.0,-146.1,-248.4,-6.3,-4.8,329.7,-22.5,-1.5,201.3,-1723.8,676.2,0,2412,0,240,0,
1.3433,-32.4,208.5,303.6,102.0,108.3,310.5,79.5,-65.1,-2667.6,400.5,203.4,285.9,1785.0,1060.8,-138.9,-239.4,-6.6,-4.5,333.6,-26.7,-1.5,199.8,-1693.5,680.4,0,2418,0,241,0,
1.3467,-38.1,193.5,305.1,99.9,110.4,312.0,78.0,-71.1,-2815.8,412.2,200.4,288.6,1794.0,1070.1,-144.6,-237.9,-6.0,-4.5,332.7,-26.4,-1.5,200.1,-1714.5,651.0,0,2424,0,242,0,
1.3500,-31.5,208.2,313.5,105.6,117.3,327.3,81.0,-63.3,-2889.9,414.0,204.9,296.7,1830.6,1078.5,-143.1,-253.5,-6.6,-4.5,342.0,-25.5,-1.8,202.2,-1724.4,649.8,0,2430,0,243,0,
1.3533,-37.5,201.3,306.0,100.8,112.5,316.8,82.5,-66.9,-3038.1,414.6,203.7,287.1,1768.2,1065.9,-129.0,-228.9,-6.0,-4.2,336.3,-22.5,-1.5,208.8,-1701.9,681.6,0,2436,0,244,0,
1.3567,-37.5,203.1,310.5,108.6,115.8,317.1,84.9,-64.5,-2667.6,412.5,210.3,295.2,1800.0,1060.8,-130.8,-228.9,-6.3,-4.2,343.5,-11.7,-1.8,214.8,-1699.2,673.8,0,2442,0,245,0,
1.3600,-43.2,186.9,301.2,99.0,108.6,313.8,82.2,-72.6,-2889.9,415.5,199.5,286.5,1782.6,1058.1,-129.9,-220.5,-6.3,-4.2,336.0,-21.3,-1.8,202.8,-1687.8,669.3,0,2448,0,246,0,
1.3633,-43.2,196.5,303.0,96.6,102.0,308.4,79.2,-74.4,-2815.8,412.2,205.2,291.9,1789.2,1062.6,-132.3,-232.5,-6.3,-4.5,340.5,-28.2,-2.1,204.3,-1698.3,666.3,0,2454,0,247,0,
1.3667,-42.9,195.6,303.6,104.4,110.1,312.0,82.5,-71.4,-2889.9,413.1,207.9,300.9,1802.7,1059.6,-137.1,-241.8,-6.3,-4.5,341.1,-22.2,-1.8,212.7,-1702.8,660.0,0,2460,0,248,0,
1.3700,-36.3,202.2,306.9,105.3,110.1,316.5,84.6,-67.2,-2741.7,424.2,210.6,300.0,1794.0,1059.6,-149.1,-243.0,-6.0,-4.8,340.8,-22.5,-1.5,220.5,-1707.9,660.3,0,2466,0,249,0,
1.3733,-38.7,199.5,307.5,110.7,118.5,325.5,90.3,-63.6,-2741.7,424.8,210.9,302.7,1814.1,1059.9,-135.6,-232.2,-6.3,-4.5,342.3,-7.5,-1.8,213.3,-1701.9,674.1,0,2472,0,250,0,
1.3767,-36.0,200.7,304.8,105.6,113.1,314.1,87.6,-69.6,-2815.8,411.6,205.8,294.3,1769.7,1061.1,-126.0,-215.4,-6.0,-4.8,340.8,-24.3,-1.8,217.2,-1690.5,657.3,0,2478,0,251,0,
1.3800,-35.1,205.5,303.6,102.3,110.4,320.4,84.6,-70.8,-2815.8,420.0,205.8,293.7,1781.7,1072.5,-127.2,-228.0,-6.3,-4.8,338.7,-26.7,-1.8,212.1,-1712.1,650.4,0,2484,0,252,0,
1.3833,-40.5,188.7,294.0,94.5,102.6,312.3,83.1,-74.4,-2815.8,418.2,197.1,287.7,1782.9,1072.8,-129.3,-217.8,-6.3,-4.2,331.2,-26.1,-1.8,204.3,-1705.2,670.2,0,2490,0,253,0,
1.3867,-37.8,202.5,303.3,99.9,109.5,314.4,78.3,-69.0,-2815.8,412.2,209.4,299.4,1821.6,1045.2,-143.1,-230.4,-6.3,-4.5,342.0,-17.1,-1.5,223.2,-1710.3,651.6,0,2496,0,254,0,
1.3900,-36.9,201.6,304.5,111.6,114.9,321.3,86.7,-67.8,-2741.7,440.7,212.7,300.0,1764.9,1065.0,-127.5,-230.4,-6.3,-4.8,350.7,-13.8,-1.8,225.3,-1711.5,663.6,0,2502,0,255,0,
1.3933,-38.1,201.0,308.7,114.9,114.6,318.0,85.8,-69.0,-2741.7,431.4,216.9,300.6,1810.5,1055.4,-129.9,-232.5,-6.3,-4.2,351.6,-17.1,-1.5,220.2,-1699.5,659.7,0,2508,0,0,0,
1.3967,-33.3,206.7,302.4,105.3,105.9,312.6,83.1,-72.6,-2815.8,420.9,208.8,291.6,1804.8,1083.0,-131.7,-227.1,-6.3,-4.8,346.2,-22.5,-1.8,213.0,-1705.2,663.6,0,2514,0,1,0,
1.4000,-30.0,211.2,307.8,104.7,106.5,315.9,82.2,-69.6,-2964.0,438.3,213.3,295.5,1802.4,1062.0,-124.5,-222.3,-6.3,-4.5,352.2,-16.2,-1.5,219.6,-1710.9,662.1,0,2520,0,2,0,
1.4033,-36.9,199.2,302.1,97.8,104.1,309.6,81.3,-73.8,-2889.9,425.4,207.6,289.8,1814.7,1046.7,-123.0,-210.0,-6.3,-4.8,348.9,-31.2,-1.8,210.3,-1697.1,637.8,0,2526,0,3,0,
1.4067,-39.0,191.1,297.0,96.9,106.2,308.1,81.9,-74.4,-2815.8,407.1,198.9,292.5,1788.3,1066.8,-126.6,-216.3,-6.0,-4.2,331.8,-27.0,-1.5,222.6,-1712.7,648.0,0,2532,0,4,0,
1.4100,-37.2,201.3,306.0,102.6,108.9,315.9,83.4,-69.6,-2815.8,425.1,208.5,294.6,1789.8,1059.0,-140.1,-242.1,-6.0,-4.5,346.2,-21.3,-1.8,222.9,-1721.4,658.5,0,2538,0,5,0,
1.4133,-29.1,210.3,313.2,110.1,114.9,323.7,86.4,-62.4,-2815.8,432.6,215.1,298.5,1797.6,1071.3,-138.9,-234.9,-6.3,-4.5,349.8,-12.3,-1.5,209.7,-1709.1,660.9,0,2544,0,6,0,
1.4167,-36.6,206.7,313.8,108.9,111.3,317.4,87.9,-63.0,-2815.8,430.5,212.7,293.4,1809.3,1042.8,-138.0,-228.0,-6.0,-4.5,345.9,-22.2,-1.5,220.2,-1699.2,649.2,0,2550,0,7,0,
1.4200,-33.3,202.2,309.3,109.2,113.7,314.1,85.8,-67.2,-2889.9,413.4,208.2,294.0,1814.4,1076.4,-138.3,-232.2,-6.0,-4.2,340.2,-24.9,-1.8,215.1,-1698.9,655.5,0,2556,0,8,0,
1.4233,-37.2,197.4,308.7,106.2,107.4,313.5,88.5,-68.7,-2667.6,420.9,210.3,294.0,1783.5,1043.1,-142.5,-220.5,-6.0,-4.8,343.8,-30.3,-1.8,225.6,-1693.8,636.3,0,2562,0,9,0,
1.4267,-28.2,208.5,311.1,109.2,110.7,321.6,94.8,-63.3,-2741.7,416.7,212.7,296.4,1817.4,1064.7,-138.3,-233.7,-6.0,-4.2,348.3,-19.5,-1.2,211.5,-1689.0,653.4,0,2568,0,10,0,
1.4300,-36.3,193.8,304.5,104.1,109.2,320.7,92.1,-68.1,-2741.7,419.1,204.3,289.8,1730.1,1042.5,-139.2,-223.5,-6.3,-4.5,336.3,-23.4,-1.5,213.6,-1698.9,639.6,0,2574,0,11,0,
1.4333,-25.5,204.0,314.4,111.9,114.3,322.2,91.8,-60.6,-2815.8,423.3,211.8,299.7,1785.6,1082.4,-132.6,-240.0,-6.0,-4.5,347.7,-12.6,-1.5,215.4,-1689.0,655.5,0,2580,0,12,0,
1.4367,-28.5,201.3,311.1,110.4,116.7,327.0,90.0,-59.7,-2964.0,418.2,212.4,293.1,1783.2,1060.5,-142.8,-228.6,-6.3,-4.2,342.9,-17.1,-1.8,214.5,-1713.3,612.3,0,2586,0,13,0,
1.4400,-21.9,213.9,320.4,118.2,121.8,330.0,91.2,-59.7,-2889.9,426.3,224.7,302.7,1807.5,1055.1,-141.0,-239.7,-6.3,-4.5,356.7,-10.8,-1.8,218.1,-1712.4,636.9,0,2592,0,14,0,
1.4433,-32.1,201.3,311.7,113.1,117.3,315.3,90.6,-62.4,-2741.7,419.4,220.8,301.8,1789.8,1062.3,-135.0,-218.4,-6.0,-4.5,348.6,-22.2,-1.8,222.6,-1719.6,677.1,0,2598,0,15,0,
1.4467,-32.7,204.9,317.4,113.1,120.3,317.1,90.9,-59.4,-2741.7,422.7,219.0,303.3,1788.9,1053.0,-124.5,-225.9,-6.6,-4.8,345.6,-19.8,-1.8,230.7,-1717.2,660.3,0,2604,0,16,0,
1.4500,-33.3,201.3,313.2,111.3,124.5,322.8,89.1,-59.4,-3038.1,424.2,216.0,309.3,1785.9,1039.5,-136.2,-231.3,-6.3,-4.5,345.0,-12.0,-1.5,226.2,-1707.9,671.1,0,2610,0,17,0,
1.4533,-36.9,196.5,304.2,98.4,107.7,311.1,85.5,-71.7,-2889.9,410.4,204.9,290.1,1785.6,1054.5,-115.2,-214.5,-6.3,-4.5,340.8,-27.3,-1.5,201.9,-1712.1,637.5,0,2616,0,18,0,
1.4567,-35.1,194.7,308.4,105.6,120.3,329.4,95.1,-64.5,-2889.9,418.5,211.5,296.7,1776.6,1050.3,-128.4,-214.8,-6.3,-4.5,346.5,-14.7,-1.8,212.4,-1709.4,655.2,0,2622,0,19,0,
1.4600,-34.2,200.4,318.0,115.2,125.4,322.8,90.0,-61.2,-2741.7,432.6,222.3,303.6,1791.6,1038.9,-147.9,-243.6,-6.0,-4.5,355.8,-2.4,-2.1,214.8,-1713.0,656.4,0,2628,0,20,0,
1.4633,-34.5,201.3,311.4,108.0,116.1,323.1,89.1,-67.8,-2964.0,412.5,210.9,297.3,1821.6,1062.9,-139.2,-225.0,-6.3,-4.5,342.9,-13.8,-1.5,203.7,-1714.8,650.4,0,2634,0,21,0,
1.4667,-38.1,190.5,309.0,111.0,118.5,324.6,90.3,-67.5,-2815.8,414.9,209.7,295.8,1763.4,1030.8,-151.8,-235.2,-6.0,-4.5,341.7,-21.6,-2.1,200.4,-1713.6,650.1,0,2640,0,22,0,
1.4700,-33.6,195.0,306.3,106.8,120.3,322.5,87.0,-69.3,-2889.9,392.1,204.0,296.7,1778.4,1043.7,-138.3,-230.1,-6.0,-4.5,333.0,-24.0,-2.1,223.5,-1727.7,628.8,0,2646,0,23,0,
1.4733,-33.6,198.6,307.8,106.5,115.8,313.8,86.1,-69.9,-2815.8,408.3,204.6,286.5,1737.0,1029.9,-143.4,-226.2,-6.0,-4.8,335.1,-25.8,-1.8,217.2,-1713.6,644.7,0,2652,0,24,0,
1.4767,-34.8,189.6,304.5,103.2,116.1,313.2,83.7,-69.3,-2815.8,407.7,204.3,294.9,1774.2,1057.5,-139.5,-233.1,-6.0,-4.2,328.8,-16.5,-1.8,219.6,-1724.4,625.8,0,2658,0,25,0,
1.4800,-31.2,187.8,308.1,104.7,109.2,319.5,84.6,-70.2,-2815.8,417.0,201.3,294.6,1755.6,1044.3,-129.6,-238.8,-6.3,-4.8,334.5,-24.6,-1.8,199.5,-1717.2,629.4,0,2664,0,26,0,
1.4833,-33.9,187.8,306.3,103.8,106.5,312.6,82.5,-70.2,-2815.8,407.7,202.2,289.2,1766.7,1024.8,-132.0,-217.5,-5.7,-4.5,332.7,-24.3,-1.5,210.3,-1719.3,629.4,0,2670,0,27,0,
1.4867,-29.7,204.0,317.7,109.2,108.3,307.8,83.4,-63.3,-2889.9,440.4,212.1,287.7,1800.0,1037.4,-126.0,-220.8,-6.3,-4.2,348.0,-27.9,-1.5,192.0,-1706.7,629.1,0,2676,0,28,0,
1.4900,-27.6,202.5,312.3,105.6,108.3,307.2,80.7,-68.4,-2815.8,407.7,212.7,291.9,1801.8,1070.4,-134.4,-246.0,-6.3,-4.5,346.5,-26.1,-2.1,210.6,-1721.4,637.2,0,2682,0,29,0,
1.4933,-31.2,187.5,308.7,103.5,104.7,307.2,84.6,-70.2,-2815.8,421.5,209.4,293.7,1778.7,1050.0,-120.0,-218.7,-6.3,-4.8,340.5,-21.6,-1.5,214.5,-1704.6,625.5,0,2688,0,30,0,
1.4967,-24.3,199.8,315.3,110.4,109.5,311.7,85.5,-63.0,-2815.8,411.6,213.6,298.2,1820.1,1065.0,-129.6,-239.1,-6.0,-4.5,347.1,-15.3,-1.5,211.5,-1707.3,630.0,0,2694,0,31,0,
1.5000,-26.7,200.7,314.4,110.1,111.9,321.9,85.8,-61.8,-3038.1,417.9,212.4,299.4,1804.5,1047.3,-129.9,-230.4,-6.3,-4.2,345.3,-19.8,-1.5,207.3,-1714.2,633.6,0,2700,0,32,0,
1.5033,-28.8,195.9,315.0,108.0,110.1,318.6,81.9,-64.2,-2815.8,422.1,212.4,298.8,1764.0,1047.9,-129.3,-231.9,-6.3,-4.5,343.2,-21.6,-1.8,223.5,-1721.1,641.7,0,2706,0,33,0,
1.5067,-27.3,200.1,311.4,104.7,107.1,317.7,87.3,-63.9,-2964.0,420.3,211.2,296.1,1788.0,1053.6,-128.7,-232.5,-6.3,-4.2,343.2,-20.7,-1.5,206.4,-1695.6,608.4,0,2712,0,34,0,
1.5100,-32.4,204.3,319.2,111.3,113.7,324.6,92.4,-61.5,-2741.7,427.8,215.1,306.0,1772.4,1019.1,-134.1,-222.0,-6.6,-4.8,346.2,-11.7,-2.1,249.0,-1722.9,658.2,0,2718,0,35,0,
1.5133,-39.9,186.0,302.7,99.0,104.7,313.5,90.3,-69.6,-2815.8,401.7,203.1,294.0,1762.2,1032.0,-128.7,-216.9,-6.3,-4.5,330.6,-25.5,-1.8,213.0,-1700.1,629.1,0,2724,0,36,0,
1.5167,-31.5,194.1,310.5,106.8,108.0,316.8,90.0,-62.7,-2889.9,418.8,210.6,298.8,1758.3,1054.5,-151.2,-239.4,-6.3,-4.5,343.5,-20.4,-1.8,205.5,-1709.1,624.9,0,2730,0,37,0,
1.5200,-37.5,190.5,307.5,107.7,114.6,318.6,91.5,-61.8,-2964.0,424.2,211.2,295.2,1762.5,1040.7,-151.2,-238.5,-6.0,-4.2,344.1,-24.0,-1.5,206.4,-1718.4,642.0,0,2736,0,38,0,
1.5233,-41.4,190.5,313.5,106.5,109.8,315.3,89.1,-63.3,-2889.9,421.2,214.8,293.7,1777.5,1020.0,-151.2,-239.1,-6.6,-4.8,347.4,-24.3,-1.8,205.2,-1724.1,610.2,0,2742,0,39,0,
1.5267,-39.3,187.8,307.2,101.4,104.1,314.7,90.0,-65.1,-2964.0,408.6,206.7,287.4,1774.5,1053.3,-149.1,-236.1,-6.3,-4.8,339.3,-28.5,-1.8,199.8,-1716.3,610.5,0,2748,0,40,0,
1.5300,-35.4,189.6,305.1,102.3,103.8,316.5,87.6,-65.1,-2964.0,408.6,204.9,287.1,1783.2,1028.1,-153.6,-240.9,-6.0,-4.2,335.1,-28.8,-2.1,192.3,-1707.9,623.7,0,2754,0,41,0,
1.5333,-35.7,188.4,306.9,107.4,111.6,313.5,85.5,-64.5,-3038.1,406.8,210.0,286.8,1762.5,1040.4,-140.4,-235.8,-6.0,-4.2,336.3,-33.3,-1.5,216.9,-1722.9,625.2,0,2760,0,42,0,
1.5367,-36.0,187.5,312.0,108.3,115.8,324.0,87.0,-63.0,-3186.3,422.7,210.3,289.8,1773.9,1044.9,-139.5,-243.3,-6.0,-4.5,339.0,-28.2,-1.8,219.9,-1741.2,663.6,0,2766,0,43,0,
1.5400,-34.2,192.9,310.2,103.5,112.5,317.1,78.9,-69.0,-2964.0,412.2,211.2,288.0,1767.9,1046.7,-132.9,-245.4,-6.0,-4.5,342.9,-24.6,-1.5,220.5,-1741.5,628.2,0,2772,0,44,0,
1.5433,-36.9,186.0,304.2,99.0,106.5,309.9,85.8,-72.6,-3038.1,411.9,204.0,285.6,1771.8,1030.5,-128.1,-242.7,-6.3,-4.5,336.9,-29.7,-1.8,188.4,-1697.1,591.9,0,2778,0,45,0,
1.5467,-40.5,186.3,308.4,105.0,107.7,312.0,84.3,-69.0,-2964.0,418.5,205.2,286.8,1761.9,1015.8,-132.3,-231.9,-6.6,-4.5,340.2,-28.2,-1.8,220.5,-1706.1,608.4,0,2784,0,46,0,
1.5500,-36.3,187.8,312.3,103.8,107.1,310.2,83.1,-66.6,-3038.1,432.6,207.9,287.4,1757.1,1031.7,-137.7,-223.8,-6.3,-4.5,340.2,-32.1,-1.8,208.5,-1713.3,619.2,0,2790,0,47,0,
1.5533,-31.8,199.5,311.1,102.0,106.5,313.2,87.9,-67.2,-3038.1,419.1,210.0,285.3,1770.9,1037.7,-117.9,-216.9,-6.0,-4.5,342.3,-31.5,-1.8,202.5,-1704.0,634.8,0,2796,0,48,0,
1.5567,-34.5,192.0,311.7,100.8,104.1,315.0,86.7,-67.8,-2889.9,413.7,208.8,288.3,1771.8,1043.1,-144.3,-235.2,-6.3,-4.5,340.5,-27.3,-1.5,197.4,-1702.8,614.4,0,2802,0,49,0,
1.5600,-34.8,185.7,305.4,98.1,101.7,301.8,78.6,-74.4,-2889.9,416.7,205.2,282.3,1757.7,1041.6,-131.4,-222.3,-6.3,-4.2,337.5,-44.7,-1.8,222.0,-1732.8,597.3,0,2808,0,50,0,
1.5633,-44.7,171.3,296.1,91.2,96.3,300.3,80.4,-75.9,-2964.0,414.9,196.8,278.7,1752.0,1025.4,-127.5,-213.3,-6.3,-4.5,328.8,-39.3,-1.8,205.8,-1722.6,610.2,0,2814,0,51,0,
1.5667,-45.6,174.0,296.7,91.8,97.5,302.1,85.5,-73.5,-3186.3,419.1,196.8,278.4,1768.2,1019.1,-128.1,-213.9,-6.6,-4.5,328.8,-30.9,-1.8,207.6,-1716.0,594.0,0,2820,0,52,0,
1.5700,-44.4,171.3,294.6,89.7,99.9,308.4,89.1,-77.1,-2889.9,410.1,195.3,279.0,1768.2,1024.8,-130.5,-222.0,-6.3,-4.2,326.7,-31.2,-1.5,205.5,-1704.9,615.0,0,2826,0,53,0,
1.5733,-40.5,169.8,294.3,92.4,101.4,303.6,85.2,-72.9,-2889.9,415.5,202.2,285.6,1741.2,1044.3,-127.5,-229.2,-6.0,-4.5,330.9,-30.0,-1.8,208.8,-1723.8,624.3,0,2832,0,54,0,
1.5767,-38.1,172.5,303.6,98.1,109.8,303.6,88.5,-71.1,-2889.9,434.1,204.9,285.3,1761.3,1028.1,-135.9,-227.1,-6.0,-4.5,339.6,-26.7,-1.5,223.5,-1708.5,595.2,0,2838,0,55,0,
1.5800,-38.1,177.6,300.0,90.6,99.9,303.6,81.6,-74.4,-2964.0,407.7,198.6,279.3,1757.7,1039.8,-124.2,-231.9,-6.3,-4.2,332.1,-33.3,-1.8,213.9,-1722.6,615.0,0,2844,0,56,0,
1.5833,-30.3,186.3,306.9,97.5,106.2,305.7,83.7,-72.6,-3112.2,410.7,205.8,288.3,1796.1,1054.5,-122.1,-222.3,-6.0,-4.2,340.5,-22.2,-1.5,212.4,-1722.9,623.4,0,2850,0,57,0,
1.5867,-37.8,180.6,301.2,94.5,105.6,308.7,82.2,-72.3,-2889.9,416.7,203.1,287.7,1768.2,1026.3,-125.7,-212.1,-6.3,-4.5,335.1,-24.3,-1.8,209.1,-1723.2,622.8,0,2856,0,58,0,
1.5900,-35.4,183.6,300.0,99.3,108.6,310.8,84.3,-74.1,-2815.8,417.9,204.9,292.5,1741.2,1038.9,-120.9,-215.1,-6.6,-4.2,336.6,-21.0,-1.8,210.0,-1714.5,597.0,0,2862,0,59,0,
1.5933,-37.5,196.2,304.8,99.0,101.7,310.2,86.4,-69.9,-2815.8,424.8,204.6,292.8,1746.3,1014.3,-119.1,-211.2,-6.3,-4.5,337.2,-22.5,-1.8,212.4,-1713.9,604.2,0,2868,0,60,0,
1.5967,-30.6,189.3,311.1,106.8,108.9,312.0,83.4,-65.7,-2964.0,420.6,211.8,295.8,1742.4,1060.5,-121.5,-224.4,-6.3,-4.5,347.4,-18.3,-1.8,200.1,-1720.5,619.5,0,2874,0,61,0,
1.6000,-32.4,186.9,311.1,109.2,120.9,317.7,81.9,-62.4,-3038.1,451.5,215.1,300.3,1791.9,1016.1,-127.8,-238.2,-6.3,-4.2,349.8,-13.5,-1.5,227.1,-1725.9,615.0,0,2880,0,62,0,
1.6033,-32.1,186.0,310.2,109.5,127.2,322.5,81.9,-63.6,-3038.1,413.4,212.7,297.9,1787.4,1050.9,-116.1,-233.1,-6.0,-4.5,339.3,-9.0,-1.8,237.3,-1738.8,630.9,0,2886,0,63,0,
1.6067,-34.8,184.8,307.8,105.0,114.9,318.6,85.2,-63.3,-2815.8,426.9,210.0,297.9,1756.5,1041.3,-114.3,-222.6,-6.3,-4.2,338.1,-17.7,-2.1,200.1,-1711.2,607.2,0,2892,0,64,0,
1.6100,-34.5,194.4,311.7,108.6,118.8,322.5,84.3,-63.0,-2964.0,420.0,214.5,298.5,1788.9,1032.9,-133.8,-224.4,-6.3,-4.5,345.6,-9.6,-1.8,199.5,-1721.4,610.8,0,2898,0,65,0,
1.6133,-36.3,184.2,309.9,103.8,111.3,312.6,84.3,-64.5,-2889.9,426.6,214.8,297.0,1724.1,1033.2,-132.3,-228.9,-6.3,-4.5,341.4,-18.0,-1.8,207.9,-1723.2,599.7,0,2904,0,66,0,
1.6167,-37.5,178.5,307.2,104.1,110.7,312.0,84.0,-64.8,-3186.3,416.4,211.8,295.2,1762.5,1027.2,-127.5,-222.0,-6.0,-4.5,340.8,-17.4,-1.5,203.4,-1724.7,603.9,0,2910,0,67,0,
1.6200,-33.3,183.9,309.9,105.3,111.9,300.9,84.0,-61.2,-3112.2,430.8,212.7,303.0,1756.8,1042.2,-133.8,-247.8,-6.3,-4.5,339.9,-14.1,-1.8,217.2,-1727.7,629.4,0,2916,0,68,0,
1.6233,-32.1,189.9,318.0,110.1,119.4,312.3,90.0,-55.8,-3260.4,414.3,218.4,306.6,1780.8,1030.2,-133.5,-215.4,-6.3,-4.5,346.2,-11.7,-1.8,206.4,-1704.9,606.3,0,2922,0,69,0,
1.6267,-27.9,194.4,323.4,118.5,129.6,321.3,96.6,-51.6,-2964.0,422.4,229.8,315.6,1771.5,1038.3,-144.6,-232.5,-6.0,-4.2,352.2,-2.7,-1.5,221.4,-1710.0,624.0,0,2928,0,70,0,
1.6300,-35.1,185.1,318.6,112.5,122.7,314.7,87.6,-55.8,-3112.2,421.2,218.4,306.6,1755.0,1008.6,-137.7,-228.6,-6.0,-4.5,340.8,-5.1,-1.8,226.2,-1709.1,618.3,0,2934,0,71,0,
1.6333,-34.5,187.8,315.0,110.1,128.1,324.6,90.6,-57.6,-3186.3,424.2,216.9,308.4,1764.9,1008.0,-140.7,-241.8,-6.3,-4.5,343.5,-4.5,-1.8,213.9,-1706.7,634.2,0,2940,0,72,0,
1.6367,-35.7,190.8,311.4,107.7,121.5,320.4,86.1,-58.2,-3112.2,425.1,218.4,303.0,1753.5,1006.8,-140.4,-233.7,-6.0,-4.8,344.4,-10.8,-1.5,225.0,-1735.8,619.2,0,2946,0,73,0,
1.6400,-36.6,181.5,309.0,104.1,116.4,316.2,86.7,-59.4,-3112.2,419.4,214.8,296.1,1712.4,1037.4,-130.2,-229.2,-6.0,-4.2,342.0,-18.0,-1.5,214.8,-1732.8,599.4,0,2952,0,74,0,
1.6433,-42.0,171.9,295.8,92.7,99.9,297.6,76.8,-69.9,-2964.0,418.5,199.8,279.3,1730.1,1020.0,-130.8,-227.1,-6.3,-4.2,329.1,-38.1,-2.1,204.6,-1725.6,584.4,0,2958,0,75,0,
1.6467,-40.2,170.7,294.3,89.7,102.9,306.6,81.3,-64.5,-3038.1,402.3,194.1,285.0,1747.8,1027.5,-143.7,-228.9,-6.3,-4.5,320.4,-34.8,-1.5,203.4,-1712.4,594.0,0,2964,0,76,0,
1.6500,-41.1,182.7,306.3,99.9,114.6,312.9,79.5,-60.6,-3186.3,423.3,213.0,299.4,1781.4,1008.3,-138.0,-254.7,-6.3,-4.5,339.0,-21.9,-1.8,224.1,-1739.1,609.3,0,2970,0,77,0,
1.6533,-38.7,184.8,306.0,101.7,113.4,313.5,83.4,-64.2,-3112.2,403.5,209.7,294.3,1788.0,1007.4,-129.3,-230.4,-6.0,-4.2,337.2,-21.9,-1.8,204.6,-1719.0,602.7,0,2976,0,78,0,
1.6567,-42.6,174.0,309.3,104.4,113.4,313.2,84.0,-63.9,-2964.0,429.3,215.7,303.0,1751.1,1017.0,-123.6,-220.8,-6.3,-4.5,343.5,-9.9,-1.5,235.5,-1727.7,598.5,0,2982,0,79,0,
1.6600,-40.8,176.1,309.0,104.4,120.6,327.3,83.7,-63.3,-2815.8,417.9,215.7,302.7,1746.6,1014.9,-145.8,-246.6,-6.3,-4.2,337.8,-12.3,-1.5,218.4,-1734.9,606.6,0,2988,0,80,0,
1.6633,-39.0,176.4,308.4,101.7,112.2,304.8,82.8,-69.3,-2889.9,426.9,207.6,294.6,1742.7,1015.8,-124.5,-231.3,-6.0,-4.5,339.3,-23.7,-1.8,218.7,-1728.0,607.5,0,2994,0,81,0,
1.6667,-38.4,178.5,309.3,102.6,109.5,308.7,85.5,-68.7,-2964.0,423.6,217.5,297.6,1755.9,1017.6,-119.7,-222.6,-6.0,-4.5,344.1,-21.3,-1.8,213.0,-1725.9,613.8,0,3000,0,82,0,
1.6700,-38.4,186.6,315.9,105.9,118.2,312.9,90.6,-63.9,-3038.1,428.4,219.3,306.0,1752.0,999.0,-138.9,-224.7,-6.3,-4.5,348.3,-7.2,-1.8,221.1,-1699.2,615.9,0,3006,0,83,0,
1.6733,-40.2,176.4,307.2,99.3,112.2,312.6,84.0,-69.0,-2889.9,417.3,209.1,301.5,1747.8,1005.3,-132.6,-216.6,-6.0,-4.5,333.0,-16.8,-1.5,234.6,-1716.0,616.5,0,3012,0,84,0,
1.6767,-39.6,176.7,309.9,100.8,110.1,310.8,84.9,-70.8,-2889.9,424.2,217.2,302.1,1752.9,1013.4,-131.1,-217.5,-6.6,-4.5,343.8,-5.4,-1.5,221.4,-1719.3,611.7,0,3018,0,85,0,
1.6800,-42.0,171.0,304.5,99.0,110.7,311.7,83.7,-70.8,-2964.0,429.9,214.2,304.2,1735.2,1019.1,-123.9,-215.1,-6.3,-4.5,337.8,-6.0,-1.8,228.6,-1719.0,624.9,0,3024,0,86,0,
1.6833,-36.6,183.6,307.5,95.4,104.4,323.1,86.7,-74.7,-2889.9,415.8,206.4,293.1,1766.4,1011.0,-122.1,-208.5,-6.6,-4.2,330.9,-16.2,-1.5,203.7,-1713.9,604.2,0,3030,0,87,0,
1.6867,-32.7,177.9,315.6,107.4,120.0,326.7,86.4,-67.5,-2964.0,446.7,220.2,308.1,1760.7,1020.6,-126.0,-231.9,-6.3,-4.5,345.0,-4.8,-1.5,236.4,-1738.8,609.6,0,3036,0,88,0,
1.6900,-37.5,176.7,316.2,102.6,112.8,307.8,81.6,-71.1,-2889.9,418.2,217.2,299.1,1765.8,1024.5,-123.9,-218.1,-6.0,-4.2,342.9,-17.1,-1.5,220.5,-1712.7,597.3,0,3042,0,89,0,
1.6933,-34.2,182.4,315.3,105.3,121.8,312.9,83.7,-71.4,-2741.7,439.2,221.7,305.4,1773.6,1026.9,-121.2,-233.4,-6.0,-4.2,348.3,-19.2,-1.8,234.0,-1722.0,611.4,0,3048,0,90,0,
1.6967,-37.2,178.2,314.4,103.2,113.4,303.6,77.4,-77.7,-2815.8,420.9,218.4,299.7,1733.7,1013.4,-120.0,-217.8,-6.3,-4.8,345.3,-17.1,-1.8,218.1,-1713.6,586.8,0,3054,0,91,0,
1.7000,-33.0,172.2,307.8,99.6,114.6,306.6,86.1,-76.8,-3038.1,432.6,217.2,304.5,1737.9,1040.7,-102.3,-201.6,-6.6,-4.5,339.3,-6.0,-2.1,232.8,-1719.0,597.3,0,3060,0,92,0,
1.7033,-33.9,178.8,315.3,106.2,111.9,306.0,84.0,-73.5,-2964.0,440.7,220.5,306.6,1765.2,1030.2,-124.5,-230.7,-6.6,-4.5,346.8,-5.7,-2.1,225.6,-1722.3,604.8,0,3066,0,93,0,
1.7067,-43.5,174.9,312.0,106.2,111.9,306.3,85.2,-75.3,-2889.9,432.9,217.5,306.6,1741.2,995.7,-129.3,-222.6,-6.3,-4.5,341.1,-6.3,-1.8,221.4,-1716.3,591.9,0,3072,0,94,0,
1.7100,-37.8,174.6,306.6,104.1,112.5,305.4,80.4,-74.1,-2815.8,415.8,215.7,302.7,1740.9,1033.5,-125.7,-225.6,-6.3,-4.2,339.0,-10.8,-1.8,217.8,-1725.9,595.2,0,3078,0,95,0,
1.7133,-39.0,172.5,309.0,105.9,116.7,315.0,86.7,-71.7,-2889.9,426.9,215.1,306.9,1754.1,1013.7,-132.3,-218.7,-6.3,-4.5,336.3,-10.8,-2.1,214.2,-1707.9,609.6,0,3084,0,96,0,
1.7167,-36.3,184.8,314.7,110.1,117.0,312.6,82.5,-66.6,-2889.9,418.8,213.9,306.6,1762.2,1007.4,-124.2,-234.0,-6.6,-4.2,339.3,-6.6,-1.8,199.8,-1721.4,600.0,0,3090,0,97,0,
1.7200,-36.3,182.1,322.5,117.9,129.6,322.2,88.5,-59.1,-2964.0,431.1,228.0,316.8,1753.5,996.9,-143.1,-236.7,-6.0,-4.8,347.4,1.8,-1.5,228.3,-1709.4,592.8,0,3096,0,98,0,
1.7233,-39.0,181.8,322.2,121.5,133.2,333.6,89.7,-59.7,-2741.7,435.3,229.5,316.8,1755.3,1014.9,-143.7,-255.6,-6.3,-4.5,350.7,5.1,-2.1,220.2,-1727.1,595.5,0,3102,0,99,0,
1.7267,-39.6,172.5,318.3,116.1,127.2,317.1,91.5,-63.0,-2889.9,422.1,225.6,313.2,1761.9,980.7,-140.4,-224.1,-6.6,-4.5,350.1,-3.6,-1.8,224.4,-1720.8,600.0,0,3108,0,100,0,
1.7300,-37.5,172.8,309.9,106.8,115.5,311.1,90.3,-63.0,-2815.8,414.9,214.5,303.6,1736.7,1025.4,-131.7,-231.9,-6.6,-4.8,337.2,-9.3,-1.8,222.0,-1712.4,599.1,0,3114,0,101,0,
1.7333,-38.4,172.2,312.9,106.5,118.5,311.4,90.0,-65.1,-3038.1,438.9,214.8,307.8,1755.6,994.8,-128.7,-238.5,-6.3,-4.5,339.0,-14.7,-1.8,226.2,-1719.3,602.1,0,3120,0,102,0,
1.7367,-35.1,176.4,313.2,105.0,123.3,315.9,90.0,-66.9,-2889.9,415.2,217.5,305.7,1751.4,1008.9,-125.1,-217.8,-6.0,-4.8,345.9,-25.2,-1.5,223.8,-1724.1,588.9,0,3126,0,103,0,
1.7400,-33.6,172.5,322.5,114.6,130.8,321.3,93.3,-60.3,-2889.9,440.7,228.3,315.6,1732.8,997.5,-128.7,-242.4,-6.3,-4.8,349.5,-0.9,-1.5,236.7,-1740.0,615.3,0,3132,0,104,0,
1.7433,-30.0,174.9,314.4,112.8,125.7,317.4,94.5,-61.2,-2815.8,435.3,218.4,301.8,1700.7,1011.3,-117.9,-239.4,-6.3,-4.2,340.8,2.7,-1.5,218.4,-1739.7,616.8,0,3138,0,105,0,
1.7467,-35.1,164.7,308.4,110.4,117.3,309.9,88.8,-63.9,-2964.0,428.4,215.4,305.7,1723.8,1011.3,-128.7,-230.1,-6.6,-4.5,335.7,-2.7,-1.8,217.8,-1722.3,578.7,0,3144,0,106,0,
1.7500,-35.7,164.7,314.1,109.8,120.3,313.2,90.6,-59.7,-2964.0,437.4,224.4,315.0,1746.6,1009.2,-126.6,-233.4,-6.3,-4.5,343.2,0.0,-1.8,218.4,-1733.7,553.2,0,3150,0,107,0,
1.7533,-41.7,165.3,309.6,105.9,113.4,298.5,84.6,-66.0,-2964.0,417.6,220.2,310.8,1761.9,999.9,-114.3,-220.5,-6.0,-4.8,338.4,-9.9,-1.8,221.1,-1725.3,607.2,0,3156,0,108,0,
1.7567,-38.1,165.6,312.9,106.8,117.3,299.1,84.3,-67.8,-2741.7,437.1,219.3,309.9,1734.3,987.9,-130.8,-222.3,-6.3,-4.2,338.4,-6.0,-1.5,234.6,-1725.6,599.1,0,3162,0,109,0,
1.7600,-40.5,162.9,303.9,99.0,109.5,300.3,81.0,-72.0,-2815.8,405.3,212.4,299.4,1711.8,1011.3,-121.5,-221.7,-6.3,-4.5,330.0,-11.7,-1.8,215.7,-1723.5,595.5,0,3168,0,110,0,
1.7633,-33.6,162.6,303.0,100.2,109.2,301.2,82.5,-71.1,-2815.8,421.5,212.7,297.3,1741.8,1010.1,-124.5,-242.1,-6.3,-4.5,329.1,-15.6,-2.1,206.1,-1736.1,574.8,0,3174,0,111,0,
1.7667,-43.2,158.7,302.4,99.3,114.6,307.2,83.7,-73.5,-2889.9,413.1,210.9,300.3,1748.1,992.1,-127.2,-241.8,-6.0,-4.2,328.8,-14.1,-1.8,218.1,-1728.6,586.2,0,3180,0,112,0,
1.7700,-45.3,164.1,304.8,95.7,109.2,295.8,82.5,-70.5,-2964.0,412.5,203.1,295.8,1773.3,969.9,-139.5,-233.7,-6.3,-4.8,323.1,-22.5,-1.8,208.5,-1723.2,574.5,0,3186,0,113,0,
1.7733,-48.0,159.6,301.2,96.3,108.6,298.8,81.3,-70.5,-2889.9,409.5,201.6,291.0,1725.3,981.0,-131.7,-228.9,-6.0,-4.2,323.7,-31.2,-1.8,195.3,-1727.4,573.9,0,3192,0,114,0,
1.7767,-42.3,159.9,304.2,100.2,110.1,303.3,82.8,-64.2,-2741.7,420.9,210.6,297.6,1707.0,988.5,-128.7,-236.7,-6.3,-4.5,327.9,-16.2,-1.8,212.7,-1728.6,588.3,0,3198,0,115,0,
1.7800,-46.2,153.9,300.9,95.4,106.8,303.6,82.2,-69.3,-2815.8,413.7,205.5,294.3,1717.2,991.8,-132.6,-232.5,-6.0,-4.2,324.9,-14.7,-1.5,213.9,-1746.0,591.0,0,3204,0,116,0,
1.7833,-48.9,154.5,296.4,93.0,102.3,291.3,80.7,-71.4,-2889.9,424.5,202.8,292.8,1734.6,980.7,-127.8,-210.6,-6.6,-4.5,323.1,-21.9,-1.8,195.6,-1726.8,568.8,0,3210,0,117,0,
1.7867,-41.7,156.0,303.0,97.8,109.8,297.6,79.5,-69.0,-2889.9,417.9,205.5,292.8,1728.6,1001.4,-128.7,-253.5,-6.0,-4.5,329.7,-23.7,-1.8,216.0,-1736.4,602.4,0,3216,0,118,0,
1.7900,-42.6,159.3,299.7,95.4,104.7,288.3,77.1,-69.3,-2815.8,415.2,209.7,295.2,1748.1,986.4,-124.8,-234.6,-6.3,-4.5,330.3,-29.4,-1.5,204.9,-1719.3,569.1,0,3222,0,119,0,
1.7933,-36.6,164.4,304.8,94.8,109.8,295.2,75.6,-70.8,-2741.7,426.0,210.0,295.8,1745.7,1002.6,-125.1,-235.2,-6.0,-4.5,335.1,-22.8,-1.8,217.2,-1741.8,581.1,0,3228,0,120,0,
1.7967,-40.8,167.4,303.0,94.5,103.8,297.0,78.6,-70.8,-2741.7,417.9,210.3,292.8,1726.5,981.3,-125.7,-238.5,-6.3,-4.5,333.6,-16.5,-1.8,214.2,-1740.6,576.0,0,3234,0,121,0,
1.8000,-40.8,162.6,306.3,96.6,108.3,303.0,79.2,-70.5,-2889.9,419.1,211.2,297.3,1748.4,987.6,-120.3,-225.3,-6.0,-4.5,338.4,-13.5,-1.8,213.0,-1737.0,572.7,0,3240,0,122,0,
1.8033,-43.8,151.2,297.0,89.7,100.5,287.4,76.5,-74.1,-2815.8,417.0,205.8,294.6,1714.8,978.9,-125.4,-210.9,-6.3,-4.5,326.4,-27.0,-1.8,217.5,-1719.6,580.8,0,3246,0,123,0,
1.8067,-40.5,158.7,301.5,93.3,103.8,288.6,80.1,-71.1,-2889.9,419.7,207.3,291.3,1732.2,978.9,-126.6,-241.5,-6.3,-4.2,330.0,-24.6,-1.8,208.8,-1739.1,567.3,0,3252,0,124,0,
1.8100,-39.6,152.1,299.7,93.3,103.5,300.9,88.2,-67.8,-2889.9,413.7,205.8,296.1,1707.6,988.8,-126.0,-239.1,-6.0,-4.2,330.6,-16.2,-1.5,206.7,-1734.3,596.4,0,3258,0,125,0,
1.8133,-39.6,155.4,295.8,94.8,98.4,289.8,81.0,-69.3,-2815.8,421.5,207.0,295.2,1735.2,995.1,-136.8,-235.8,-6.3,-4.5,332.7,-19.2,-1.5,210.6,-1736.7,551.4,0,3264,0,126,0,
1.8167,-42.6,149.1,300.6,94.2,99.3,297.3,84.9,-67.5,-3038.1,412.8,204.0,287.1,1721.1,974.4,-140.4,-229.5,-6.0,-4.8,329.4,-37.8,-1.8,209.4,-1735.2,568.5,0,3270,0,127,0,
1.8200,-45.9,147.3,295.5,91.8,95.1,286.8,77.1,-72.0,-2815.8,420.6,203.4,282.9,1741.2,958.8,-142.2,-231.6,-6.0,-4.5,327.0,-25.2,-1.8,195.9,-1739.7,545.7,0,3276,0,128,0,
1.8233,-35.7,153.0,296.7,96.3,101.7,293.1,75.3,-72.9,-2889.9,421.2,204.6,290.1,1732.5,1000.8,-153.9,-249.0,-6.3,-4.5,326.7,-21.3,-1.8,201.0,-1748.4,553.8,0,3282,0,129,0,
1.8267,-38.4,158.4,296.4,93.9,102.9,289.8,76.8,-67.8,-2741.7,401.4,203.7,294.6,1731.9,984.3,-141.6,-255.9,-6.0,-4.5,327.9,-22.8,-1.8,195.3,-1743.9,568.5,0,3288,0,130,0,
1.8300,-35.4,154.5,300.9,94.5,101.4,280.2,77.1,-67.5,-2815.8,397.8,203.7,286.8,1725.9,979.8,-137.7,-242.7,-6.3,-4.5,329.1,-30.6,-1.5,191.4,-1731.0,575.1,0,3294,0,131,0,
1.8333,-43.5,153.6,303.3,98.4,107.4,288.6,74.7,-68.4,-2889.9,419.4,205.8,290.4,1753.2,951.6,-135.9,-237.3,-6.0,-4.5,331.8,-22.8,-1.5,200.4,-1744.8,552.0,0,3300,0,132,0,
1.8367,-38.1,160.8,306.0,102.9,105.0,287.7,79.2,-69.6,-2889.9,402.3,215.1,297.0,1726.8,978.9,-131.4,-231.9,-6.3,-4.2,333.6,-17.4,-1.8,194.1,-1741.8,573.9,0,3306,0,133,0,
1.8400,-36.9,162.6,313.8,106.8,114.0,291.6,80.4,-61.8,-2741.7,428.1,219.3,301.8,1725.6,962.7,-130.8,-248.4,-6.3,-4.5,342.0,-15.3,-1.8,213.6,-1743.9,582.0,0,3312,0,134,0,
1.8433,-36.3,159.9,304.8,99.6,105.6,282.3,77.7,-67.8,-2741.7,412.5,209.4,290.4,1707.0,987.0,-123.6,-249.0,-6.3,-4.5,331.8,-27.3,-1.8,181.2,-1740.3,557.1,0,3318,0,135,0,
1.8467,-37.5,155.4,311.1,104.1,110.7,289.5,75.6,-66.0,-2889.9,419.1,215.4,298.8,1735.5,986.1,-128.7,-251.7,-6.6,-4.5,341.1,-20.1,-1.8,188.4,-1746.6,564.0,0,3324,0,136,0,
1.8500,-36.9,157.2,307.5,100.8,110.4,285.0,75.0,-66.6,-3038.1,417.9,210.9,296.7,1701.3,995.4,-129.0,-243.6,-6.3,-4.2,334.5,-21.3,-1.8,192.6,-1740.3,560.7,0,3330,0,137,0,
1.8533,-36.9,159.6,316.8,105.9,111.6,290.1,73.5,-60.9,-2741.7,429.9,222.6,307.5,1719.0,965.7,-123.9,-243.6,-6.3,-4.5,345.0,-16.2,-1.5,204.0,-1765.2,571.5,0,3336,0,138,0,
1.8567,-38.1,157.5,314.1,101.4,106.8,286.5,76.2,-65.4,-2889.9,419.4,219.6,299.4,1723.5,981.0,-124.5,-236.7,-6.0,-4.8,344.4,-21.0,-1.8,208.2,-1748.7,551.1,0,3342,0,139,0,
1.8600,-37.2,156.6,308.4,95.7,98.7,277.8,73.8,-65.7,-2519.4,412.8,211.5,292.5,1734.6,975.3,-117.6,-228.0,-6.3,-4.8,334.2,-29.4,-1.8,196.8,-1747.2,538.8,0,3348,0,140,0,
1.8633,-33.3,156.9,311.4,100.5,106.8,289.2,81.3,-59.7,-2889.9,411.6,218.1,298.8,1720.5,992.4,-133.5,-230.4,-6.0,-4.5,337.5,-19.8,-1.8,195.0,-1739.4,553.2,0,3354,0,141,0,
1.8667,-38.1,146.4,304.5,96.3,102.9,285.9,80.4,-64.8,-2889.9,406.5,208.8,291.3,1707.9,967.5,-134.1,-218.7,-6.3,-4.8,323.7,-30.0,-1.8,197.4,-1738.5,548.7,0,3360,0,142,0,
1.8700,-41.4,151.2,309.9,97.8,100.5,287.1,80.1,-65.1,-2889.9,400.2,207.9,288.6,1717.2,953.7,-129.3,-228.0,-6.0,-4.2,330.6,-31.2,-1.8,189.6,-1744.5,565.8,0,3366,0,143,0,
1.8733,-38.7,157.5,312.3,100.5,98.4,278.7,75.0,-63.3,-2815.8,409.8,210.0,293.1,1710.9,952.2,-127.5,-242.4,-6.0,-4.5,331.8,-31.5,-1.5,195.0,-1744.2,531.0,0,3372,0,144,0,
1.8767,-38.1,158.7,312.0,99.3,102.3,285.6,82.8,-63.3,-2815.8,411.6,214.2,291.9,1739.7,958.8,-124.8,-226.8,-6.0,-4.5,338.1,-26.7,-1.5,178.5,-1741.2,562.5,0,3378,0,145,0,
1.8800,-32.1,150.9,304.5,95.4,99.3,284.1,79.2,-64.2,-2964.0,415.8,209.1,288.0,1708.8,981.9,-109.8,-212.7,-6.3,-4.8,329.1,-28.8,-1.5,188.7,-1739.7,558.9,0,3384,0,146,0,
1.8833,-33.9,152.4,310.5,100.8,108.6,294.9,79.2,-61.2,-2889.9,415.5,212.7,288.9,1729.5,958.5,-121.8,-218.7,-6.3,-4.5,337.5,-34.5,-1.8,186.0,-1746.0,541.2,0,3390,0,147,0,
1.8867,-25.8,161.7,320.7,112.5,125.4,304.2,83.4,-56.7,-2815.8,410.4,222.9,305.7,1735.2,998.1,-128.1,-252.0,-6.3,-4.5,346.2,-18.3,-1.5,210.3,-1740.9,564.6,0,3396,0,148,0,
1.8900,-33.3,156.0,320.7,111.0,118.5,287.1,79.5,-55.5,-2815.8,420.6,224.7,305.7,1723.8,976.2,-123.3,-229.8,-6.0,-4.2,342.3,-26.7,-1.5,201.0,-1749.9,564.6,0,3402,0,149,0,
1.8933,-36.0,159.0,316.8,109.8,120.6,294.3,81.9,-54.3,-2741.7,413.7,222.9,303.6,1739.1,950.4,-124.5,-224.4,-6.0,-4.8,338.4,-15.0,-1.8,204.3,-1730.1,555.0,0,3408,0,150,0,
1.8967,-35.7,152.4,317.1,108.6,114.9,298.8,81.0,-54.6,-2815.8,408.3,223.5,303.0,1705.2,965.1,-124.5,-213.3,-6.0,-4.5,339.3,-18.9,-1.8,202.2,-1744.8,556.2,0,3414,0,151,0,
1.9000,-41.7,146.1,318.6,112.2,125.7,307.2,82.2,-53.1,-2964.0,420.9,223.8,305.7,1710.9,952.2,-124.5,-218.7,-6.0,-4.2,340.2,-5.1,-1.5,207.6,-1743.6,574.8,0,3420,0,152,0,
1.9033,-40.5,152.4,316.5,111.0,121.2,309.3,83.7,-54.0,-2889.9,410.4,225.3,309.0,1707.0,958.5,-119.4,-215.7,-6.3,-4.2,341.4,-14.7,-1.5,198.6,-1741.5,561.6,0,3426,0,153,0,
1.9067,-42.6,142.5,309.3,110.1,118.2,295.5,79.5,-56.7,-2964.0,420.3,219.3,305.1,1669.8,950.1,-119.4,-222.0,-6.0,-4.8,333.6,-21.9,-1.8,197.1,-1736.4,567.6,0,3432,0,154,0,
1.9100,-36.0,155.4,313.2,108.6,115.8,294.6,80.1,-57.6,-2815.8,412.8,221.1,305.7,1720.5,997.8,-122.1,-240.0,-6.0,-4.5,338.1,-12.3,-1.8,201.9,-1741.2,545.1,0,3438,0,155,0,
1.9133,-39.6,148.8,311.1,113.7,123.6,308.1,85.2,-55.8,-2741.7,419.1,216.9,311.1,1728.9,942.6,-136.5,-230.4,-6.3,-4.5,335.7,-1.8,-2.1,204.3,-1763.4,578.1,0,3444,0,156,0,
1.9167,-34.2,150.0,312.6,115.5,119.7,299.4,86.7,-54.0,-2889.9,420.9,221.1,314.7,1686.9,945.6,-134.1,-244.2,-5.7,-4.8,339.6,-1.8,-2.1,219.0,-1746.3,550.2,0,3450,0,157,0,
1.9200,-36.3,151.2,313.2,114.9,118.5,291.3,80.1,-53.4,-2964.0,408.3,219.6,311.7,1700.7,949.8,-142.8,-243.6,-6.3,-4.5,337.8,-10.5,-1.5,206.4,-1745.7,562.5,0,3456,0,158,0,
1.9233,-36.3,149.1,318.3,117.9,124.5,297.0,82.5,-49.8,-2593.5,415.5,225.9,314.4,1697.1,951.9,-142.2,-246.3,-6.0,-4.5,346.5,-3.3,-1.5,200.1,-1746.0,547.8,0,3462,0,159,0,
1.9267,-32.1,151.2,318.0,117.9,130.8,297.3,87.0,-48.3,-2667.6,418.5,226.5,317.7,1712.7,941.1,-137.7,-240.6,-6.3,-4.2,347.1,0.3,-1.5,210.3,-1749.6,579.3,0,3468,0,160,0,
1.9300,-31.8,156.3,321.3,117.6,128.1,294.0,81.3,-51.6,-2667.6,417.6,229.2,316.5,1741.8,968.4,-147.0,-243.3,-6.3,-4.2,348.9,-10.5,-1.8,195.9,-1761.9,542.4,0,3474,0,161,0,
1.9333,-32.4,153.0,318.6,112.8,127.2,296.7,82.8,-51.6,-2964.0,418.5,224.7,311.7,1723.5,955.2,-148.2,-264.0,-6.3,-4.2,344.7,-12.6,-1.8,207.3,-1772.1,542.4,0,3480,0,162,0,
1.9367,-36.0,148.2,315.9,115.2,126.0,290.1,82.5,-51.3,-2741.7,418.5,223.8,312.3,1710.0,930.9,-138.3,-240.0,-6.3,-4.5,343.5,-7.2,-1.5,196.5,-1755.9,567.6,0,3486,0,163,0,
1.9400,-36.3,149.4,318.6,114.6,122.1,285.9,83.1,-48.6,-2741.7,428.7,224.1,311.7,1688.1,942.3,-130.5,-238.5,-6.3,-4.5,341.4,-15.0,-2.1,207.3,-1749.6,560.7,0,3492,0,164,0,
1.9433,-30.9,159.6,320.1,118.2,120.9,289.2,84.6,-47.4,-2667.6,426.9,226.2,311.7,1699.5,961.8,-141.9,-241.2,-6.3,-4.5,347.7,-10.8,-1.8,204.9,-1743.9,555.0,0,3498,0,165,0,
1.9467,-36.0,144.9,317.7,115.5,129.3,297.3,86.4,-49.2,-2815.8,424.8,228.0,313.2,1720.2,947.1,-126.9,-229.8,-6.3,-4.2,351.0,-10.2,-1.8,216.0,-1746.3,564.3,0,3504,0,166,0,
1.9500,-31.8,143.4,311.4,108.9,123.0,290.1,81.9,-54.6,-2889.9,419.4,218.4,307.2,1728.3,973.8,-123.0,-237.3,-6.0,-4.5,339.3,-17.7,-1.8,208.8,-1755.9,572.4,0,3510,0,167,0,
1.9533,-36.6,149.1,310.8,105.3,120.3,292.2,83.7,-57.0,-2889.9,407.7,215.1,301.8,1730.7,960.0,-120.0,-229.8,-6.0,-4.5,337.2,-28.8,-1.5,205.2,-1748.4,547.2,0,3516,0,168,0,
1.9567,-42.0,143.4,310.5,111.6,123.0,293.7,89.4,-54.0,-2815.8,423.0,221.1,310.2,1673.1,943.2,-129.9,-234.3,-6.3,-4.5,339.9,-17.7,-1.8,222.3,-1742.4,546.0,0,3522,0,169,0,
1.9600,-37.8,142.2,304.5,103.5,114.9,290.7,87.3,-56.4,-2815.8,406.8,215.1,305.7,1684.8,957.6,-120.9,-222.6,-6.6,-4.5,334.5,-18.3,-1.5,190.8,-1741.8,576.0,0,3528,0,170,0,
1.9633,-37.8,144.6,318.6,115.2,129.0,292.2,84.6,-45.6,-2815.8,431.7,228.3,315.3,1728.0,937.5,-145.8,-240.3,-6.3,-4.2,343.8,-9.9,-1.8,216.3,-1743.6,565.5,0,3534,0,171,0,
1.9667,-36.0,144.3,304.8,108.0,123.6,296.7,89.7,-51.0,-2815.8,413.1,217.2,303.3,1691.4,964.5,-131.4,-230.7,-6.3,-4.2,330.9,-10.8,-1.5,193.5,-1737.6,572.1,0,3540,0,172,0,
1.9700,-40.2,140.4,308.4,110.4,119.1,285.3,85.2,-50.1,-2815.8,414.3,218.7,304.5,1691.4,941.1,-127.8,-220.5,-6.0,-4.8,336.3,-13.2,-1.8,204.0,-1735.8,519.0,0,3546,0,173,0,
1.9733,-41.7,144.6,308.4,107.4,117.9,290.4,84.3,-50.4,-2741.7,401.1,216.3,295.2,1700.4,928.8,-129.0,-223.2,-6.0,-4.5,337.2,-20.1,-1.5,195.9,-1733.7,539.4,0,3552,0,174,0,
1.9767,-41.4,136.8,301.2,106.8,114.9,285.3,80.7,-53.4,-2667.6,409.5,212.4,300.6,1692.6,942.0,-126.9,-230.1,-6.3,-4.5,327.9,-18.3,-1.8,193.5,-1770.6,556.8,0,3558,0,175,0,
1.9800,-39.6,136.8,307.8,104.1,111.9,279.0,81.3,-51.3,-2741.7,413.7,213.3,299.1,1694.7,951.9,-125.7,-223.5,-5.7,-4.5,332.4,-19.5,-1.8,198.6,-1751.4,549.9,0,3564,0,176,0,
1.9833,-42.6,133.5,297.0,105.0,111.6,282.9,83.1,-54.3,-2815.8,412.8,203.4,301.2,1693.8,943.5,-130.8,-231.3,-6.3,-4.2,320.1,-18.0,-1.2,199.5,-1771.8,582.9,0,3570,0,177,0,
1.9867,-32.7,145.2,302.7,107.4,112.2,282.9,80.4,-52.5,-2741.7,412.8,207.0,302.4,1720.5,957.0,-128.4,-229.5,-6.0,-4.5,330.0,-18.3,-1.8,206.7,-1766.4,538.8,0,3576,0,178,0,
1.9900,-40.2,141.0,302.4,105.9,110.7,282.9,81.9,-54.0,-2593.5,406.8,210.6,298.8,1703.1,933.9,-123.0,-226.8,-6.3,-4.5,329.7,-21.9,-1.8,198.6,-1758.9,536.4,0,3582,0,179,0,
1.9933,-43.5,128.7,296.4,96.9,105.9,280.8,86.1,-57.6,-2445.3,410.7,205.5,295.2,1667.7,924.0,-118.2,-200.4,-6.0,-4.5,324.9,-26.1,-1.5,186.3,-1746.9,522.3,0,3588,0,180,0,
1.9967,-40.2,133.8,298.2,99.3,106.5,279.3,85.5,-53.1,-2593.5,404.7,203.1,291.9,1697.7,937.5,-121.2,-214.5,-6.0,-4.2,324.9,-28.8,-1.8,185.4,-1741.2,540.9,0,3594,0,181,0,
2.0000,-36.9,138.0,298.5,99.0,108.0,280.2,81.9,-54.6,-2741.7,403.2,201.6,290.1,1692.6,945.3,-114.3,-224.1,-6.3,-4.5,324.3,-29.7,-1.5,188.7,-1749.3,545.4,0,3600,0,182,0,
2.0033,-33.3,149.1,311.1,110.4,120.3,287.7,80.1,-48.0,-2741.7,418.2,215.7,303.0,1694.1,923.7,-140.1,-252.6,-6.3,-4.2,336.3,-26.1,-1.8,193.2,-1752.6,554.7,0,3606,0,183,0,
2.0067,-30.6,142.5,300.6,102.0,119.1,283.5,83.7,-52.2,-2593.5,401.4,208.8,295.8,1694.7,946.8,-121.2,-231.0,-6.0,-4.2,328.8,-27.0,-1.5,194.7,-1757.1,537.0,0,3612,0,184,0,
2.0100,-38.7,132.3,301.2,104.7,119.7,284.7,84.3,-52.5,-2667.6,404.1,206.7,297.3,1657.5,936.0,-136.2,-239.4,-6.0,-4.5,327.6,-19.2,-1.5,211.2,-1747.2,549.3,0,3618,0,185,0,
2.0133,-39.6,132.3,302.7,110.7,117.3,289.2,82.2,-49.8,-2667.6,411.0,211.5,301.8,1683.0,920.7,-138.0,-234.3,-6.3,-4.5,330.9,-17.1,-2.1,183.9,-1762.5,560.4,0,3624,0,186,0,
2.0167,-32.4,145.2,308.1,105.9,106.2,283.2,84.6,-51.6,-2667.6,391.5,208.2,288.6,1688.4,941.7,-135.3,-245.4,-6.0,-4.5,333.0,-35.7,-1.5,170.4,-1752.6,510.3,0,3630,0,187,0,
2.0200,-35.1,141.9,307.8,106.5,102.6,271.2,78.0,-49.8,-2667.6,405.9,211.5,295.5,1685.7,930.9,-139.2,-248.4,-6.0,-4.5,336.3,-30.3,-2.1,181.5,-1752.9,540.0,0,3636,0,188,0,
2.0233,-41.7,128.4,300.0,108.3,116.4,278.4,81.9,-48.6,-2667.6,402.3,206.7,292.5,1656.9,926.1,-135.3,-236.7,-6.3,-4.5,324.3,-27.0,-1.5,190.2,-1752.0,543.0,0,3642,0,189,0,
2.0267,-36.6,135.6,301.2,109.2,114.3,280.8,82.5,-48.0,-2519.4,390.9,209.4,300.0,1682.4,946.5,-145.8,-237.9,-6.3,-4.5,323.4,-25.5,-1.8,190.2,-1752.0,530.1,0,3648,0,190,0,
2.0300,-38.7,139.5,303.9,116.1,123.3,287.7,87.9,-43.2,-2519.4,408.0,215.4,306.6,1691.1,919.2,-146.4,-265.5,-6.0,-4.2,333.3,-12.3,-1.8,201.9,-1763.7,547.2,0,3654,0,191,0,
2.0333,-34.5,144.6,308.1,108.9,112.8,279.3,85.5,-45.0,-2741.7,399.3,212.1,296.7,1693.5,959.7,-137.7,-239.7,-6.3,-4.8,330.0,-22.8,-1.5,180.0,-1760.1,516.6,0,3660,0,192,0,
2.0367,-40.2,135.9,304.2,105.6,114.3,288.0,87.6,-48.3,-2741.7,399.3,204.0,292.8,1680.9,920.4,-131.7,-248.1,-6.0,-4.8,322.2,-19.8,-1.8,189.3,-1749.9,545.1,0,3666,0,193,0,
2.0400,-34.2,135.6,302.7,106.2,109.5,277.5,83.4,-54.9,-2519.4,400.2,207.9,295.2,1690.8,943.8,-124.5,-239.4,-6.3,-4.5,329.1,-24.6,-1.8,179.4,-1775.1,546.3,0,3672,0,194,0,
2.0433,-32.4,140.4,307.8,110.1,114.6,278.1,84.3,-50.4,-2371.2,419.4,215.1,295.5,1690.5,933.6,-142.2,-240.6,-6.3,-4.5,333.6,-27.3,-1.5,189.6,-1752.6,534.0,0,3678,0,195,0,
2.0467,-44.1,131.4,306.6,106.8,113.7,280.2,81.3,-57.9,-2593.5,409.5,210.6,291.6,1706.4,921.6,-130.5,-244.8,-6.3,-4.5,330.3,-23.7,-2.1,177.0,-1772.1,533.1,0,3684,0,196,0,
2.0500,-35.1,140.7,308.4,110.1,111.3,274.5,78.3,-57.3,-2519.4,400.8,210.6,294.6,1689.9,942.6,-136.5,-253.5,-6.3,-4.5,330.9,-37.5,-1.8,181.2,-1776.6,519.9,0,3690,0,197,0,
2.0533,-44.1,138.3,305.1,106.5,115.8,281.4,83.1,-57.6,-2741.7,403.5,210.9,291.9,1677.6,916.8,-128.1,-234.9,-6.0,-4.5,327.6,-39.0,-1.8,191.7,-1774.2,516.3,0,3696,0,198,0,
2.0567,-40.5,132.0,300.3,106.8,115.8,288.0,84.0,-55.8,-2593.5,400.5,209.4,290.7,1664.4,921.0,-127.8,-240.3,-6.0,-4.2,326.4,-26.4,-1.8,186.3,-1765.8,554.1,0,3702,0,199,0,
2.0600,-44.4,132.3,294.6,99.9,108.3,273.0,84.0,-61.2,-2445.3,390.3,200.7,284.4,1676.1,918.9,-127.5,-240.0,-6.0,-4.5,318.0,-30.6,-1.5,173.4,-1757.1,528.9,0,3708,0,200,0,
2.0633,-36.6,135.6,299.4,100.8,102.6,271.5,86.4,-58.8,-2519.4,399.0,204.6,289.5,1677.6,935.1,-130.5,-224.4,-6.3,-4.2,324.9,-30.0,-1.5,172.5,-1767.0,532.2,0,3714,0,201,0,
2.0667,-47.4,128.7,299.7,100.2,106.8,273.9,89.1,-63.0,-2593.5,403.5,205.8,294.3,1673.1,899.1,-128.4,-232.8,-6.0,-4.5,326.1,-36.9,-1.5,181.8,-1762.8,535.2,0,3720,0,202,0,
2.0700,-35.1,152.4,308.4,109.5,120.6,286.5,86.7,-54.9,-2593.5,407.7,221.4,306.9,1693.5,922.2,-150.9,-256.2,-6.3,-4.2,340.8,-18.9,-2.1,204.3,-1768.8,539.1,0,3726,0,203,0,
2.0733,-45.9,131.4,298.5,102.3,109.5,277.5,86.4,-59.4,-2519.4,406.8,210.6,297.6,1647.0,918.0,-126.3,-231.0,-6.3,-4.5,326.7,-26.1,-2.1,186.9,-1747.5,522.3,0,3732,0,204,0,
2.0767,-42.9,136.2,300.9,106.5,114.0,283.8,88.2,-55.8,-2445.3,414.3,215.4,302.4,1703.1,910.5,-140.1,-240.3,-6.3,-4.5,337.2,-24.9,-2.1,194.7,-1752.0,544.2,0,3738,0,205,0,
2.0800,-41.1,140.4,300.6,104.7,112.8,280.8,89.4,-57.0,-2519.4,399.0,213.0,300.6,1697.7,924.6,-136.5,-238.8,-6.0,-4.2,333.6,-21.6,-1.8,184.8,-1747.2,529.5,0,3744,0,206,0,
2.0833,-42.0,137.7,300.0,106.2,116.4,285.0,88.8,-58.5,-2667.6,410.7,212.4,300.3,1685.4,928.8,-132.3,-223.2,-6.3,-4.5,332.1,-21.3,-1.2,192.9,-1750.5,538.2,0,3750,0,207,0,
2.0867,-39.0,136.8,306.3,105.9,116.4,287.4,87.9,-53.7,-2519.4,414.3,215.1,300.0,1672.5,934.2,-123.0,-229.2,-6.0,-4.5,336.9,-24.0,-1.8,181.2,-1761.6,528.6,0,3756,0,208,0,
2.0900,-37.2,138.6,309.6,111.9,123.9,283.5,91.8,-52.2,-2371.2,422.1,218.7,296.7,1687.2,918.6,-132.0,-235.2,-6.3,-4.5,340.5,-24.0,-1.8,198.3,-1759.8,528.6,0,3762,0,209,0,
2.0933,-30.6,146.1,307.5,111.0,117.9,276.6,90.3,-51.9,-2297.1,405.9,214.5,298.5,1677.3,948.3,-120.9,-225.9,-5.7,-4.5,334.5,-16.8,-2.1,206.7,-1751.1,541.5,0,3768,0,210,0,
2.0967,-34.2,140.4,310.5,108.9,114.9,271.2,89.1,-59.4,-2519.4,406.5,218.7,307.5,1677.9,938.4,-114.3,-225.0,-6.3,-4.5,339.6,-15.3,-1.5,204.3,-1760.4,510.3,0,3774,0,211,0,
2.1000,-36.6,143.4,314.4,114.6,123.6,289.2,93.3,-58.2,-2519.4,408.3,217.5,309.0,1691.4,931.8,-124.8,-229.2,-6.0,-4.5,342.3,-14.1,-1.8,198.0,-1763.7,528.3,0,3780,0,212,0,
2.1033,-36.3,146.1,311.4,113.7,123.9,284.7,95.1,-55.8,-2667.6,412.2,219.3,310.8,1698.0,923.7,-131.4,-242.4,-6.3,-4.8,339.9,-20.1,-1.5,210.9,-1768.2,545.4,0,3786,0,213,0,
2.1067,-41.4,137.1,304.8,105.9,110.7,271.8,91.2,-62.7,-2519.4,410.4,211.5,300.9,1704.0,906.9,-126.0,-216.3,-6.3,-4.5,336.9,-30.6,-1.8,184.8,-1751.1,535.5,0,3792,0,214,0,
2.1100,-38.7,134.4,295.5,102.9,113.7,277.5,88.5,-62.4,-2371.2,409.2,205.5,303.9,1665.6,938.1,-137.7,-238.8,-6.3,-4.8,323.4,-19.8,-1.8,195.3,-1768.2,538.5,0,3798,0,215,0,
2.1133,-37.5,130.8,295.2,100.5,115.2,286.2,90.3,-60.6,-2519.4,386.4,204.9,303.0,1659.3,925.8,-133.8,-243.3,-6.0,-4.5,322.5,-15.9,-1.5,196.8,-1760.7,547.5,0,3804,0,216,0,
2.1167,-45.0,131.1,296.7,94.2,105.9,263.4,83.4,-67.2,-2741.7,398.1,204.3,291.3,1678.5,905.4,-140.4,-227.7,-6.0,-4.5,321.6,-33.9,-1.8,182.1,-1771.2,516.3,0,3810,0,217,0,
2.1200,-44.7,132.3,302.1,99.3,111.3,270.9,87.6,-64.2,-2519.4,399.9,203.1,292.5,1702.5,896.1,-143.7,-235.2,-6.0,-4.5,324.6,-32.1,-1.5,174.6,-1763.7,523.5,0,3816,0,218,0,
2.1233,-45.6,135.0,304.2,103.5,112.5,268.8,87.6,-64.8,-2519.4,401.7,211.8,297.3,1680.0,902.7,-145.8,-250.2,-6.0,-4.8,332.1,-27.3,-1.8,184.8,-1776.9,525.9,0,3822,0,219,0,
2.1267,-50.4,122.7,297.3,102.0,109.8,268.8,88.2,-66.6,-2519.4,397.5,207.6,298.5,1628.4,916.8,-138.3,-237.3,-6.3,-4.2,322.8,-20.1,-1.5,191.7,-1771.5,536.1,0,3828,0,220,0,
2.1300,-54.0,117.9,288.0,94.8,107.4,266.7,88.2,-70.2,-2519.4,391.8,200.1,292.2,1656.6,914.1,-144.0,-234.6,-6.0,-4.8,316.8,-36.9,-1.8,172.5,-1774.2,524.7,0,3834,0,221,0,
2.1333,-53.4,119.4,291.0,89.1,102.0,266.7,83.1,-71.4,-2815.8,381.9,196.5,285.3,1675.5,909.3,-135.0,-233.4,-6.0,-4.2,314.4,-36.9,-2.1,171.6,-1788.6,492.3,0,3840,0,222,0,
2.1367,-45.9,124.5,294.6,97.2,106.8,268.2,85.2,-68.4,-2593.5,387.6,208.5,299.1,1667.7,928.5,-132.9,-237.9,-6.6,-4.2,318.9,-30.3,-1.5,183.3,-1779.3,516.6,0,3846,0,223,0,
2.1400,-43.5,126.3,297.0,95.1,105.6,259.8,80.4,-69.3,-2593.5,396.0,203.4,291.3,1676.1,912.9,-133.5,-228.3,-6.0,-4.2,317.4,-33.9,-1.8,191.4,-1774.2,528.6,0,3852,0,224,0,
2.1433,-40.5,133.5,299.1,96.6,104.4,260.4,80.1,-70.8,-2519.4,402.0,209.4,294.6,1658.7,925.5,-147.6,-244.2,-6.0,-4.5,321.0,-26.7,-1.5,185.7,-1760.1,522.0,0,3858,0,225,0,
2.1467,-43.8,129.3,300.6,99.9,109.5,267.9,78.9,-68.7,-2593.5,408.9,209.7,300.0,1675.2,908.7,-138.6,-243.3,-6.0,-4.2,323.1,-24.9,-1.5,185.7,-1772.1,524.7,0,3864,0,226,0,
2.1500,-43.8,128.4,294.9,91.8,100.2,266.1,76.8,-74.1,-2741.7,402.9,204.0,290.7,1683.6,912.6,-128.7,-228.9,-6.3,-4.5,321.9,-36.9,-1.8,174.3,-1764.3,522.6,0,3870,0,227,0,
2.1533,-45.6,125.4,297.3,93.0,105.6,268.5,80.4,-71.4,-2815.8,402.6,208.2,300.0,1680.9,909.9,-140.1,-251.4,-6.3,-5.1,324.0,-24.6,-2.1,191.7,-1780.8,533.4,0,3876,0,228,0,
2.1567,-41.7,126.9,293.1,90.6,103.5,267.3,74.4,-72.3,-2667.6,399.6,207.6,298.5,1674.9,924.9,-141.6,-240.9,-6.0,-4.2,324.3,-27.9,-1.5,189.0,-1789.5,528.9,0,3882,0,229,0,
2.1600,-45.6,118.2,288.3,86.4,102.6,264.9,77.7,-74.4,-2667.6,393.9,202.5,291.6,1653.9,914.4,-123.6,-228.3,-6.3,-4.8,317.4,-36.0,-1.8,173.4,-1769.7,492.9,0,3888,0,230,0,
2.1633,-48.3,121.5,287.1,93.3,107.7,267.3,84.0,-69.9,-2667.6,399.6,203.7,294.3,1677.9,911.4,-132.6,-229.5,-6.0,-4.2,316.8,-28.8,-1.8,183.6,-1763.4,525.3,0,3894,0,231,0,
2.1667,-41.1,135.6,298.5,98.7,107.7,268.8,82.8,-68.1,-2889.9,405.9,205.2,297.0,1712.1,907.8,-141.6,-234.3,-6.0,-4.5,320.4,-31.5,-1.5,195.9,-1780.2,510.9,0,3900,0,232,0,
2.1700,-47.1,125.1,293.4,94.5,101.7,270.0,87.3,-71.7,-2889.9,398.7,204.9,294.0,1667.4,886.8,-123.3,-209.1,-6.3,-4.5,313.8,-38.1,-1.8,182.1,-1770.9,520.8,0,3906,0,233,0,
2.1733,-42.9,131.4,301.8,99.6,113.1,277.2,86.1,-65.4,-2741.7,410.1,212.1,304.5,1663.5,920.7,-145.2,-242.7,-6.3,-4.5,327.9,-19.2,-1.5,193.5,-1781.1,515.4,0,3912,0,234,0,
2.1767,-45.9,125.4,298.2,102.3,114.9,273.0,89.1,-66.6,-2667.6,399.3,216.6,305.4,1665.0,898.5,-135.0,-233.7,-6.3,-4.5,329.7,-16.8,-1.8,188.7,-1775.1,513.0,0,3918,0,235,0,
2.1800,-46.8,126.9,299.1,94.2,117.3,272.1,89.1,-68.7,-2815.8,404.7,212.7,297.3,1665.6,905.1,-134.4,-228.3,-6.3,-4.2,326.7,-28.8,-1.8,177.0,-1774.8,523.8,0,3924,0,236,0,
2.1833,-38.7,128.4,293.7,94.5,109.5,269.1,86.1,-69.9,-2889.9,405.3,208.8,297.9,1648.5,908.1,-124.5,-235.2,-6.3,-4.8,327.6,-25.8,-2.4,192.0,-1776.9,526.5,0,3930,0,237,0,
2.1867,-40.5,132.0,294.6,96.3,102.0,258.6,80.1,-71.7,-2815.8,416.1,217.2,309.9,1680.3,911.1,-135.6,-236.1,-6.3,-4.8,326.1,-20.1,-1.8,200.1,-1791.6,521.1,0,3936,0,238,0,
2.1900,-43.2,127.5,294.3,90.6,100.8,256.8,84.6,-75.6,-2964.0,397.8,208.5,300.3,1690.5,926.7,-125.4,-231.9,-6.6,-4.2,325.5,-26.1,-1.5,181.5,-1763.4,520.5,0,3942,0,239,0,
2.1933,-48.0,123.9,293.1,91.5,102.9,263.1,81.9,-78.6,-2741.7,406.2,206.1,301.5,1671.6,899.7,-128.4,-224.7,-6.3,-4.5,323.4,-25.2,-1.5,187.5,-1796.4,541.5,0,3948,0,240,0,
2.1967,-46.2,122.1,290.1,88.2,97.8,248.1,78.0,-79.8,-2815.8,398.7,204.6,291.6,1659.6,909.0,-124.5,-223.2,-6.3,-4.8,322.8,-34.5,-1.5,184.5,-1787.1,489.0,0,3954,0,241,0,
2.2000,-45.6,116.7,288.6,93.0,106.8,258.0,80.4,-78.9,-2815.8,403.5,207.3,301.8,1679.1,922.8,-126.9,-228.6,-6.3,-4.8,319.8,-18.6,-1.8,192.6,-1788.3,519.9,0,3960,0,242,0,
2.2033,-45.6,122.4,289.8,88.2,106.8,255.3,77.4,-79.2,-2815.8,392.4,203.7,293.4,1674.0,902.1,-120.9,-225.0,-6.0,-4.5,318.0,-33.3,-1.8,192.9,-1800.6,512.4,0,3966,0,243,0,
2.2067,-42.3,130.5,296.4,88.5,106.8,258.0,81.6,-74.1,-2741.7,392.1,207.9,298.8,1675.2,901.2,-132.3,-232.5,-6.0,-4.8,323.4,-29.4,-1.5,188.4,-1795.5,504.6,0,3972,0,244,0,
2.2100,-45.0,128.1,293.4,93.6,110.1,262.8,83.4,-72.9,-2815.8,407.4,212.1,304.5,1669.2,902.1,-133.5,-242.7,-6.0,-4.5,328.2,-22.5,-1.8,186.9,-1789.2,526.2,0,3978,0,245,0,
2.2133,-44.4,123.6,296.4,90.9,107.4,259.5,85.8,-75.0,-2815.8,412.5,214.5,300.3,1680.0,904.5,-141.6,-241.5,-6.3,-4.8,334.5,-23.4,-1.5,168.6,-1779.0,517.5,0,3984,0,246,0,
2.2167,-42.9,129.9,301.8,98.1,114.9,266.4,91.8,-68.7,-2964.0,420.3,220.5,309.6,1672.8,903.0,-127.8,-227.4,-6.3,-4.5,335.4,-18.6,-1.5,189.6,-1777.5,518.4,0,3990,0,247,0,
2.2200,-45.0,125.1,295.5,100.5,112.5,273.6,92.4,-67.5,-2815.8,393.3,213.9,308.1,1670.4,903.3,-140.4,-236.4,-6.3,-4.5,330.6,-13.2,-1.5,171.3,-1786.5,519.6,0,3996,0,248,0,
2.2233,-46.5,120.9,290.7,94.2,108.0,271.2,88.5,-69.9,-2889.9,395.1,215.1,306.9,1673.4,907.2,-146.1,-236.1,-6.0,-4.5,329.4,-19.2,-1.8,193.8,-1776.9,510.9,0,4002,0,249,0,
2.2267,-41.7,124.8,291.3,92.4,106.2,264.0,86.7,-71.1,-2815.8,390.9,216.6,302.4,1666.2,917.1,-150.3,-245.4,-6.3,-4.5,330.6,-22.2,-1.8,189.6,-1789.2,525.0,0,4008,0,250,0,
2.2300,-42.6,125.4,294.6,91.8,106.2,260.4,87.3,-72.0,-2741.7,405.3,219.6,305.1,1677.3,897.6,-138.3,-242.4,-6.6,-4.8,332.4,-21.9,-2.1,175.5,-1779.3,499.5,0,4014,0,251,0,
2.2333,-41.7,126.0,294.0,92.4,107.7,257.4,86.1,-68.4,-2889.9,404.1,215.7,303.9,1693.2,915.6,-131.4,-242.7,-6.0,-4.5,330.9,-23.7,-1.8,188.1,-1782.6,503.1,0,4020,0,252,0,
2.2367,-43.2,122.7,296.1,97.8,108.9,268.5,85.8,-67.2,-2889.9,408.0,218.4,307.8,1663.5,904.8,-138.3,-232.2,-6.3,-4.5,333.6,-18.0,-1.5,181.2,-1778.4,515.7,0,4026,0,253,0,
2.2400,-41.7,125.1,300.0,98.1,114.9,265.5,81.6,-67.5,-2889.9,410.4,222.9,309.6,1679.1,921.3,-127.2,-240.6,-6.3,-4.5,331.8,-18.3,-1.8,190.8,-1792.8,513.6,0,4032,0,254,0,
2.2433,-43.2,123.9,298.2,94.5,109.8,261.9,81.6,-70.2,-2667.6,411.9,221.1,308.4,1672.8,911.7,-126.3,-231.9,-6.3,-4.2,339.0,-24.0,-1.8,196.5,-1789.2,516.6,0,4038,0,255,0,
2.2467,-45.9,120.0,289.8,87.9,103.2,249.9,77.4,-72.9,-2964.0,399.6,210.9,297.0,1686.6,907.5,-124.2,-231.0,-6.0,-4.5,327.0,-32.7,-1.5,165.9,-1783.8,504.9,0,4044,0,0,0,
2.2500,-44.4,122.7,292.2,86.4,102.3,251.1,75.0,-73.8,-2964.0,412.5,214.8,299.1,1662.9,899.7,-124.5,-226.5,-6.3,-4.8,335.4,-33.3,-1.8,176.1,-1786.5,518.4,0,4050,0,1,0,
2.2533,-42.0,131.1,293.1,90.0,107.4,263.7,76.8,-72.0,-3038.1,402.6,212.4,301.8,1695.0,889.5,-125.7,-231.6,-6.3,-4.5,330.0,-26.1,-1.5,188.7,-1787.1,507.6,0,4056,0,2,0,
2.2567,-38.7,131.4,295.5,97.5,113.1,266.1,78.3,-68.7,-2889.9,401.4,220.5,306.6,1685.1,909.0,-129.9,-238.8,-6.3,-4.5,338.7,-20.1,-1.5,189.6,-1805.1,501.9,0,4062,0,3,0,
2.2600,-41.4,126.9,293.7,95.7,110.1,266.7,81.9,-69.3,-2889.9,393.6,219.9,306.3,1680.3,897.9,-121.2,-225.6,-6.3,-4.8,334.2,-20.1,-1.2,187.2,-1779.3,522.3,0,4068,0,4,0,
2.2633,-38.1,134.4,306.0,101.7,115.5,270.6,84.9,-61.2,-2815.8,407.4,225.9,311.7,1695.0,903.9,-132.3,-230.4,-6.6,-4.5,349.8,-20.4,-1.8,202.5,-1775.4,514.2,0,4074,0,5,0,
2.2667,-42.6,127.2,295.5,96.3,114.9,262.5,78.3,-66.3,-3038.1,406.5,219.0,306.0,1686.9,909.6,-117.9,-222.3,-6.3,-4.5,336.9,-22.5,-1.5,188.7,-1784.1,509.7,0,4080,0,6,0,
2.2700,-43.8,134.4,306.6,100.2,113.1,257.7,80.7,-63.9,-3038.1,423.6,231.0,311.1,1626.3,888.9,-122.1,-231.3,-6.0,-4.8,350.7,-20.4,-1.8,196.5,-1778.1,499.2,0,4086,0,7,0,
2.2733,-38.4,126.6,303.3,105.3,117.3,269.1,86.1,-59.1,-2964.0,420.6,232.2,317.1,1671.6,901.5,-120.0,-240.9,-6.3,-3.9,349.8,-14.4,-1.8,195.3,-1778.1,498.9,0,4092,0,8,0,
2.2767,-39.6,126.9,300.9,102.0,114.9,258.0,84.0,-57.6,-2889.9,409.8,227.1,307.8,1689.0,917.4,-111.9,-213.6,-6.3,-4.5,340.2,-21.9,-1.8,181.8,-1786.8,531.0,0,4098,0,9,0,
2.2800,-37.2,133.8,307.2,105.9,121.8,268.5,87.0,-53.4,-2964.0,413.7,230.7,312.6,1674.3,910.5,-124.8,-225.0,-6.3,-4.2,346.8,-20.1,-1.8,211.2,-1782.3,527.1,0,4104,0,10,0,
2.2833,-39.9,129.9,298.2,96.3,115.5,263.7,82.2,-63.0,-3112.2,411.6,222.9,303.3,1662.3,901.5,-111.6,-223.8,-6.0,-4.5,341.4,-22.2,-1.8,192.3,-1780.5,499.8,0,4110,0,11,0,
2.2867,-36.3,132.6,300.9,100.8,113.7,262.5,82.8,-60.0,-3038.1,417.0,229.2,306.6,1681.5,918.9,-114.6,-242.1,-5.7,-4.5,349.2,-22.2,-1.5,186.6,-1788.0,500.7,0,4116,0,12,0,
2.2900,-37.5,133.2,309.0,104.1,114.3,261.0,87.0,-59.1,-2889.9,423.0,232.5,308.4,1704.3,912.9,-121.5,-222.9,-6.6,-4.8,351.3,-20.7,-1.8,199.5,-1783.8,508.8,0,4122,0,13,0,
2.2933,-37.5,137.4,308.1,105.3,113.7,262.5,85.8,-54.6,-2889.9,399.6,224.1,310.8,1689.9,899.7,-122.7,-224.4,-6.3,-4.2,347.1,-18.0,-1.5,192.9,-1780.2,505.8,0,4128,0,14,0,
2.2967,-42.6,130.2,299.1,105.3,116.1,269.7,83.1,-56.4,-2964.0,404.1,225.6,308.7,1652.1,877.5,-120.9,-225.6,-6.0,-4.2,339.9,-21.3,-1.8,208.8,-1808.7,517.5,0,4134,0,15,0,
2.3000,-42.6,131.7,302.4,103.2,118.5,272.1,80.4,-55.2,-3112.2,422.7,225.9,304.8,1652.7,891.9,-137.4,-245.1,-6.3,-4.5,346.8,-18.0,-1.8,194.4,-1805.1,527.4,0,4140,0,16,0,
2.3033,-39.0,129.9,294.0,94.2,108.6,264.3,79.5,-58.8,-3038.1,411.3,216.0,297.9,1645.8,913.2,-120.3,-237.9,-6.3,-4.8,335.7,-29.4,-2.1,176.1,-1795.8,488.7,0,4146,0,17,0,
2.3067,-39.3,126.3,297.3,94.5,109.2,260.1,83.1,-60.3,-2964.0,412.5,216.3,303.3,1689.9,892.2,-123.3,-234.6,-6.6,-4.5,341.4,-28.2,-1.8,186.0,-1783.8,488.1,0,4152,0,18,0,
2.3100,-39.9,125.1,297.0,92.4,107.1,255.0,82.2,-63.9,-2964.0,403.5,218.7,305.4,1687.5,901.5,-126.0,-231.6,-6.0,-4.5,338.1,-30.0,-1.8,191.7,-1782.0,488.1,0,4158,0,19,0,
2.3133,-42.9,126.6,300.9,99.9,115.2,258.0,84.3,-58.8,-3038.1,407.1,225.3,308.1,1652.7,890.1,-131.1,-239.1,-6.6,-4.5,345.3,-25.2,-1.8,181.8,-1782.0,515.4,0,4164,0,20,0,
2.3167,-49.2,120.3,292.8,89.1,102.6,254.7,83.7,-65.4,-3260.4,397.8,211.2,294.6,1649.1,870.6,-135.6,-232.5,-6.0,-4.2,329.4,-35.7,-2.1,189.9,-1783.8,495.0,0,4170,0,21,0,
2.3200,-43.8,120.9,289.2,96.3,114.0,274.2,91.5,-62.7,-3038.1,391.2,210.6,302.7,1659.3,884.7,-139.2,-237.6,-6.3,-4.2,324.9,-27.3,-2.1,174.0,-1796.1,510.3,0,4176,0,22,0,
2.3233,-41.4,132.9,303.6,99.6,118.2,260.1,84.9,-58.2,-3038.1,396.0,227.4,313.5,1683.9,892.2,-147.0,-249.6,-6.0,-4.5,345.0,-24.3,-2.1,192.6,-1801.5,497.1,0,4182,0,23,0,
2.3267,-41.1,128.4,298.2,101.1,116.4,256.8,85.2,-59.4,-2964.0,409.8,221.1,306.3,1676.4,898.2,-132.6,-243.0,-6.6,-4.5,334.8,-21.6,-1.5,192.3,-1793.7,497.1,0,4188,0,24,0,
2.3300,-42.0,123.3,297.3,99.6,114.0,262.8,86.7,-57.3,-3038.1,405.0,222.0,309.3,1684.8,885.9,-141.3,-246.0,-6.6,-4.5,326.7,-18.9,-1.8,195.0,-1794.6,493.8,0,4194,0,25,0,
2.3333,-41.7,133.5,298.8,99.3,110.4,262.2,86.7,-58.2,-3112.2,411.9,222.9,306.3,1668.0,874.2,-133.8,-238.8,-6.3,-4.2,331.5,-23.1,-1.5,183.3,-1791.9,510.3,0,4200,0,26,0,
2.3367,-41.7,128.7,299.4,102.0,114.3,257.1,83.4,-56.7,-3260.4,406.2,223.8,307.2,1631.7,891.9,-138.0,-233.1,-6.3,-4.8,336.6,-21.0,-2.1,187.8,-1785.6,495.9,0,4206,0,27,0,
