%OpenBCI Raw EEG Data
%
%Sample Rate = 250.0 Hz
%First Column = SampleIndex
%Last Column = Timestamp 
%Other Columns = EEG data in microvolts followed by Accel Data (in G) interleaved with Aux Data
0, -24969.67, 0.00, 0.00, 0.00, 0.00, 0.00, 0.00, 0.00, 0.102, 0.444, -0.262, 14:29:02.629
1, -24992.29, 0.00, 0.00, 0.00, 0.00, 0.00, 0.00, 0.00, 0.000, 0.000, 0.000, 14:29:02.630
2, -24988.13, 0.00, 0.00, 0.00, 0.00, 0.00, 0.00, 0.00, 0.000, 0.000, 0.000, 14:29:02.630
3, -24963.61, 0.00, 0.00, 0.00, 0.00, 0.00, 0.00, 0.00, 0.000, 0.000, 0.000, 14:29:02.630
4, -24962.29, 0.00, 0.00, 0.00, 0.00, 0.00, 0.00, 0.00, 0.000, 0.000, 0.000, 14:29:02.630
5, -24973.51, 0.00, 0.00, 0.00, 0.00, 0.00, 0.00, 0.00, 0.000, 0.000, 0.000, 14:29:02.630
6, -24979.39, 0.00, 0.00, 0.00, 0.00, 0.00, 0.00, 0.00, 0.000, 0.000, 0.000, 14:29:02.630
7, -24963.75, 0.00, 0.00, 0.00, 0.00, 0.00, 0.00, 0.00, 0.116, 0.634, 0.114, 14:29:02.630
8, -24982.48, 0.00, 0.00, 0.00, 0.00, 0.00, 0.00, 0.00, 0.000, 0.000, 0.000, 14:29:02.630
9, -25001.65, 0.00, 0.00, 0.00, 0.00, 0.00, 0.00, 0.00, 0.000, 0.000, 0.000, 14:29:02.630
10, -24997.07, 0.00, 0.00, 0.00, 0.00, 0.00, 0.00, 0.00, 0.000, 0.000, 0.000, 14:29:02.630
11, -24977.16, 0.00, 0.00, 0.00, 0.00, 0.00, 0.00, 0.00, 0.000, 0.000, 0.000, 14:29:02.630
12, -24963.99, 0.00, 0.00, 0.00, 0.00, 0.00, 0.00, 0.00, 0.000, 0.000, 0.000, 14:29:02.630
13, -24960.26, 0.00, 0.00, 0.00, 0.00, 0.00, 0.00, 0.00, 0.000, 0.000, 0.000, 14:29:02.631
14, -24980.98, 0.00, 0.00, 0.00, 0.00, 0.00, 0.00, 0.00, 0.000, 0.000, 0.000, 14:29:02.631
15, -24982.86, 0.00, 0.00, 0.00, 0.00, 0.00, 0.00, 0.00, 0.000, 0.000, 0.000, 14:29:02.631
16, -24947.05, 0.00, 0.00, 0.00, 0.00, 0.00, 0.00, 0.00, 0.126, 0.726, 0.308, 14:29:02.631
17, -24965.20, 0.00, 0.00, 0.00, 0.00, 0.00, 0.00, 0.00, 0.000, 0.000, 0.000, 14:29:02.631
18, -24986.93, 0.00, 0.00, 0.00, 0.00, 0.00, 0.00, 0.00, 0.000, 0.000, 0.000, 14:29:02.631
19, -24952.68, 0.00, 0.00, 0.00, 0.00, 0.00, 0.00, 0.00, 0.000, 0.000, 0.000, 14:29:02.631
20, -24962.65, 0.00, 0.00, 0.00, 0.00, 0.00, 0.00, 0.00, 0.000, 0.000, 0.000, 14:29:02.631
21, -24967.19, 0.00, 0.00, 0.00, 0.00, 0.00, 0.00, 0.00, 0.000, 0.000, 0.000, 14:29:02.631
22, -24960.66, 0.00, 0.00, 0.00, 0.00, 0.00, 0.00, 0.00, 0.000, 0.000, 0.000, 14:29:02.631
23, -24947.76, 0.00, 0.00, 0.00, 0.00, 0.00, 0.00, 0.00, 0.000, 0.000, 0.000, 14:29:02.631
24, -24944.10, 0.00, 0.00, 0.00, 0.00, 0.00, 0.00, 0.00, 0.000, 0.000, 0.000, 14:29:02.631
25, -24983.10, 0.00, 0.00, 0.00, 0.00, 0.00, 0.00, 0.00, 0.000, 0.000, 0.000, 14:29:02.631
26, -24977.04, 0.00, 0.00, 0.00, 0.00, 0.00, 0.00, 0.00, 0.130, 0.776, 0.404, 14:29:02.631
27, -24961.71, 0.00, 0.00, 0.00, 0.00, 0.00, 0.00, 0.00, 0.000, 0.000, 0.000, 14:29:02.631
28, -24958.18, 0.00, 0.00, 0.00, 0.00, 0.00, 0.00, 0.00, 0.000, 0.000, 0.000, 14:29:02.632
29, -24989.38, 0.00, 0.00, 0.00, 0.00, 0.00, 0.00, 0.00, 0.000, 0.000, 0.000, 14:29:02.632
30, -24995.87, 0.00, 0.00, 0.00, 0.00, 0.00, 0.00, 0.00, 0.000, 0.000, 0.000, 14:29:02.632
31, -24981.00, 0.00, 0.00, 0.00, 0.00, 0.00, 0.00, 0.00, 0.000, 0.000, 0.000, 14:29:02.632
32, -24965.38, 0.00, 0.00, 0.00, 0.00, 0.00, 0.00, 0.00, 0.000, 0.000, 0.000, 14:29:02.633
33, -24963.01, 0.00, 0.00, 0.00, 0.00, 0.00, 0.00, 0.00, 0.000, 0.000, 0.000, 14:29:02.633
34, -25000.96, 0.00, 0.00, 0.00, 0.00, 0.00, 0.00, 0.00, 0.000, 0.000, 0.000, 14:29:02.633
35, -24984.49, 0.00, 0.00, 0.00, 0.00, 0.00, 0.00, 0.00, 0.000, 0.000, 0.000, 14:29:02.633
36, -24933.71, 0.00, 0.00, 0.00, 0.00, 0.00, 0.00, 0.00, 0.134, 0.800, 0.452, 14:29:02.633
37, -24943.41, 0.00, 0.00, 0.00, 0.00, 0.00, 0.00, 0.00, 0.000, 0.000, 0.000, 14:29:02.633
38, -24982.90, 0.00, 0.00, 0.00, 0.00, 0.00, 0.00, 0.00, 0.000, 0.000, 0.000, 14:29:02.633
39, -24978.99, 0.00, 0.00, 0.00, 0.00, 0.00, 0.00, 0.00, 0.000, 0.000, 0.000, 14:29:02.633
40, -24959.23, 0.00, 0.00, 0.00, 0.00, 0.00, 0.00, 0.00, 0.000, 0.000, 0.000, 14:29:02.633
41, -24950.89, 0.00, 0.00, 0.00, 0.00, 0.00, 0.00, 0.00, 0.000, 0.000, 0.000, 14:29:02.633
42, -24979.17, 0.00, 0.00, 0.00, 0.00, 0.00, 0.00, 0.00, 0.000, 0.000, 0.000, 14:29:02.633
43, -24981.34, 0.00, 0.00, 0.00, 0.00, 0.00, 0.00, 0.00, 0.000, 0.000, 0.000, 14:29:02.634
44, -24974.14, 0.00, 0.00, 0.00, 0.00, 0.00, 0.00, 0.00, 0.000, 0.000, 0.000, 14:29:02.634
45, -24956.21, 0.00, 0.00, 0.00, 0.00, 0.00, 0.00, 0.00, 0.000, 0.000, 0.000, 14:29:02.634
46, -24951.32, 0.00, 0.00, 0.00, 0.00, 0.00, 0.00, 0.00, 0.134, 0.814, 0.472, 14:29:02.634
47, -24962.14, 0.00, 0.00, 0.00, 0.00, 0.00, 0.00, 0.00, 0.000, 0.000, 0.000, 14:29:02.634
48, -24962.49, 0.00, 0.00, 0.00, 0.00, 0.00, 0.00, 0.00, 0.000, 0.000, 0.000, 14:29:02.634
49, -24943.70, 0.00, 0.00, 0.00, 0.00, 0.00, 0.00, 0.00, 0.000, 0.000, 0.000, 14:29:02.634
50, -24965.27, 0.00, 0.00, 0.00, 0.00, 0.00, 0.00, 0.00, 0.000, 0.000, 0.000, 14:29:02.634
51, -24984.87, 0.00, 0.00, 0.00, 0.00, 0.00, 0.00, 0.00, 0.000, 0.000, 0.000, 14:29:02.634
52, -24999.51, 0.00, 0.00, 0.00, 0.00, 0.00, 0.00, 0.00, 0.000, 0.000, 0.000, 14:29:02.634
53, -24995.44, 0.00, 0.00, 0.00, 0.00, 0.00, 0.00, 0.00, 0.000, 0.000, 0.000, 14:29:02.634
54, -24959.54, 0.00, 0.00, 0.00, 0.00, 0.00, 0.00, 0.00, 0.000, 0.000, 0.000, 14:29:02.634
55, -24988.09, 0.00, 0.00, 0.00, 0.00, 0.00, 0.00, 0.00, 0.000, 0.000, 0.000, 14:29:02.634
56, -24961.78, 0.00, 0.00, 0.00, 0.00, 0.00, 0.00, 0.00, 0.134, 0.824, 0.486, 14:29:02.634
57, -24949.29, 0.00, 0.00, 0.00, 0.00, 0.00, 0.00, 0.00, 0.000, 0.000, 0.000, 14:29:02.635
58, -24972.64, 0.00, 0.00, 0.00, 0.00, 0.00, 0.00, 0.00, 0.000, 0.000, 0.000, 14:29:02.635
59, -24980.33, 0.00, 0.00, 0.00, 0.00, 0.00, 0.00, 0.00, 0.000, 0.000, 0.000, 14:29:02.635
60, -24983.13, 0.00, 0.00, 0.00, 0.00, 0.00, 0.00, 0.00, 0.000, 0.000, 0.000, 14:29:02.635
61, -24975.99, 0.00, 0.00, 0.00, 0.00, 0.00, 0.00, 0.00, 0.000, 0.000, 0.000, 14:29:02.635
62, -24973.96, 0.00, 0.00, 0.00, 0.00, 0.00, 0.00, 0.00, 0.000, 0.000, 0.000, 14:29:02.635
63, -24953.04, 0.00, 0.00, 0.00, 0.00, 0.00, 0.00, 0.00, 0.000, 0.000, 0.000, 14:29:02.636
64, -24965.89, 0.00, 0.00, 0.00, 0.00, 0.00, 0.00, 0.00, 0.000, 0.000, 0.000, 14:29:02.636
65, -24960.10, 0.00, 0.00, 0.00, 0.00, 0.00, 0.00, 0.00, 0.000, 0.000, 0.000, 14:29:02.636
66, -24967.57, 0.00, 0.00, 0.00, 0.00, 0.00, 0.00, 0.00, 0.136, 0.824, 0.488, 14:29:02.636
67, -24982.16, 0.00, 0.00, 0.00, 0.00, 0.00, 0.00, 0.00, 0.000, 0.000, 0.000, 14:29:02.636
68, -24992.09, 0.00, 0.00, 0.00, 0.00, 0.00, 0.00, 0.00, 0.000, 0.000, 0.000, 14:29:02.637
69, -24977.56, 0.00, 0.00, 0.00, 0.00, 0.00, 0.00, 0.00, 0.000, 0.000, 0.000, 14:29:02.637
70, -24956.41, 0.00, 0.00, 0.00, 0.00, 0.00, 0.00, 0.00, 0.000, 0.000, 0.000, 14:29:02.637
71, -24961.31, 0.00, 0.00, 0.00, 0.00, 0.00, 0.00, 0.00, 0.000, 0.000, 0.000, 14:29:02.637
72, -24997.83, 0.00, 0.00, 0.00, 0.00, 0.00, 0.00, 0.00, 0.000, 0.000, 0.000, 14:29:02.637
73, -24955.92, 0.00, 0.00, 0.00, 0.00, 0.00, 0.00, 0.00, 0.000, 0.000, 0.000, 14:29:02.637
74, -24933.79, 0.00, 0.00, 0.00, 0.00, 0.00, 0.00, 0.00, 0.000, 0.000, 0.000, 14:29:02.637
75, -24950.96, 0.00, 0.00, 0.00, 0.00, 0.00, 0.00, 0.00, 0.000, 0.000, 0.000, 14:29:02.637
76, -24981.85, 0.00, 0.00, 0.00, 0.00, 0.00, 0.00, 0.00, 0.136, 0.820, 0.490, 14:29:02.637
77, -24988.96, 0.00, 0.00, 0.00, 0.00, 0.00, 0.00, 0.00, 0.000, 0.000, 0.000, 14:29:02.637
78, -24973.74, 0.00, 0.00, 0.00, 0.00, 0.00, 0.00, 0.00, 0.000, 0.000, 0.000, 14:29:02.637
79, -24982.37, 0.00, 0.00, 0.00, 0.00, 0.00, 0.00, 0.00, 0.000, 0.000, 0.000, 14:29:02.637
80, -24983.57, 0.00, 0.00, 0.00, 0.00, 0.00, 0.00, 0.00, 0.000, 0.000, 0.000, 14:29:02.638
81, -24995.04, 0.00, 0.00, 0.00, 0.00, 0.00, 0.00, 0.00, 0.000, 0.000, 0.000, 14:29:02.638
82, -24960.77, 0.00, 0.00, 0.00, 0.00, 0.00, 0.00, 0.00, 0.000, 0.000, 0.000, 14:29:02.638
83, -24972.84, 0.00, 0.00, 0.00, 0.00, 0.00, 0.00, 0.00, 0.000, 0.000, 0.000, 14:29:02.638
84, -24970.94, 0.00, 0.00, 0.00, 0.00, 0.00, 0.00, 0.00, 0.000, 0.000, 0.000, 14:29:02.638
85, -24977.54, 0.00, 0.00, 0.00, 0.00, 0.00, 0.00, 0.00, 0.000, 0.000, 0.000, 14:29:02.638
86, -24974.72, 0.00, 0.00, 0.00, 0.00, 0.00, 0.00, 0.00, 0.130, 0.824, 0.486, 14:29:02.638
87, -24965.31, 0.00, 0.00, 0.00, 0.00, 0.00, 0.00, 0.00, 0.000, 0.000, 0.000, 14:29:02.638
88, -24968.44, 0.00, 0.00, 0.00, 0.00, 0.00, 0.00, 0.00, 0.000, 0.000, 0.000, 14:29:02.638
89, -24982.07, 0.00, 0.00, 0.00, 0.00, 0.00, 0.00, 0.00, 0.000, 0.000, 0.000, 14:29:02.638
90, -24972.96, 0.00, 0.00, 0.00, 0.00, 0.00, 0.00, 0.00, 0.000, 0.000, 0.000, 14:29:02.641
91, -24963.12, 0.00, 0.00, 0.00, 0.00, 0.00, 0.00, 0.00, 0.000, 0.000, 0.000, 14:29:02.641
92, -24953.24, 0.00, 0.00, 0.00, 0.00, 0.00, 0.00, 0.00, 0.000, 0.000, 0.000, 14:29:02.641
93, -24949.62, 0.00, 0.00, 0.00, 0.00, 0.00, 0.00, 0.00, 0.000, 0.000, 0.000, 14:29:02.642
94, -24963.01, 0.00, 0.00, 0.00, 0.00, 0.00, 0.00, 0.00, 0.000, 0.000, 0.000, 14:29:02.642
95, -24956.50, 0.00, 0.00, 0.00, 0.00, 0.00, 0.00, 0.00, 0.000, 0.000, 0.000, 14:29:02.642
96, -24959.39, 0.00, 0.00, 0.00, 0.00, 0.00, 0.00, 0.00, 0.132, 0.824, 0.492, 14:29:02.642
97, -24973.85, 0.00, 0.00, 0.00, 0.00, 0.00, 0.00, 0.00, 0.000, 0.000, 0.000, 14:29:02.642
98, -24996.65, 0.00, 0.00, 0.00, 0.00, 0.00, 0.00, 0.00, 0.000, 0.000, 0.000, 14:29:02.642
99, -24953.35, 0.00, 0.00, 0.00, 0.00, 0.00, 0.00, 0.00, 0.000, 0.000, 0.000, 14:29:02.642
100, -24964.13, 0.00, 0.00, 0.00, 0.00, 0.00, 0.00, 0.00, 0.000, 0.000, 0.000, 14:29:02.642
101, -25000.94, 0.00, 0.00, 0.00, 0.00, 0.00, 0.00, 0.00, 0.000, 0.000, 0.000, 14:29:02.642
102, -24966.92, 0.00, 0.00, 0.00, 0.00, 0.00, 0.00, 0.00, 0.000, 0.000, 0.000, 14:29:02.642
103, -24962.96, 0.00, 0.00, 0.00, 0.00, 0.00, 0.00, 0.00, 0.000, 0.000, 0.000, 14:29:02.642
104, -24947.70, 0.00, 0.00, 0.00, 0.00, 0.00, 0.00, 0.00, 0.000, 0.000, 0.000, 14:29:02.642
105, -24960.28, 0.00, 0.00, 0.00, 0.00, 0.00, 0.00, 0.00, 0.000, 0.000, 0.000, 14:29:02.642
106, -24965.18, 0.00, 0.00, 0.00, 0.00, 0.00, 0.00, 0.00, 0.136, 0.824, 0.496, 14:29:02.642
107, -24970.52, 0.00, 0.00, 0.00, 0.00, 0.00, 0.00, 0.00, 0.000, 0.000, 0.000, 14:29:02.643
108, -24958.22, 0.00, 0.00, 0.00, 0.00, 0.00, 0.00, 0.00, 0.000, 0.000, 0.000, 14:29:02.643
109, -24955.07, 0.00, 0.00, 0.00, 0.00, 0.00, 0.00, 0.00, 0.000, 0.000, 0.000, 14:29:02.643
110, -24963.05, 0.00, 0.00, 0.00, 0.00, 0.00, 0.00, 0.00, 0.000, 0.000, 0.000, 14:29:02.643
111, -24965.42, 0.00, 0.00, 0.00, 0.00, 0.00, 0.00, 0.00, 0.000, 0.000, 0.000, 14:29:02.643
112, -24979.39, 0.00, 0.00, 0.00, 0.00, 0.00, 0.00, 0.00, 0.000, 0.000, 0.000, 14:29:02.643
113, -24979.46, 0.00, 0.00, 0.00, 0.00, 0.00, 0.00, 0.00, 0.000, 0.000, 0.000, 14:29:02.643
114, -24981.18, 0.00, 0.00, 0.00, 0.00, 0.00, 0.00, 0.00, 0.000, 0.000, 0.000, 14:29:02.643
115, -24964.30, 0.00, 0.00, 0.00, 0.00, 0.00, 0.00, 0.00, 0.000, 0.000, 0.000, 14:29:02.643
116, -24952.46, 0.00, 0.00, 0.00, 0.00, 0.00, 0.00, 0.00, 0.138, 0.822, 0.492, 14:29:02.643
117, -24965.36, 0.00, 0.00, 0.00, 0.00, 0.00, 0.00, 0.00, 0.000, 0.000, 0.000, 14:29:02.643
118, -24970.16, 0.00, 0.00, 0.00, 0.00, 0.00, 0.00, 0.00, 0.000, 0.000, 0.000, 14:29:02.643
119, -24960.53, 0.00, 0.00, 0.00, 0.00, 0.00, 0.00, 0.00, 0.000, 0.000, 0.000, 14:29:02.643
120, -24954.09, 0.00, 0.00, 0.00, 0.00, 0.00, 0.00, 0.00, 0.000, 0.000, 0.000, 14:29:03.109
121, -24958.16, 0.00, 0.00, 0.00, 0.00, 0.00, 0.00, 0.00, 0.000, 0.000, 0.000, 14:29:03.109
122, -24980.89, 0.00, 0.00, 0.00, 0.00, 0.00, 0.00, 0.00, 0.000, 0.000, 0.000, 14:29:03.109
123, -24969.00, 0.00, 0.00, 0.00, 0.00, 0.00, 0.00, 0.00, 0.000, 0.000, 0.000, 14:29:03.109
124, -24933.95, 0.00, 0.00, 0.00, 0.00, 0.00, 0.00, 0.00, 0.000, 0.000, 0.000, 14:29:03.122
125, -24949.73, 0.00, 0.00, 0.00, 0.00, 0.00, 0.00, 0.00, 0.136, 0.826, 0.490, 14:29:03.122
126, -24969.47, 0.00, 0.00, 0.00, 0.00, 0.00, 0.00, 0.00, 0.000, 0.000, 0.000, 14:29:03.122
127, -24974.47, 0.00, 0.00, 0.00, 0.00, 0.00, 0.00, 0.00, 0.000, 0.000, 0.000, 14:29:03.122
128, -24967.32, 0.00, 0.00, 0.00, 0.00, 0.00, 0.00, 0.00, 0.000, 0.000, 0.000, 14:29:03.122
129, -24957.67, 0.00, 0.00, 0.00, 0.00, 0.00, 0.00, 0.00, 0.000, 0.000, 0.000, 14:29:03.122
130, -24980.91, 0.00, 0.00, 0.00, 0.00, 0.00, 0.00, 0.00, 0.000, 0.000, 0.000, 14:29:03.123
131, -24981.34, 0.00, 0.00, 0.00, 0.00, 0.00, 0.00, 0.00, 0.000, 0.000, 0.000, 14:29:03.123
132, -24971.23, 0.00, 0.00, 0.00, 0.00, 0.00, 0.00, 0.00, 0.000, 0.000, 0.000, 14:29:03.123
133, -24959.32, 0.00, 0.00, 0.00, 0.00, 0.00, 0.00, 0.00, 0.000, 0.000, 0.000, 14:29:03.123
134, -24963.46, 0.00, 0.00, 0.00, 0.00, 0.00, 0.00, 0.00, 0.000, 0.000, 0.000, 14:29:03.123
135, -24969.63, 0.00, 0.00, 0.00, 0.00, 0.00, 0.00, 0.00, 0.132, 0.826, 0.496, 14:29:03.123
136, -24954.09, 0.00, 0.00, 0.00, 0.00, 0.00, 0.00, 0.00, 0.000, 0.000, 0.000, 14:29:03.124
137, -24948.70, 0.00, 0.00, 0.00, 0.00, 0.00, 0.00, 0.00, 0.000, 0.000, 0.000, 14:29:03.124
138, -24963.81, 0.00, 0.00, 0.00, 0.00, 0.00, 0.00, 0.00, 0.000, 0.000, 0.000, 14:29:03.124
139, -24976.62, 0.00, 0.00, 0.00, 0.00, 0.00, 0.00, 0.00, 0.000, 0.000, 0.000, 14:29:03.124
140, -24979.04, 0.00, 0.00, 0.00, 0.00, 0.00, 0.00, 0.00, 0.000, 0.000, 0.000, 14:29:03.124
141, -24962.00, 0.00, 0.00, 0.00, 0.00, 0.00, 0.00, 0.00, 0.000, 0.000, 0.000, 14:29:03.124
142, -24976.38, 0.00, 0.00, 0.00, 0.00, 0.00, 0.00, 0.00, 0.000, 0.000, 0.000, 14:29:03.125
143, -24980.29, 0.00, 0.00, 0.00, 0.00, 0.00, 0.00, 0.00, 0.000, 0.000, 0.000, 14:29:03.125
144, -24965.65, 0.00, 0.00, 0.00, 0.00, 0.00, 0.00, 0.00, 0.000, 0.000, 0.000, 14:29:03.125
145, -24942.91, 0.00, 0.00, 0.00, 0.00, 0.00, 0.00, 0.00, 0.138, 0.828, 0.492, 14:29:03.125
146, -24955.03, 0.00, 0.00, 0.00, 0.00, 0.00, 0.00, 0.00, 0.000, 0.000, 0.000, 14:29:03.125
147, -24975.23, 0.00, 0.00, 0.00, 0.00, 0.00, 0.00, 0.00, 0.000, 0.000, 0.000, 14:29:03.125
148, -24974.03, 0.00, 0.00, 0.00, 0.00, 0.00, 0.00, 0.00, 0.000, 0.000, 0.000, 14:29:03.125
149, -24950.92, 0.00, 0.00, 0.00, 0.00, 0.00, 0.00, 0.00, 0.000, 0.000, 0.000, 14:29:03.125
150, -24957.24, 0.00, 0.00, 0.00, 0.00, 0.00, 0.00, 0.00, 0.000, 0.000, 0.000, 14:29:03.126
151, -24965.71, 0.00, 0.00, 0.00, 0.00, 0.00, 0.00, 0.00, 0.000, 0.000, 0.000, 14:29:03.126
152, -24960.24, 0.00, 0.00, 0.00, 0.00, 0.00, 0.00, 0.00, 0.000, 0.000, 0.000, 14:29:03.126
153, -24950.94, 0.00, 0.00, 0.00, 0.00, 0.00, 0.00, 0.00, 0.000, 0.000, 0.000, 14:29:03.126
154, -24962.14, 0.00, 0.00, 0.00, 0.00, 0.00, 0.00, 0.00, 0.000, 0.000, 0.000, 14:29:03.126
155, -24964.73, 0.00, 0.00, 0.00, 0.00, 0.00, 0.00, 0.00, 0.138, 0.826, 0.494, 14:29:03.126
156, -24950.89, 0.00, 0.00, 0.00, 0.00, 0.00, 0.00, 0.00, 0.000, 0.000, 0.000, 14:29:03.126
157, -24944.10, 0.00, 0.00, 0.00, 0.00, 0.00, 0.00, 0.00, 0.000, 0.000, 0.000, 14:29:03.127
158, -24940.84, 0.00, 0.00, 0.00, 0.00, 0.00, 0.00, 0.00, 0.000, 0.000, 0.000, 14:29:03.127
159, -24965.09, 0.00, 0.00, 0.00, 0.00, 0.00, 0.00, 0.00, 0.000, 0.000, 0.000, 14:29:03.127
160, -24970.41, 0.00, 0.00, 0.00, 0.00, 0.00, 0.00, 0.00, 0.000, 0.000, 0.000, 14:29:03.127
161, -24954.43, 0.00, 0.00, 0.00, 0.00, 0.00, 0.00, 0.00, 0.000, 0.000, 0.000, 14:29:03.127
162, -24956.88, 0.00, 0.00, 0.00, 0.00, 0.00, 0.00, 0.00, 0.000, 0.000, 0.000, 14:29:03.127
163, -24961.80, 0.00, 0.00, 0.00, 0.00, 0.00, 0.00, 0.00, 0.000, 0.000, 0.000, 14:29:03.127
164, -24969.49, 0.00, 0.00, 0.00, 0.00, 0.00, 0.00, 0.00, 0.000, 0.000, 0.000, 14:29:03.127
165, -24950.87, 0.00, 0.00, 0.00, 0.00, 0.00, 0.00, 0.00, 0.136, 0.822, 0.490, 14:29:03.127
166, -24945.60, 0.00, 0.00, 0.00, 0.00, 0.00, 0.00, 0.00, 0.000, 0.000, 0.000, 14:29:03.128
167, -24956.71, 0.00, 0.00, 0.00, 0.00, 0.00, 0.00, 0.00, 0.000, 0.000, 0.000, 14:29:03.128
168, -24986.37, 0.00, 0.00, 0.00, 0.00, 0.00, 0.00, 0.00, 0.000, 0.000, 0.000, 14:29:03.128
169, -24955.19, 0.00, 0.00, 0.00, 0.00, 0.00, 0.00, 0.00, 0.000, 0.000, 0.000, 14:29:03.128
170, -24955.36, 0.00, 0.00, 0.00, 0.00, 0.00, 0.00, 0.00, 0.000, 0.000, 0.000, 14:29:03.128
171, -24968.35, 0.00, 0.00, 0.00, 0.00, 0.00, 0.00, 0.00, 0.000, 0.000, 0.000, 14:29:03.128
172, -24954.25, 0.00, 0.00, 0.00, 0.00, 0.00, 0.00, 0.00, 0.000, 0.000, 0.000, 14:29:03.128
173, -24951.74, 0.00, 0.00, 0.00, 0.00, 0.00, 0.00, 0.00, 0.000, 0.000, 0.000, 14:29:03.128
174, -24959.16, 0.00, 0.00, 0.00, 0.00, 0.00, 0.00, 0.00, 0.000, 0.000, 0.000, 14:29:03.128
175, -24965.49, 0.00, 0.00, 0.00, 0.00, 0.00, 0.00, 0.00, 0.132, 0.824, 0.496, 14:29:03.129
176, -24941.82, 0.00, 0.00, 0.00, 0.00, 0.00, 0.00, 0.00, 0.000, 0.000, 0.000, 14:29:03.129
177, -24960.10, 0.00, 0.00, 0.00, 0.00, 0.00, 0.00, 0.00, 0.000, 0.000, 0.000, 14:29:03.129
178, -24959.12, 0.00, 0.00, 0.00, 0.00, 0.00, 0.00, 0.00, 0.000, 0.000, 0.000, 14:29:03.129
179, -24944.41, 0.00, 0.00, 0.00, 0.00, 0.00, 0.00, 0.00, 0.000, 0.000, 0.000, 14:29:03.129
180, -24969.45, 0.00, 0.00, 0.00, 0.00, 0.00, 0.00, 0.00, 0.000, 0.000, 0.000, 14:29:03.130
181, -24969.65, 0.00, 0.00, 0.00, 0.00, 0.00, 0.00, 0.00, 0.000, 0.000, 0.000, 14:29:03.130
182, -24947.79, 0.00, 0.00, 0.00, 0.00, 0.00, 0.00, 0.00, 0.000, 0.000, 0.000, 14:29:03.130
183, -24942.51, 0.00, 0.00, 0.00, 0.00, 0.00, 0.00, 0.00, 0.000, 0.000, 0.000, 14:29:03.130
184, -24946.74, 0.00, 0.00, 0.00, 0.00, 0.00, 0.00, 0.00, 0.000, 0.000, 0.000, 14:29:03.130
185, -24974.97, 0.00, 0.00, 0.00, 0.00, 0.00, 0.00, 0.00, 0.130, 0.824, 0.498, 14:29:03.130
186, -24980.71, 0.00, 0.00, 0.00, 0.00, 0.00, 0.00, 0.00, 0.000, 0.000, 0.000, 14:29:03.130
187, -24946.92, 0.00, 0.00, 0.00, 0.00, 0.00, 0.00, 0.00, 0.000, 0.000, 0.000, 14:29:03.131
188, -24962.61, 0.00, 0.00, 0.00, 0.00, 0.00, 0.00, 0.00, 0.000, 0.000, 0.000, 14:29:03.131
189, -24977.83, 0.00, 0.00, 0.00, 0.00, 0.00, 0.00, 0.00, 0.000, 0.000, 0.000, 14:29:03.131
190, -24948.26, 0.00, 0.00, 0.00, 0.00, 0.00, 0.00, 0.00, 0.000, 0.000, 0.000, 14:29:03.131
191, -24933.57, 0.00, 0.00, 0.00, 0.00, 0.00, 0.00, 0.00, 0.000, 0.000, 0.000, 14:29:03.131
192, -24953.51, 0.00, 0.00, 0.00, 0.00, 0.00, 0.00, 0.00, 0.000, 0.000, 0.000, 14:29:03.131
193, -24973.18, 0.00, 0.00, 0.00, 0.00, 0.00, 0.00, 0.00, 0.000, 0.000, 0.000, 14:29:03.131
194, -24961.78, 0.00, 0.00, 0.00, 0.00, 0.00, 0.00, 0.00, 0.000, 0.000, 0.000, 14:29:03.132
195, -24958.98, 0.00, 0.00, 0.00, 0.00, 0.00, 0.00, 0.00, 0.130, 0.828, 0.490, 14:29:03.132
196, -24945.39, 0.00, 0.00, 0.00, 0.00, 0.00, 0.00, 0.00, 0.000, 0.000, 0.000, 14:29:03.132
197, -24969.69, 0.00, 0.00, 0.00, 0.00, 0.00, 0.00, 0.00, 0.000, 0.000, 0.000, 14:29:03.132
198, -24981.47, 0.00, 0.00, 0.00, 0.00, 0.00, 0.00, 0.00, 0.000, 0.000, 0.000, 14:29:03.132
199, -24965.58, 0.00, 0.00, 0.00, 0.00, 0.00, 0.00, 0.00, 0.000, 0.000, 0.000, 14:29:03.132
200, -24958.25, 0.00, 0.00, 0.00, 0.00, 0.00, 0.00, 0.00, 0.000, 0.000, 0.000, 14:29:03.132
201, -24961.55, 0.00, 0.00, 0.00, 0.00, 0.00, 0.00, 0.00, 0.000, 0.000, 0.000, 14:29:03.132
202, -24963.59, 0.00, 0.00, 0.00, 0.00, 0.00, 0.00, 0.00, 0.000, 0.000, 0.000, 14:29:03.132
203, -24937.48, 0.00, 0.00, 0.00, 0.00, 0.00, 0.00, 0.00, 0.000, 0.000, 0.000, 14:29:03.133
204, -24941.64, 0.00, 0.00, 0.00, 0.00, 0.00, 0.00, 0.00, 0.000, 0.000, 0.000, 14:29:03.133
205, -24976.11, 0.00, 0.00, 0.00, 0.00, 0.00, 0.00, 0.00, 0.136, 0.824, 0.492, 14:29:03.133
206, -24983.53, 0.00, 0.00, 0.00, 0.00, 0.00, 0.00, 0.00, 0.000, 0.000, 0.000, 14:29:03.133
207, -24972.82, 0.00, 0.00, 0.00, 0.00, 0.00, 0.00, 0.00, 0.000, 0.000, 0.000, 14:29:03.133
208, -24970.41, 0.00, 0.00, 0.00, 0.00, 0.00, 0.00, 0.00, 0.000, 0.000, 0.000, 14:29:03.133
209, -24949.04, 0.00, 0.00, 0.00, 0.00, 0.00, 0.00, 0.00, 0.000, 0.000, 0.000, 14:29:03.133
210, -24973.40, 0.00, 0.00, 0.00, 0.00, 0.00, 0.00, 0.00, 0.000, 0.000, 0.000, 14:29:03.133
211, -24951.23, 0.00, 0.00, 0.00, 0.00, 0.00, 0.00, 0.00, 0.000, 0.000, 0.000, 14:29:03.135
212, -24949.44, 0.00, 0.00, 0.00, 0.00, 0.00, 0.00, 0.00, 0.000, 0.000, 0.000, 14:29:03.135
213, -24977.63, 0.00, 0.00, 0.00, 0.00, 0.00, 0.00, 0.00, 0.000, 0.000, 0.000, 14:29:03.135
214, -24984.71, 0.00, 0.00, 0.00, 0.00, 0.00, 0.00, 0.00, 0.000, 0.000, 0.000, 14:29:03.135
215, -24939.63, 0.00, 0.00, 0.00, 0.00, 0.00, 0.00, 0.00, 0.136, 0.826, 0.496, 14:29:03.135
216, -24935.96, 0.00, 0.00, 0.00, 0.00, 0.00, 0.00, 0.00, 0.000, 0.000, 0.000, 14:29:03.135
217, -24966.79, 0.00, 0.00, 0.00, 0.00, 0.00, 0.00, 0.00, 0.000, 0.000, 0.000, 14:29:03.135
218, -24985.38, 0.00, 0.00, 0.00, 0.00, 0.00, 0.00, 0.00, 0.000, 0.000, 0.000, 14:29:03.136
219, -24980.17, 0.00, 0.00, 0.00, 0.00, 0.00, 0.00, 0.00, 0.000, 0.000, 0.000, 14:29:03.136
220, -24957.31, 0.00, 0.00, 0.00, 0.00, 0.00, 0.00, 0.00, 0.000, 0.000, 0.000, 14:29:03.136
221, -24949.73, 0.00, 0.00, 0.00, 0.00, 0.00, 0.00, 0.00, 0.000, 0.000, 0.000, 14:29:03.136
222, -24973.27, 0.00, 0.00, 0.00, 0.00, 0.00, 0.00, 0.00, 0.000, 0.000, 0.000, 14:29:03.136
223, -24970.27, 0.00, 0.00, 0.00, 0.00, 0.00, 0.00, 0.00, 0.000, 0.000, 0.000, 14:29:03.136
224, -24956.97, 0.00, 0.00, 0.00, 0.00, 0.00, 0.00, 0.00, 0.000, 0.000, 0.000, 14:29:03.136
225, -24936.81, 0.00, 0.00, 0.00, 0.00, 0.00, 0.00, 0.00, 0.134, 0.830, 0.496, 14:29:03.136
226, -24978.21, 0.00, 0.00, 0.00, 0.00, 0.00, 0.00, 0.00, 0.000, 0.000, 0.000, 14:29:03.136
227, -24962.27, 0.00, 0.00, 0.00, 0.00, 0.00, 0.00, 0.00, 0.000, 0.000, 0.000, 14:29:03.136
228, -24940.23, 0.00, 0.00, 0.00, 0.00, 0.00, 0.00, 0.00, 0.000, 0.000, 0.000, 14:29:03.136
229, -24949.98, 0.00, 0.00, 0.00, 0.00, 0.00, 0.00, 0.00, 0.000, 0.000, 0.000, 14:29:03.136
230, -24972.51, 0.00, 0.00, 0.00, 0.00, 0.00, 0.00, 0.00, 0.000, 0.000, 0.000, 14:29:03.136
231, -24982.66, 0.00, 0.00, 0.00, 0.00, 0.00, 0.00, 0.00, 0.000, 0.000, 0.000, 14:29:03.136
232, -24961.42, 0.00, 0.00, 0.00, 0.00, 0.00, 0.00, 0.00, 0.000, 0.000, 0.000, 14:29:03.136
233, -24936.88, 0.00, 0.00, 0.00, 0.00, 0.00, 0.00, 0.00, 0.000, 0.000, 0.000, 14:29:03.137
234, -24947.54, 0.00, 0.00, 0.00, 0.00, 0.00, 0.00, 0.00, 0.130, 0.830, 0.498, 14:29:03.137
235, -24974.23, 0.00, 0.00, 0.00, 0.00, 0.00, 0.00, 0.00, 0.000, 0.000, 0.000, 14:29:03.137
236, -24972.53, 0.00, 0.00, 0.00, 0.00, 0.00, 0.00, 0.00, 0.000, 0.000, 0.000, 14:29:03.137
237, -24956.50, 0.00, 0.00, 0.00, 0.00, 0.00, 0.00, 0.00, 0.000, 0.000, 0.000, 14:29:03.137
238, -24956.26, 0.00, 0.00, 0.00, 0.00, 0.00, 0.00, 0.00, 0.000, 0.000, 0.000, 14:29:03.137
239, -24986.19, 0.00, 0.00, 0.00, 0.00, 0.00, 0.00, 0.00, 0.000, 0.000, 0.000, 14:29:03.137
240, -24976.11, 0.00, 0.00, 0.00, 0.00, 0.00, 0.00, 0.00, 0.000, 0.000, 0.000, 14:29:03.588
241, -24938.85, 0.00, 0.00, 0.00, 0.00, 0.00, 0.00, 0.00, 0.000, 0.000, 0.000, 14:29:03.588
242, -24955.48, 0.00, 0.00, 0.00, 0.00, 0.00, 0.00, 0.00, 0.000, 0.000, 0.000, 14:29:03.588
243, -24987.37, 0.00, 0.00, 0.00, 0.00, 0.00, 0.00, 0.00, 0.000, 0.000, 0.000, 14:29:03.588
244, -24994.97, 0.00, 0.00, 0.00, 0.00, 0.00, 0.00, 0.00, 0.134, 0.824, 0.500, 14:29:03.589
245, -24943.76, 0.00, 0.00, 0.00, 0.00, 0.00, 0.00, 0.00, 0.000, 0.000, 0.000, 14:29:03.589
246, -24941.55, 0.00, 0.00, 0.00, 0.00, 0.00, 0.00, 0.00, 0.000, 0.000, 0.000, 14:29:03.589
247, -24968.60, 0.00, 0.00, 0.00, 0.00, 0.00, 0.00, 0.00, 0.000, 0.000, 0.000, 14:29:03.589
248, -24962.45, 0.00, 0.00, 0.00, 0.00, 0.00, 0.00, 0.00, 0.000, 0.000, 0.000, 14:29:03.589
249, -24953.62, 0.00, 0.00, 0.00, 0.00, 0.00, 0.00, 0.00, 0.000, 0.000, 0.000, 14:29:03.589
250, -24967.77, 0.00, 0.00, 0.00, 0.00, 0.00, 0.00, 0.00, 0.000, 0.000, 0.000, 14:29:03.589
251, -24975.50, 0.00, 0.00, 0.00, 0.00, 0.00, 0.00, 0.00, 0.000, 0.000, 0.000, 14:29:03.589
252, -24985.12, 0.00, 0.00, 0.00, 0.00, 0.00, 0.00, 0.00, 0.000, 0.000, 0.000, 14:29:03.589
253, -24969.40, 0.00, 0.00, 0.00, 0.00, 0.00, 0.00, 0.00, 0.000, 0.000, 0.000, 14:29:03.589
254, -24939.45, 0.00, 0.00, 0.00, 0.00, 0.00, 0.00, 0.00, 0.134, 0.824, 0.492, 14:29:03.589
255, -24971.35, 0.00, 0.00, 0.00, 0.00, 0.00, 0.00, 0.00, 0.000, 0.000, 0.000, 14:29:03.589
0, -24987.93, 0.00, 0.00, 0.00, 0.00, 0.00, 0.00, 0.00, 0.000, 0.000, 0.000, 14:29:03.590
1, -24955.90, 0.00, 0.00, 0.00, 0.00, 0.00, 0.00, 0.00, 0.000, 0.000, 0.000, 14:29:03.590
2, -24961.69, 0.00, 0.00, 0.00, 0.00, 0.00, 0.00, 0.00, 0.000, 0.000, 0.000, 14:29:03.590
3, -24984.29, 0.00, 0.00, 0.00, 0.00, 0.00, 0.00, 0.00, 0.000, 0.000, 0.000, 14:29:03.598
4, -24955.74, 0.00, 0.00, 0.00, 0.00, 0.00, 0.00, 0.00, 0.000, 0.000, 0.000, 14:29:03.598
5, -24958.31, 0.00, 0.00, 0.00, 0.00, 0.00, 0.00, 0.00, 0.000, 0.000, 0.000, 14:29:03.599
6, -24942.24, 0.00, 0.00, 0.00, 0.00, 0.00, 0.00, 0.00, 0.000, 0.000, 0.000, 14:29:03.599
7, -24959.59, 0.00, 0.00, 0.00, 0.00, 0.00, 0.00, 0.00, 0.000, 0.000, 0.000, 14:29:03.599
8, -24964.53, 0.00, 0.00, 0.00, 0.00, 0.00, 0.00, 0.00, 0.138, 0.818, 0.498, 14:29:03.599
9, -24957.96, 0.00, 0.00, 0.00, 0.00, 0.00, 0.00, 0.00, 0.000, 0.000, 0.000, 14:29:03.599
10, -24950.13, 0.00, 0.00, 0.00, 0.00, 0.00, 0.00, 0.00, 0.000, 0.000, 0.000, 14:29:03.599
11, -24945.06, 0.00, 0.00, 0.00, 0.00, 0.00, 0.00, 0.00, 0.000, 0.000, 0.000, 14:29:03.599
12, -24972.44, 0.00, 0.00, 0.00, 0.00, 0.00, 0.00, 0.00, 0.000, 0.000, 0.000, 14:29:03.599
13, -24992.78, 0.00, 0.00, 0.00, 0.00, 0.00, 0.00, 0.00, 0.000, 0.000, 0.000, 14:29:03.599
14, -24960.62, 0.00, 0.00, 0.00, 0.00, 0.00, 0.00, 0.00, 0.000, 0.000, 0.000, 14:29:03.600
15, -24949.64, 0.00, 0.00, 0.00, 0.00, 0.00, 0.00, 0.00, 0.000, 0.000, 0.000, 14:29:03.600
16, -24967.14, 0.00, 0.00, 0.00, 0.00, 0.00, 0.00, 0.00, 0.000, 0.000, 0.000, 14:29:03.600
17, -24968.73, 0.00, 0.00, 0.00, 0.00, 0.00, 0.00, 0.00, 0.000, 0.000, 0.000, 14:29:03.600
18, -24967.05, 0.00, 0.00, 0.00, 0.00, 0.00, 0.00, 0.00, 0.134, 0.824, 0.496, 14:29:03.600
19, -24946.47, 0.00, 0.00, 0.00, 0.00, 0.00, 0.00, 0.00, 0.000, 0.000, 0.000, 14:29:03.600
20, -24977.09, 0.00, 0.00, 0.00, 0.00, 0.00, 0.00, 0.00, 0.000, 0.000, 0.000, 14:29:03.600
21, -24993.34, 0.00, 0.00, 0.00, 0.00, 0.00, 0.00, 0.00, 0.000, 0.000, 0.000, 14:29:03.600
22, -24946.58, 0.00, 0.00, 0.00, 0.00, 0.00, 0.00, 0.00, 0.000, 0.000, 0.000, 14:29:03.600
23, -24957.22, 0.00, 0.00, 0.00, 0.00, 0.00, 0.00, 0.00, 0.000, 0.000, 0.000, 14:29:03.600
24, -24970.52, 0.00, 0.00, 0.00, 0.00, 0.00, 0.00, 0.00, 0.000, 0.000, 0.000, 14:29:03.600
25, -24969.67, 0.00, 0.00, 0.00, 0.00, 0.00, 0.00, 0.00, 0.000, 0.000, 0.000, 14:29:03.601
26, -24967.17, 0.00, 0.00, 0.00, 0.00, 0.00, 0.00, 0.00, 0.000, 0.000, 0.000, 14:29:03.601
27, -24949.40, 0.00, 0.00, 0.00, 0.00, 0.00, 0.00, 0.00, 0.000, 0.000, 0.000, 14:29:03.601
28, -24966.88, 0.00, 0.00, 0.00, 0.00, 0.00, 0.00, 0.00, 0.138, 0.828, 0.498, 14:29:03.601
29, -24987.84, 0.00, 0.00, 0.00, 0.00, 0.00, 0.00, 0.00, 0.000, 0.000, 0.000, 14:29:03.601
30, -24965.94, 0.00, 0.00, 0.00, 0.00, 0.00, 0.00, 0.00, 0.000, 0.000, 0.000, 14:29:03.601
31, -24954.40, 0.00, 0.00, 0.00, 0.00, 0.00, 0.00, 0.00, 0.000, 0.000, 0.000, 14:29:03.601
32, -24965.04, 0.00, 0.00, 0.00, 0.00, 0.00, 0.00, 0.00, 0.000, 0.000, 0.000, 14:29:03.601
33, -24983.48, 0.00, 0.00, 0.00, 0.00, 0.00, 0.00, 0.00, 0.000, 0.000, 0.000, 14:29:03.601
34, -24951.23, 0.00, 0.00, 0.00, 0.00, 0.00, 0.00, 0.00, 0.000, 0.000, 0.000, 14:29:03.601
35, -24925.97, 0.00, 0.00, 0.00, 0.00, 0.00, 0.00, 0.00, 0.000, 0.000, 0.000, 14:29:03.601
36, -24958.22, 0.00, 0.00, 0.00, 0.00, 0.00, 0.00, 0.00, 0.000, 0.000, 0.000, 14:29:03.601
37, -24991.35, 0.00, 0.00, 0.00, 0.00, 0.00, 0.00, 0.00, 0.000, 0.000, 0.000, 14:29:03.601
38, -24983.62, 0.00, 0.00, 0.00, 0.00, 0.00, 0.00, 0.00, 0.140, 0.822, 0.496, 14:29:03.601
39, -24936.37, 0.00, 0.00, 0.00, 0.00, 0.00, 0.00, 0.00, 0.000, 0.000, 0.000, 14:29:03.602
40, -24930.06, 0.00, 0.00, 0.00, 0.00, 0.00, 0.00, 0.00, 0.000, 0.000, 0.000, 14:29:03.602
41, -24969.51, 0.00, 0.00, 0.00, 0.00, 0.00, 0.00, 0.00, 0.000, 0.000, 0.000, 14:29:03.602
42, -25011.73, 0.00, 0.00, 0.00, 0.00, 0.00, 0.00, 0.00, 0.000, 0.000, 0.000, 14:29:03.602
43, -24952.71, 0.00, 0.00, 0.00, 0.00, 0.00, 0.00, 0.00, 0.000, 0.000, 0.000, 14:29:03.602
44, -24934.98, 0.00, 0.00, 0.00, 0.00, 0.00, 0.00, 0.00, 0.000, 0.000, 0.000, 14:29:03.602
45, -24954.22, 0.00, 0.00, 0.00, 0.00, 0.00, 0.00, 0.00, 0.000, 0.000, 0.000, 14:29:03.602
46, -24981.02, 0.00, 0.00, 0.00, 0.00, 0.00, 0.00, 0.00, 0.000, 0.000, 0.000, 14:29:03.602
47, -24965.91, 0.00, 0.00, 0.00, 0.00, 0.00, 0.00, 0.00, 0.000, 0.000, 0.000, 14:29:03.602
48, -24960.97, 0.00, 0.00, 0.00, 0.00, 0.00, 0.00, 0.00, 0.136, 0.830, 0.500, 14:29:03.602
49, -24957.64, 0.00, 0.00, 0.00, 0.00, 0.00, 0.00, 0.00, 0.000, 0.000, 0.000, 14:29:03.603
50, -24977.58, 0.00, 0.00, 0.00, 0.00, 0.00, 0.00, 0.00, 0.000, 0.000, 0.000, 14:29:03.603
51, -24972.37, 0.00, 0.00, 0.00, 0.00, 0.00, 0.00, 0.00, 0.000, 0.000, 0.000, 14:29:03.603
52, -24949.91, 0.00, 0.00, 0.00, 0.00, 0.00, 0.00, 0.00, 0.000, 0.000, 0.000, 14:29:03.603
53, -24965.22, 0.00, 0.00, 0.00, 0.00, 0.00, 0.00, 0.00, 0.000, 0.000, 0.000, 14:29:03.603
54, -24982.37, 0.00, 0.00, 0.00, 0.00, 0.00, 0.00, 0.00, 0.000, 0.000, 0.000, 14:29:03.603
55, -24962.43, 0.00, 0.00, 0.00, 0.00, 0.00, 0.00, 0.00, 0.000, 0.000, 0.000, 14:29:03.603
56, -24941.44, 0.00, 0.00, 0.00, 0.00, 0.00, 0.00, 0.00, 0.000, 0.000, 0.000, 14:29:03.603
57, -24940.81, 0.00, 0.00, 0.00, 0.00, 0.00, 0.00, 0.00, 0.000, 0.000, 0.000, 14:29:03.603
58, -24985.72, 0.00, 0.00, 0.00, 0.00, 0.00, 0.00, 0.00, 0.134, 0.826, 0.492, 14:29:03.603
59, -24993.36, 0.00, 0.00, 0.00, 0.00, 0.00, 0.00, 0.00, 0.000, 0.000, 0.000, 14:29:03.603
60, -24952.23, 0.00, 0.00, 0.00, 0.00, 0.00, 0.00, 0.00, 0.000, 0.000, 0.000, 14:29:03.603
61, -24952.75, 0.00, 0.00, 0.00, 0.00, 0.00, 0.00, 0.00, 0.000, 0.000, 0.000, 14:29:03.603
62, -24951.38, 0.00, 0.00, 0.00, 0.00, 0.00, 0.00, 0.00, 0.000, 0.000, 0.000, 14:29:03.603
63, -24951.61, 0.00, 0.00, 0.00, 0.00, 0.00, 0.00, 0.00, 0.000, 0.000, 0.000, 14:29:03.604
64, -24962.70, 0.00, 0.00, 0.00, 0.00, 0.00, 0.00, 0.00, 0.000, 0.000, 0.000, 14:29:03.604
65, -24964.13, 0.00, 0.00, 0.00, 0.00, 0.00, 0.00, 0.00, 0.000, 0.000, 0.000, 14:29:03.604
66, -24976.04, 0.00, 0.00, 0.00, 0.00, 0.00, 0.00, 0.00, 0.000, 0.000, 0.000, 14:29:03.604
67, -24970.65, 0.00, 0.00, 0.00, 0.00, 0.00, 0.00, 0.00, 0.000, 0.000, 0.000, 14:29:03.604
68, -24942.49, 0.00, 0.00, 0.00, 0.00, 0.00, 0.00, 0.00, 0.136, 0.826, 0.494, 14:29:03.604
69, -24947.27, 0.00, 0.00, 0.00, 0.00, 0.00, 0.00, 0.00, 0.000, 0.000, 0.000, 14:29:03.604
70, -24974.50, 0.00, 0.00, 0.00, 0.00, 0.00, 0.00, 0.00, 0.000, 0.000, 0.000, 14:29:03.604
71, -24996.54, 0.00, 0.00, 0.00, 0.00, 0.00, 0.00, 0.00, 0.000, 0.000, 0.000, 14:29:03.604
72, -24969.15, 0.00, 0.00, 0.00, 0.00, 0.00, 0.00, 0.00, 0.000, 0.000, 0.000, 14:29:03.604
73, -24946.94, 0.00, 0.00, 0.00, 0.00, 0.00, 0.00, 0.00, 0.000, 0.000, 0.000, 14:29:03.604
74, -24994.64, 0.00, 0.00, 0.00, 0.00, 0.00, 0.00, 0.00, 0.000, 0.000, 0.000, 14:29:03.604
75, -24988.60, 0.00, 0.00, 0.00, 0.00, 0.00, 0.00, 0.00, 0.000, 0.000, 0.000, 14:29:03.605
76, -24975.68, 0.00, 0.00, 0.00, 0.00, 0.00, 0.00, 0.00, 0.000, 0.000, 0.000, 14:29:03.605
77, -24958.94, 0.00, 0.00, 0.00, 0.00, 0.00, 0.00, 0.00, 0.000, 0.000, 0.000, 14:29:03.605
78, -24955.52, 0.00, 0.00, 0.00, 0.00, 0.00, 0.00, 0.00, 0.136, 0.830, 0.492, 14:29:03.606
79, -24980.85, 0.00, 0.00, 0.00, 0.00, 0.00, 0.00, 0.00, 0.000, 0.000, 0.000, 14:29:03.606
80, -24975.08, 0.00, 0.00, 0.00, 0.00, 0.00, 0.00, 0.00, 0.000, 0.000, 0.000, 14:29:03.606
81, -24955.36, 0.00, 0.00, 0.00, 0.00, 0.00, 0.00, 0.00, 0.000, 0.000, 0.000, 14:29:03.606
82, -24979.66, 0.00, 0.00, 0.00, 0.00, 0.00, 0.00, 0.00, 0.000, 0.000, 0.000, 14:29:03.606
83, -24991.89, 0.00, 0.00, 0.00, 0.00, 0.00, 0.00, 0.00, 0.000, 0.000, 0.000, 14:29:03.607
84, -24984.87, 0.00, 0.00, 0.00, 0.00, 0.00, 0.00, 0.00, 0.000, 0.000, 0.000, 14:29:03.607
85, -24963.70, 0.00, 0.00, 0.00, 0.00, 0.00, 0.00, 0.00, 0.000, 0.000, 0.000, 14:29:03.607
86, -24943.90, 0.00, 0.00, 0.00, 0.00, 0.00, 0.00, 0.00, 0.000, 0.000, 0.000, 14:29:03.607
87, -24965.02, 0.00, 0.00, 0.00, 0.00, 0.00, 0.00, 0.00, 0.134, 0.828, 0.494, 14:29:03.607
88, -24990.72, 0.00, 0.00, 0.00, 0.00, 0.00, 0.00, 0.00, 0.000, 0.000, 0.000, 14:29:03.607
89, -24956.46, 0.00, 0.00, 0.00, 0.00, 0.00, 0.00, 0.00, 0.000, 0.000, 0.000, 14:29:03.607
90, -24933.59, 0.00, 0.00, 0.00, 0.00, 0.00, 0.00, 0.00, 0.000, 0.000, 0.000, 14:29:03.607
91, -24952.35, 0.00, 0.00, 0.00, 0.00, 0.00, 0.00, 0.00, 0.000, 0.000, 0.000, 14:29:03.607
92, -24981.56, 0.00, 0.00, 0.00, 0.00, 0.00, 0.00, 0.00, 0.000, 0.000, 0.000, 14:29:03.607
93, -24960.01, 0.00, 0.00, 0.00, 0.00, 0.00, 0.00, 0.00, 0.000, 0.000, 0.000, 14:29:03.608
94, -24953.82, 0.00, 0.00, 0.00, 0.00, 0.00, 0.00, 0.00, 0.000, 0.000, 0.000, 14:29:03.608
95, -24965.94, 0.00, 0.00, 0.00, 0.00, 0.00, 0.00, 0.00, 0.000, 0.000, 0.000, 14:29:03.608
96, -24983.57, 0.00, 0.00, 0.00, 0.00, 0.00, 0.00, 0.00, 0.000, 0.000, 0.000, 14:29:03.608
97, -24969.27, 0.00, 0.00, 0.00, 0.00, 0.00, 0.00, 0.00, 0.136, 0.822, 0.494, 14:29:03.608
98, -24958.70, 0.00, 0.00, 0.00, 0.00, 0.00, 0.00, 0.00, 0.000, 0.000, 0.000, 14:29:03.609
99, -24944.52, 0.00, 0.00, 0.00, 0.00, 0.00, 0.00, 0.00, 0.000, 0.000, 0.000, 14:29:03.609
100, -24977.74, 0.00, 0.00, 0.00, 0.00, 0.00, 0.00, 0.00, 0.000, 0.000, 0.000, 14:29:03.609
101, -24966.54, 0.00, 0.00, 0.00, 0.00, 0.00, 0.00, 0.00, 0.000, 0.000, 0.000, 14:29:03.609
102, -24951.81, 0.00, 0.00, 0.00, 0.00, 0.00, 0.00, 0.00, 0.000, 0.000, 0.000, 14:29:03.609
103, -24970.09, 0.00, 0.00, 0.00, 0.00, 0.00, 0.00, 0.00, 0.000, 0.000, 0.000, 14:29:03.609
104, -24979.15, 0.00, 0.00, 0.00, 0.00, 0.00, 0.00, 0.00, 0.000, 0.000, 0.000, 14:29:04.069
105, -24978.56, 0.00, 0.00, 0.00, 0.00, 0.00, 0.00, 0.00, 0.000, 0.000, 0.000, 14:29:04.070
106, -24966.83, 0.00, 0.00, 0.00, 0.00, 0.00, 0.00, 0.00, 0.000, 0.000, 0.000, 14:29:04.070
107, -24960.91, 0.00, 0.00, 0.00, 0.00, 0.00, 0.00, 0.00, 0.134, 0.830, 0.496, 14:29:04.070
108, -24971.44, 0.00, 0.00, 0.00, 0.00, 0.00, 0.00, 0.00, 0.000, 0.000, 0.000, 14:29:04.070
109, -24993.85, 0.00, 0.00, 0.00, 0.00, 0.00, 0.00, 0.00, 0.000, 0.000, 0.000, 14:29:04.071
110, -24955.39, 0.00, 0.00, 0.00, 0.00, 0.00, 0.00, 0.00, 0.000, 0.000, 0.000, 14:29:04.071
111, -24952.91, 0.00, 0.00, 0.00, 0.00, 0.00, 0.00, 0.00, 0.000, 0.000, 0.000, 14:29:04.071
112, -24971.08, 0.00, 0.00, 0.00, 0.00, 0.00, 0.00, 0.00, 0.000, 0.000, 0.000, 14:29:04.071
113, -24963.63, 0.00, 0.00, 0.00, 0.00, 0.00, 0.00, 0.00, 0.000, 0.000, 0.000, 14:29:04.071
114, -24937.33, 0.00, 0.00, 0.00, 0.00, 0.00, 0.00, 0.00, 0.000, 0.000, 0.000, 14:29:04.072
115, -24938.78, 0.00, 0.00, 0.00, 0.00, 0.00, 0.00, 0.00, 0.000, 0.000, 0.000, 14:29:04.072
116, -24942.42, 0.00, 0.00, 0.00, 0.00, 0.00, 0.00, 0.00, 0.000, 0.000, 0.000, 14:29:04.072
117, -24968.48, 0.00, 0.00, 0.00, 0.00, 0.00, 0.00, 0.00, 0.132, 0.824, 0.496, 14:29:04.072
118, -24957.76, 0.00, 0.00, 0.00, 0.00, 0.00, 0.00, 0.00, 0.000, 0.000, 0.000, 14:29:04.072
119, -24941.21, 0.00, 0.00, 0.00, 0.00, 0.00, 0.00, 0.00, 0.000, 0.000, 0.000, 14:29:04.073
120, -24955.16, 0.00, 0.00, 0.00, 0.00, 0.00, 0.00, 0.00, 0.000, 0.000, 0.000, 14:29:04.073
121, -24988.58, 0.00, 0.00, 0.00, 0.00, 0.00, 0.00, 0.00, 0.000, 0.000, 0.000, 14:29:04.073
122, -24955.21, 0.00, 0.00, 0.00, 0.00, 0.00, 0.00, 0.00, 0.000, 0.000, 0.000, 14:29:04.073
123, -24949.96, 0.00, 0.00, 0.00, 0.00, 0.00, 0.00, 0.00, 0.000, 0.000, 0.000, 14:29:04.074
124, -24973.51, 0.00, 0.00, 0.00, 0.00, 0.00, 0.00, 0.00, 0.000, 0.000, 0.000, 14:29:04.074
125, -24986.43, 0.00, 0.00, 0.00, 0.00, 0.00, 0.00, 0.00, 0.000, 0.000, 0.000, 14:29:04.075
126, -24963.14, 0.00, 0.00, 0.00, 0.00, 0.00, 0.00, 0.00, 0.000, 0.000, 0.000, 14:29:04.075
127, -24948.39, 0.00, 0.00, 0.00, 0.00, 0.00, 0.00, 0.00, 0.130, 0.820, 0.492, 14:29:04.076
128, -24961.15, 0.00, 0.00, 0.00, 0.00, 0.00, 0.00, 0.00, 0.000, 0.000, 0.000, 14:29:04.076
129, -24982.59, 0.00, 0.00, 0.00, 0.00, 0.00, 0.00, 0.00, 0.000, 0.000, 0.000, 14:29:04.076
130, -24969.65, 0.00, 0.00, 0.00, 0.00, 0.00, 0.00, 0.00, 0.000, 0.000, 0.000, 14:29:04.076
131, -24947.25, 0.00, 0.00, 0.00, 0.00, 0.00, 0.00, 0.00, 0.000, 0.000, 0.000, 14:29:04.077
132, -24943.09, 0.00, 0.00, 0.00, 0.00, 0.00, 0.00, 0.00, 0.000, 0.000, 0.000, 14:29:04.077
133, -24966.79, 0.00, 0.00, 0.00, 0.00, 0.00, 0.00, 0.00, 0.000, 0.000, 0.000, 14:29:04.077
134, -24986.66, 0.00, 0.00, 0.00, 0.00, 0.00, 0.00, 0.00, 0.000, 0.000, 0.000, 14:29:04.077
135, -24955.52, 0.00, 0.00, 0.00, 0.00, 0.00, 0.00, 0.00, 0.000, 0.000, 0.000, 14:29:04.092
136, -24944.19, 0.00, 0.00, 0.00, 0.00, 0.00, 0.00, 0.00, 0.000, 0.000, 0.000, 14:29:04.092
137, -24958.38, 0.00, 0.00, 0.00, 0.00, 0.00, 0.00, 0.00, 0.130, 0.826, 0.494, 14:29:04.092
138, -24975.55, 0.00, 0.00, 0.00, 0.00, 0.00, 0.00, 0.00, 0.000, 0.000, 0.000, 14:29:04.093
139, -24966.07, 0.00, 0.00, 0.00, 0.00, 0.00, 0.00, 0.00, 0.000, 0.000, 0.000, 14:29:04.093
140, -24943.65, 0.00, 0.00, 0.00, 0.00, 0.00, 0.00, 0.00, 0.000, 0.000, 0.000, 14:29:04.093
141, -24968.11, 0.00, 0.00, 0.00, 0.00, 0.00, 0.00, 0.00, 0.000, 0.000, 0.000, 14:29:04.093
142, -24977.34, 0.00, 0.00, 0.00, 0.00, 0.00, 0.00, 0.00, 0.000, 0.000, 0.000, 14:29:04.093
143, -24952.75, 0.00, 0.00, 0.00, 0.00, 0.00, 0.00, 0.00, 0.000, 0.000, 0.000, 14:29:04.093
144, -24942.56, 0.00, 0.00, 0.00, 0.00, 0.00, 0.00, 0.00, 0.000, 0.000, 0.000, 14:29:04.094
145, -24955.05, 0.00, 0.00, 0.00, 0.00, 0.00, 0.00, 0.00, 0.000, 0.000, 0.000, 14:29:04.094
146, -24988.62, 0.00, 0.00, 0.00, 0.00, 0.00, 0.00, 0.00, 0.000, 0.000, 0.000, 14:29:04.094
147, -24980.53, 0.00, 0.00, 0.00, 0.00, 0.00, 0.00, 0.00, 0.134, 0.826, 0.492, 14:29:04.094
148, -24951.34, 0.00, 0.00, 0.00, 0.00, 0.00, 0.00, 0.00, 0.000, 0.000, 0.000, 14:29:04.094
149, -24951.18, 0.00, 0.00, 0.00, 0.00, 0.00, 0.00, 0.00, 0.000, 0.000, 0.000, 14:29:04.094
150, -24957.49, 0.00, 0.00, 0.00, 0.00, 0.00, 0.00, 0.00, 0.000, 0.000, 0.000, 14:29:04.094
151, -24943.03, 0.00, 0.00, 0.00, 0.00, 0.00, 0.00, 0.00, 0.000, 0.000, 0.000, 14:29:04.095
152, -24951.88, 0.00, 0.00, 0.00, 0.00, 0.00, 0.00, 0.00, 0.000, 0.000, 0.000, 14:29:04.095
153, -24941.91, 0.00, 0.00, 0.00, 0.00, 0.00, 0.00, 0.00, 0.000, 0.000, 0.000, 14:29:04.095
154, -24958.00, 0.00, 0.00, 0.00, 0.00, 0.00, 0.00, 0.00, 0.000, 0.000, 0.000, 14:29:04.095
155, -24956.04, 0.00, 0.00, 0.00, 0.00, 0.00, 0.00, 0.00, 0.000, 0.000, 0.000, 14:29:04.095
156, -24942.24, 0.00, 0.00, 0.00, 0.00, 0.00, 0.00, 0.00, 0.000, 0.000, 0.000, 14:29:04.095
157, -24945.91, 0.00, 0.00, 0.00, 0.00, 0.00, 0.00, 0.00, 0.132, 0.824, 0.492, 14:29:04.096
158, -24967.17, 0.00, 0.00, 0.00, 0.00, 0.00, 0.00, 0.00, 0.000, 0.000, 0.000, 14:29:04.096
159, -24976.22, 0.00, 0.00, 0.00, 0.00, 0.00, 0.00, 0.00, 0.000, 0.000, 0.000, 14:29:04.096
160, -24950.45, 0.00, 0.00, 0.00, 0.00, 0.00, 0.00, 0.00, 0.000, 0.000, 0.000, 14:29:04.096
161, -24941.80, 0.00, 0.00, 0.00, 0.00, 0.00, 0.00, 0.00, 0.000, 0.000, 0.000, 14:29:04.096
162, -24965.18, 0.00, 0.00, 0.00, 0.00, 0.00, 0.00, 0.00, 0.000, 0.000, 0.000, 14:29:04.096
163, -24981.27, 0.00, 0.00, 0.00, 0.00, 0.00, 0.00, 0.00, 0.000, 0.000, 0.000, 14:29:04.096
164, -24954.69, 0.00, 0.00, 0.00, 0.00, 0.00, 0.00, 0.00, 0.000, 0.000, 0.000, 14:29:04.096
165, -24947.34, 0.00, 0.00, 0.00, 0.00, 0.00, 0.00, 0.00, 0.000, 0.000, 0.000, 14:29:04.097
166, -24960.21, 0.00, 0.00, 0.00, 0.00, 0.00, 0.00, 0.00, 0.000, 0.000, 0.000, 14:29:04.097
167, -24967.63, 0.00, 0.00, 0.00, 0.00, 0.00, 0.00, 0.00, 0.134, 0.824, 0.492, 14:29:04.097
168, -24957.60, 0.00, 0.00, 0.00, 0.00, 0.00, 0.00, 0.00, 0.000, 0.000, 0.000, 14:29:04.097
169, -24958.16, 0.00, 0.00, 0.00, 0.00, 0.00, 0.00, 0.00, 0.000, 0.000, 0.000, 14:29:04.097
170, -24967.77, 0.00, 0.00, 0.00, 0.00, 0.00, 0.00, 0.00, 0.000, 0.000, 0.000, 14:29:04.097
171, -24973.58, 0.00, 0.00, 0.00, 0.00, 0.00, 0.00, 0.00, 0.000, 0.000, 0.000, 14:29:04.098
172, -24967.21, 0.00, 0.00, 0.00, 0.00, 0.00, 0.00, 0.00, 0.000, 0.000, 0.000, 14:29:04.098
173, -24954.34, 0.00, 0.00, 0.00, 0.00, 0.00, 0.00, 0.00, 0.000, 0.000, 0.000, 14:29:04.098
174, -24952.39, 0.00, 0.00, 0.00, 0.00, 0.00, 0.00, 0.00, 0.000, 0.000, 0.000, 14:29:04.098
175, -24968.48, 0.00, 0.00, 0.00, 0.00, 0.00, 0.00, 0.00, 0.000, 0.000, 0.000, 14:29:04.098
176, -24964.57, 0.00, 0.00, 0.00, 0.00, 0.00, 0.00, 0.00, 0.000, 0.000, 0.000, 14:29:04.098
177, -24948.35, 0.00, 0.00, 0.00, 0.00, 0.00, 0.00, 0.00, 0.130, 0.824, 0.492, 14:29:04.098
178, -24941.10, 0.00, 0.00, 0.00, 0.00, 0.00, 0.00, 0.00, 0.000, 0.000, 0.000, 14:29:04.098
179, -24975.55, 0.00, 0.00, 0.00, 0.00, 0.00, 0.00, 0.00, 0.000, 0.000, 0.000, 14:29:04.098
180, -24995.87, 0.00, 0.00, 0.00, 0.00, 0.00, 0.00, 0.00, 0.000, 0.000, 0.000, 14:29:04.098
181, -24948.44, 0.00, 0.00, 0.00, 0.00, 0.00, 0.00, 0.00, 0.000, 0.000, 0.000, 14:29:04.099
182, -24955.97, 0.00, 0.00, 0.00, 0.00, 0.00, 0.00, 0.00, 0.000, 0.000, 0.000, 14:29:04.099
183, -24970.18, 0.00, 0.00, 0.00, 0.00, 0.00, 0.00, 0.00, 0.000, 0.000, 0.000, 14:29:04.099
184, -24959.95, 0.00, 0.00, 0.00, 0.00, 0.00, 0.00, 0.00, 0.000, 0.000, 0.000, 14:29:04.099
185, -24952.84, 0.00, 0.00, 0.00, 0.00, 0.00, 0.00, 0.00, 0.000, 0.000, 0.000, 14:29:04.099
186, -24920.61, 0.00, 0.00, 0.00, 0.00, 0.00, 0.00, 0.00, 0.000, 0.000, 0.000, 14:29:04.099
187, -24942.62, 0.00, 0.00, 0.00, 0.00, 0.00, 0.00, 0.00, 0.134, 0.828, 0.488, 14:29:04.099
188, -24957.26, 0.00, 0.00, 0.00, 0.00, 0.00, 0.00, 0.00, 0.000, 0.000, 0.000, 14:29:04.099
189, -24964.15, 0.00, 0.00, 0.00, 0.00, 0.00, 0.00, 0.00, 0.000, 0.000, 0.000, 14:29:04.099
190, -24960.06, 0.00, 0.00, 0.00, 0.00, 0.00, 0.00, 0.00, 0.000, 0.000, 0.000, 14:29:04.099
191, -24954.80, 0.00, 0.00, 0.00, 0.00, 0.00, 0.00, 0.00, 0.000, 0.000, 0.000, 14:29:04.099
192, -24975.86, 0.00, 0.00, 0.00, 0.00, 0.00, 0.00, 0.00, 0.000, 0.000, 0.000, 14:29:04.100
193, -24970.38, 0.00, 0.00, 0.00, 0.00, 0.00, 0.00, 0.00, 0.000, 0.000, 0.000, 14:29:04.100
194, -24937.33, 0.00, 0.00, 0.00, 0.00, 0.00, 0.00, 0.00, 0.000, 0.000, 0.000, 14:29:04.100
195, -24951.18, 0.00, 0.00, 0.00, 0.00, 0.00, 0.00, 0.00, 0.000, 0.000, 0.000, 14:29:04.100
196, -24989.96, 0.00, 0.00, 0.00, 0.00, 0.00, 0.00, 0.00, 0.134, 0.820, 0.490, 14:29:04.100
197, -24983.04, 0.00, 0.00, 0.00, 0.00, 0.00, 0.00, 0.00, 0.000, 0.000, 0.000, 14:29:04.100
198, -24927.42, 0.00, 0.00, 0.00, 0.00, 0.00, 0.00, 0.00, 0.000, 0.000, 0.000, 14:29:04.100
199, -24927.25, 0.00, 0.00, 0.00, 0.00, 0.00, 0.00, 0.00, 0.000, 0.000, 0.000, 14:29:04.100
200, -24963.97, 0.00, 0.00, 0.00, 0.00, 0.00, 0.00, 0.00, 0.000, 0.000, 0.000, 14:29:04.101
201, -24969.40, 0.00, 0.00, 0.00, 0.00, 0.00, 0.00, 0.00, 0.000, 0.000, 0.000, 14:29:04.101
202, -24954.47, 0.00, 0.00, 0.00, 0.00, 0.00, 0.00, 0.00, 0.000, 0.000, 0.000, 14:29:04.101
203, -24965.60, 0.00, 0.00, 0.00, 0.00, 0.00, 0.00, 0.00, 0.000, 0.000, 0.000, 14:29:04.101
204, -24968.48, 0.00, 0.00, 0.00, 0.00, 0.00, 0.00, 0.00, 0.000, 0.000, 0.000, 14:29:04.101
205, -24982.68, 0.00, 0.00, 0.00, 0.00, 0.00, 0.00, 0.00, 0.000, 0.000, 0.000, 14:29:04.101
206, -24961.15, 0.00, 0.00, 0.00, 0.00, 0.00, 0.00, 0.00, 0.134, 0.820, 0.490, 14:29:04.101
207, -24943.29, 0.00, 0.00, 0.00, 0.00, 0.00, 0.00, 0.00, 0.000, 0.000, 0.000, 14:29:04.101
208, -24966.25, 0.00, 0.00, 0.00, 0.00, 0.00, 0.00, 0.00, 0.000, 0.000, 0.000, 14:29:04.101
209, -24988.04, 0.00, 0.00, 0.00, 0.00, 0.00, 0.00, 0.00, 0.000, 0.000, 0.000, 14:29:04.101
210, -24960.64, 0.00, 0.00, 0.00, 0.00, 0.00, 0.00, 0.00, 0.000, 0.000, 0.000, 14:29:04.101
211, -24955.19, 0.00, 0.00, 0.00, 0.00, 0.00, 0.00, 0.00, 0.000, 0.000, 0.000, 14:29:04.102
212, -24953.80, 0.00, 0.00, 0.00, 0.00, 0.00, 0.00, 0.00, 0.000, 0.000, 0.000, 14:29:04.102
213, -24970.61, 0.00, 0.00, 0.00, 0.00, 0.00, 0.00, 0.00, 0.000, 0.000, 0.000, 14:29:04.102
214, -24961.09, 0.00, 0.00, 0.00, 0.00, 0.00, 0.00, 0.00, 0.000, 0.000, 0.000, 14:29:04.102
215, -24939.32, 0.00, 0.00, 0.00, 0.00, 0.00, 0.00, 0.00, 0.000, 0.000, 0.000, 14:29:04.102
216, -24965.20, 0.00, 0.00, 0.00, 0.00, 0.00, 0.00, 0.00, 0.134, 0.820, 0.490, 14:29:04.102
217, -24974.92, 0.00, 0.00, 0.00, 0.00, 0.00, 0.00, 0.00, 0.000, 0.000, 0.000, 14:29:04.102
218, -24961.04, 0.00, 0.00, 0.00, 0.00, 0.00, 0.00, 0.00, 0.000, 0.000, 0.000, 14:29:04.102
219, -24941.33, 0.00, 0.00, 0.00, 0.00, 0.00, 0.00, 0.00, 0.000, 0.000, 0.000, 14:29:04.102
220, -24953.80, 0.00, 0.00, 0.00, 0.00, 0.00, 0.00, 0.00, 0.000, 0.000, 0.000, 14:29:04.102
221, -24968.84, 0.00, 0.00, 0.00, 0.00, 0.00, 0.00, 0.00, 0.000, 0.000, 0.000, 14:29:04.102
222, -24980.02, 0.00, 0.00, 0.00, 0.00, 0.00, 0.00, 0.00, 0.000, 0.000, 0.000, 14:29:04.102
223, -24978.21, 0.00, 0.00, 0.00, 0.00, 0.00, 0.00, 0.00, 0.000, 0.000, 0.000, 14:29:04.103
224, -24977.13, 0.00, 0.00, 0.00, 0.00, 0.00, 0.00, 0.00, 0.000, 0.000, 0.000, 14:29:04.551
225, -24966.65, 0.00, 0.00, 0.00, 0.00, 0.00, 0.00, 0.00, 0.000, 0.000, 0.000, 14:29:04.551
226, -24974.72, 0.00, 0.00, 0.00, 0.00, 0.00, 0.00, 0.00, 0.134, 0.820, 0.490, 14:29:04.551
227, -24959.66, 0.00, 0.00, 0.00, 0.00, 0.00, 0.00, 0.00, 0.000, 0.000, 0.000, 14:29:04.551
228, -24931.04, 0.00, 0.00, 0.00, 0.00, 0.00, 0.00, 0.00, 0.000, 0.000, 0.000, 14:29:04.551
229, -24967.01, 0.00, 0.00, 0.00, 0.00, 0.00, 0.00, 0.00, 0.000, 0.000, 0.000, 14:29:04.551
230, -24982.92, 0.00, 0.00, 0.00, 0.00, 0.00, 0.00, 0.00, 0.000, 0.000, 0.000, 14:29:04.551
231, -24959.46, 0.00, 0.00, 0.00, 0.00, 0.00, 0.00, 0.00, 0.000, 0.000, 0.000, 14:29:04.551
232, -24967.05, 0.00, 0.00, 0.00, 0.00, 0.00, 0.00, 0.00, 0.000, 0.000, 0.000, 14:29:04.551
233, -24972.02, 0.00, 0.00, 0.00, 0.00, 0.00, 0.00, 0.00, 0.000, 0.000, 0.000, 14:29:04.551
234, -24965.87, 0.00, 0.00, 0.00, 0.00, 0.00, 0.00, 0.00, 0.000, 0.000, 0.000, 14:29:04.551
235, -24965.58, 0.00, 0.00, 0.00, 0.00, 0.00, 0.00, 0.00, 0.000, 0.000, 0.000, 14:29:04.551
236, -24943.03, 0.00, 0.00, 0.00, 0.00, 0.00, 0.00, 0.00, 0.128, 0.822, 0.488, 14:29:04.551
237, -24959.05, 0.00, 0.00, 0.00, 0.00, 0.00, 0.00, 0.00, 0.000, 0.000, 0.000, 14:29:04.551
238, -24987.21, 0.00, 0.00, 0.00, 0.00, 0.00, 0.00, 0.00, 0.000, 0.000, 0.000, 14:29:04.551
239, -24992.18, 0.00, 0.00, 0.00, 0.00, 0.00, 0.00, 0.00, 0.000, 0.000, 0.000, 14:29:04.551
240, -24940.43, 0.00, 0.00, 0.00, 0.00, 0.00, 0.00, 0.00, 0.000, 0.000, 0.000, 14:29:04.551
241, -24918.01, 0.00, 0.00, 0.00, 0.00, 0.00, 0.00, 0.00, 0.000, 0.000, 0.000, 14:29:04.551
242, -24967.21, 0.00, 0.00, 0.00, 0.00, 0.00, 0.00, 0.00, 0.000, 0.000, 0.000, 14:29:04.552
243, -24969.40, 0.00, 0.00, 0.00, 0.00, 0.00, 0.00, 0.00, 0.000, 0.000, 0.000, 14:29:04.552
244, -24929.77, 0.00, 0.00, 0.00, 0.00, 0.00, 0.00, 0.00, 0.000, 0.000, 0.000, 14:29:04.552
245, -24945.75, 0.00, 0.00, 0.00, 0.00, 0.00, 0.00, 0.00, 0.000, 0.000, 0.000, 14:29:04.552
246, -24984.29, 0.00, 0.00, 0.00, 0.00, 0.00, 0.00, 0.00, 0.126, 0.824, 0.490, 14:29:04.552
247, -24991.84, 0.00, 0.00, 0.00, 0.00, 0.00, 0.00, 0.00, 0.000, 0.000, 0.000, 14:29:04.552
248, -24940.88, 0.00, 0.00, 0.00, 0.00, 0.00, 0.00, 0.00, 0.000, 0.000, 0.000, 14:29:04.552
249, -24952.28, 0.00, 0.00, 0.00, 0.00, 0.00, 0.00, 0.00, 0.000, 0.000, 0.000, 14:29:04.552
250, -24985.18, 0.00, 0.00, 0.00, 0.00, 0.00, 0.00, 0.00, 0.000, 0.000, 0.000, 14:29:04.552
251, -24978.19, 0.00, 0.00, 0.00, 0.00, 0.00, 0.00, 0.00, 0.000, 0.000, 0.000, 14:29:04.552
252, -24953.62, 0.00, 0.00, 0.00, 0.00, 0.00, 0.00, 0.00, 0.000, 0.000, 0.000, 14:29:04.552
253, -24955.03, 0.00, 0.00, 0.00, 0.00, 0.00, 0.00, 0.00, 0.000, 0.000, 0.000, 14:29:04.552
254, -24980.11, 0.00, 0.00, 0.00, 0.00, 0.00, 0.00, 0.00, 0.000, 0.000, 0.000, 14:29:04.552
255, -24979.04, 0.00, 0.00, 0.00, 0.00, 0.00, 0.00, 0.00, 0.000, 0.000, 0.000, 14:29:04.552
0, -24938.27, 0.00, 0.00, 0.00, 0.00, 0.00, 0.00, 0.00, 0.128, 0.830, 0.490, 14:29:04.552
1, -24944.14, 0.00, 0.00, 0.00, 0.00, 0.00, 0.00, 0.00, 0.000, 0.000, 0.000, 14:29:04.552
2, -24965.58, 0.00, 0.00, 0.00, 0.00, 0.00, 0.00, 0.00, 0.000, 0.000, 0.000, 14:29:04.553
3, -24982.37, 0.00, 0.00, 0.00, 0.00, 0.00, 0.00, 0.00, 0.000, 0.000, 0.000, 14:29:04.553
4, -24978.74, 0.00, 0.00, 0.00, 0.00, 0.00, 0.00, 0.00, 0.000, 0.000, 0.000, 14:29:04.553
5, -24954.04, 0.00, 0.00, 0.00, 0.00, 0.00, 0.00, 0.00, 0.000, 0.000, 0.000, 14:29:04.553
6, -24953.31, 0.00, 0.00, 0.00, 0.00, 0.00, 0.00, 0.00, 0.000, 0.000, 0.000, 14:29:04.553
7, -24990.34, 0.00, 0.00, 0.00, 0.00, 0.00, 0.00, 0.00, 0.000, 0.000, 0.000, 14:29:04.553
8, -24980.67, 0.00, 0.00, 0.00, 0.00, 0.00, 0.00, 0.00, 0.000, 0.000, 0.000, 14:29:04.553
9, -24967.17, 0.00, 0.00, 0.00, 0.00, 0.00, 0.00, 0.00, 0.000, 0.000, 0.000, 14:29:04.553
10, -24958.90, 0.00, 0.00, 0.00, 0.00, 0.00, 0.00, 0.00, 0.130, 0.828, 0.490, 14:29:04.553
11, -24975.37, 0.00, 0.00, 0.00, 0.00, 0.00, 0.00, 0.00, 0.000, 0.000, 0.000, 14:29:04.553
12, -24962.07, 0.00, 0.00, 0.00, 0.00, 0.00, 0.00, 0.00, 0.000, 0.000, 0.000, 14:29:04.553
13, -24967.84, 0.00, 0.00, 0.00, 0.00, 0.00, 0.00, 0.00, 0.000, 0.000, 0.000, 14:29:04.553
14, -24955.12, 0.00, 0.00, 0.00, 0.00, 0.00, 0.00, 0.00, 0.000, 0.000, 0.000, 14:29:04.565
15, -24970.96, 0.00, 0.00, 0.00, 0.00, 0.00, 0.00, 0.00, 0.000, 0.000, 0.000, 14:29:04.566
16, -24968.66, 0.00, 0.00, 0.00, 0.00, 0.00, 0.00, 0.00, 0.000, 0.000, 0.000, 14:29:04.566
17, -24952.35, 0.00, 0.00, 0.00, 0.00, 0.00, 0.00, 0.00, 0.000, 0.000, 0.000, 14:29:04.566
18, -24952.39, 0.00, 0.00, 0.00, 0.00, 0.00, 0.00, 0.00, 0.000, 0.000, 0.000, 14:29:04.566
19, -24986.99, 0.00, 0.00, 0.00, 0.00, 0.00, 0.00, 0.00, 0.000, 0.000, 0.000, 14:29:04.566
20, -24986.81, 0.00, 0.00, 0.00, 0.00, 0.00, 0.00, 0.00, 0.130, 0.822, 0.492, 14:29:04.566
21, -24950.04, 0.00, 0.00, 0.00, 0.00, 0.00, 0.00, 0.00, 0.000, 0.000, 0.000, 14:29:04.566
22, -24952.86, 0.00, 0.00, 0.00, 0.00, 0.00, 0.00, 0.00, 0.000, 0.000, 0.000, 14:29:04.566
23, -24985.36, 0.00, 0.00, 0.00, 0.00, 0.00, 0.00, 0.00, 0.000, 0.000, 0.000, 14:29:04.566
24, -24980.62, 0.00, 0.00, 0.00, 0.00, 0.00, 0.00, 0.00, 0.000, 0.000, 0.000, 14:29:04.566
25, -24971.84, 0.00, 0.00, 0.00, 0.00, 0.00, 0.00, 0.00, 0.000, 0.000, 0.000, 14:29:04.566
26, -24969.07, 0.00, 0.00, 0.00, 0.00, 0.00, 0.00, 0.00, 0.000, 0.000, 0.000, 14:29:04.566
27, -24987.82, 0.00, 0.00, 0.00, 0.00, 0.00, 0.00, 0.00, 0.000, 0.000, 0.000, 14:29:04.567
28, -24994.12, 0.00, 0.00, 0.00, 0.00, 0.00, 0.00, 0.00, 0.000, 0.000, 0.000, 14:29:04.567
29, -24973.80, 0.00, 0.00, 0.00, 0.00, 0.00, 0.00, 0.00, 0.000, 0.000, 0.000, 14:29:04.567
30, -24967.08, 0.00, 0.00, 0.00, 0.00, 0.00, 0.00, 0.00, 0.136, 0.822, 0.492, 14:29:04.567
31, -24955.48, 0.00, 0.00, 0.00, 0.00, 0.00, 0.00, 0.00, 0.000, 0.000, 0.000, 14:29:04.567
32, -24980.17, 0.00, 0.00, 0.00, 0.00, 0.00, 0.00, 0.00, 0.000, 0.000, 0.000, 14:29:04.567
33, -24976.60, 0.00, 0.00, 0.00, 0.00, 0.00, 0.00, 0.00, 0.000, 0.000, 0.000, 14:29:04.567
34, -24958.63, 0.00, 0.00, 0.00, 0.00, 0.00, 0.00, 0.00, 0.000, 0.000, 0.000, 14:29:04.567
35, -24961.91, 0.00, 0.00, 0.00, 0.00, 0.00, 0.00, 0.00, 0.000, 0.000, 0.000, 14:29:04.567
36, -24955.30, 0.00, 0.00, 0.00, 0.00, 0.00, 0.00, 0.00, 0.000, 0.000, 0.000, 14:29:04.567
37, -24961.78, 0.00, 0.00, 0.00, 0.00, 0.00, 0.00, 0.00, 0.000, 0.000, 0.000, 14:29:04.567
38, -24954.29, 0.00, 0.00, 0.00, 0.00, 0.00, 0.00, 0.00, 0.000, 0.000, 0.000, 14:29:04.567
39, -24952.84, 0.00, 0.00, 0.00, 0.00, 0.00, 0.00, 0.00, 0.000, 0.000, 0.000, 14:29:04.567
40, -24983.26, 0.00, 0.00, 0.00, 0.00, 0.00, 0.00, 0.00, 0.132, 0.824, 0.490, 14:29:04.568
41, -24979.95, 0.00, 0.00, 0.00, 0.00, 0.00, 0.00, 0.00, 0.000, 0.000, 0.000, 14:29:04.568
42, -24951.21, 0.00, 0.00, 0.00, 0.00, 0.00, 0.00, 0.00, 0.000, 0.000, 0.000, 14:29:04.568
43, -24960.10, 0.00, 0.00, 0.00, 0.00, 0.00, 0.00, 0.00, 0.000, 0.000, 0.000, 14:29:04.568
44, -24994.81, 0.00, 0.00, 0.00, 0.00, 0.00, 0.00, 0.00, 0.000, 0.000, 0.000, 14:29:04.568
45, -24981.74, 0.00, 0.00, 0.00, 0.00, 0.00, 0.00, 0.00, 0.000, 0.000, 0.000, 14:29:04.568
46, -24964.19, 0.00, 0.00, 0.00, 0.00, 0.00, 0.00, 0.00, 0.000, 0.000, 0.000, 14:29:04.568
47, -24962.74, 0.00, 0.00, 0.00, 0.00, 0.00, 0.00, 0.00, 0.000, 0.000, 0.000, 14:29:04.568
48, -24980.17, 0.00, 0.00, 0.00, 0.00, 0.00, 0.00, 0.00, 0.000, 0.000, 0.000, 14:29:04.568
49, -25005.54, 0.00, 0.00, 0.00, 0.00, 0.00, 0.00, 0.00, 0.134, 0.822, 0.494, 14:29:04.568
50, -24984.49, 0.00, 0.00, 0.00, 0.00, 0.00, 0.00, 0.00, 0.000, 0.000, 0.000, 14:29:04.568
51, -24957.04, 0.00, 0.00, 0.00, 0.00, 0.00, 0.00, 0.00, 0.000, 0.000, 0.000, 14:29:04.568
52, -24950.20, 0.00, 0.00, 0.00, 0.00, 0.00, 0.00, 0.00, 0.000, 0.000, 0.000, 14:29:04.569
53, -24985.32, 0.00, 0.00, 0.00, 0.00, 0.00, 0.00, 0.00, 0.000, 0.000, 0.000, 14:29:04.569
54, -24974.59, 0.00, 0.00, 0.00, 0.00, 0.00, 0.00, 0.00, 0.000, 0.000, 0.000, 14:29:04.569
55, -24974.79, 0.00, 0.00, 0.00, 0.00, 0.00, 0.00, 0.00, 0.000, 0.000, 0.000, 14:29:04.569
56, -24988.82, 0.00, 0.00, 0.00, 0.00, 0.00, 0.00, 0.00, 0.000, 0.000, 0.000, 14:29:04.569
57, -24988.47, 0.00, 0.00, 0.00, 0.00, 0.00, 0.00, 0.00, 0.000, 0.000, 0.000, 14:29:04.569
58, -24948.73, 0.00, 0.00, 0.00, 0.00, 0.00, 0.00, 0.00, 0.000, 0.000, 0.000, 14:29:04.569
59, -24912.18, 0.00, 0.00, 0.00, 0.00, 0.00, 0.00, 0.00, 0.134, 0.816, 0.492, 14:29:04.569
60, -24937.79, 0.00, 0.00, 0.00, 0.00, 0.00, 0.00, 0.00, 0.000, 0.000, 0.000, 14:29:04.569
61, -24966.03, 0.00, 0.00, 0.00, 0.00, 0.00, 0.00, 0.00, 0.000, 0.000, 0.000, 14:29:04.569
62, -24972.13, 0.00, 0.00, 0.00, 0.00, 0.00, 0.00, 0.00, 0.000, 0.000, 0.000, 14:29:04.569
63, -24964.71, 0.00, 0.00, 0.00, 0.00, 0.00, 0.00, 0.00, 0.000, 0.000, 0.000, 14:29:04.569
64, -24954.69, 0.00, 0.00, 0.00, 0.00, 0.00, 0.00, 0.00, 0.000, 0.000, 0.000, 14:29:04.569
65, -24963.95, 0.00, 0.00, 0.00, 0.00, 0.00, 0.00, 0.00, 0.000, 0.000, 0.000, 14:29:04.569
66, -24977.36, 0.00, 0.00, 0.00, 0.00, 0.00, 0.00, 0.00, 0.000, 0.000, 0.000, 14:29:04.570
67, -24945.24, 0.00, 0.00, 0.00, 0.00, 0.00, 0.00, 0.00, 0.000, 0.000, 0.000, 14:29:04.570
68, -24938.13, 0.00, 0.00, 0.00, 0.00, 0.00, 0.00, 0.00, 0.000, 0.000, 0.000, 14:29:04.570
69, -24975.75, 0.00, 0.00, 0.00, 0.00, 0.00, 0.00, 0.00, 0.132, 0.820, 0.490, 14:29:04.570
70, -25004.72, 0.00, 0.00, 0.00, 0.00, 0.00, 0.00, 0.00, 0.000, 0.000, 0.000, 14:29:04.570
71, -24974.21, 0.00, 0.00, 0.00, 0.00, 0.00, 0.00, 0.00, 0.000, 0.000, 0.000, 14:29:04.570
72, -24929.86, 0.00, 0.00, 0.00, 0.00, 0.00, 0.00, 0.00, 0.000, 0.000, 0.000, 14:29:04.570
73, -24963.48, 0.00, 0.00, 0.00, 0.00, 0.00, 0.00, 0.00, 0.000, 0.000, 0.000, 14:29:04.570
74, -24999.24, 0.00, 0.00, 0.00, 0.00, 0.00, 0.00, 0.00, 0.000, 0.000, 0.000, 14:29:04.570
75, -24982.34, 0.00, 0.00, 0.00, 0.00, 0.00, 0.00, 0.00, 0.000, 0.000, 0.000, 14:29:04.570
76, -24945.26, 0.00, 0.00, 0.00, 0.00, 0.00, 0.00, 0.00, 0.000, 0.000, 0.000, 14:29:04.570
77, -24957.42, 0.00, 0.00, 0.00, 0.00, 0.00, 0.00, 0.00, 0.000, 0.000, 0.000, 14:29:04.570
78, -24984.06, 0.00, 0.00, 0.00, 0.00, 0.00, 0.00, 0.00, 0.000, 0.000, 0.000, 14:29:04.570
79, -24980.55, 0.00, 0.00, 0.00, 0.00, 0.00, 0.00, 0.00, 0.132, 0.820, 0.496, 14:29:04.571
80, -24927.85, 0.00, 0.00, 0.00, 0.00, 0.00, 0.00, 0.00, 0.000, 0.000, 0.000, 14:29:04.571
81, -24946.36, 0.00, 0.00, 0.00, 0.00, 0.00, 0.00, 0.00, 0.000, 0.000, 0.000, 14:29:04.571
82, -24991.95, 0.00, 0.00, 0.00, 0.00, 0.00, 0.00, 0.00, 0.000, 0.000, 0.000, 14:29:04.571
83, -25003.38, 0.00, 0.00, 0.00, 0.00, 0.00, 0.00, 0.00, 0.000, 0.000, 0.000, 14:29:04.571
84, -24956.82, 0.00, 0.00, 0.00, 0.00, 0.00, 0.00, 0.00, 0.000, 0.000, 0.000, 14:29:04.571
85, -24947.47, 0.00, 0.00, 0.00, 0.00, 0.00, 0.00, 0.00, 0.000, 0.000, 0.000, 14:29:04.571
86, -24979.26, 0.00, 0.00, 0.00, 0.00, 0.00, 0.00, 0.00, 0.000, 0.000, 0.000, 14:29:04.571
87, -24976.67, 0.00, 0.00, 0.00, 0.00, 0.00, 0.00, 0.00, 0.000, 0.000, 0.000, 14:29:04.571
88, -24947.94, 0.00, 0.00, 0.00, 0.00, 0.00, 0.00, 0.00, 0.000, 0.000, 0.000, 14:29:04.571
89, -24955.41, 0.00, 0.00, 0.00, 0.00, 0.00, 0.00, 0.00, 0.136, 0.826, 0.494, 14:29:05.028
90, -24995.06, 0.00, 0.00, 0.00, 0.00, 0.00, 0.00, 0.00, 0.000, 0.000, 0.000, 14:29:05.028
91, -24988.96, 0.00, 0.00, 0.00, 0.00, 0.00, 0.00, 0.00, 0.000, 0.000, 0.000, 14:29:05.028
92, -24951.05, 0.00, 0.00, 0.00, 0.00, 0.00, 0.00, 0.00, 0.000, 0.000, 0.000, 14:29:05.028
93, -24968.46, 0.00, 0.00, 0.00, 0.00, 0.00, 0.00, 0.00, 0.000, 0.000, 0.000, 14:29:05.029
94, -25000.45, 0.00, 0.00, 0.00, 0.00, 0.00, 0.00, 0.00, 0.000, 0.000, 0.000, 14:29:05.029
95, -24994.19, 0.00, 0.00, 0.00, 0.00, 0.00, 0.00, 0.00, 0.000, 0.000, 0.000, 14:29:05.029
96, -24987.80, 0.00, 0.00, 0.00, 0.00, 0.00, 0.00, 0.00, 0.000, 0.000, 0.000, 14:29:05.029
97, -24979.50, 0.00, 0.00, 0.00, 0.00, 0.00, 0.00, 0.00, 0.000, 0.000, 0.000, 14:29:05.029
98, -24940.12, 0.00, 0.00, 0.00, 0.00, 0.00, 0.00, 0.00, 0.000, 0.000, 0.000, 14:29:05.029
99, -24966.43, 0.00, 0.00, 0.00, 0.00, 0.00, 0.00, 0.00, 0.136, 0.826, 0.490, 14:29:05.029
100, -24975.41, 0.00, 0.00, 0.00, 0.00, 0.00, 0.00, 0.00, 0.000, 0.000, 0.000, 14:29:05.029
101, -24957.55, 0.00, 0.00, 0.00, 0.00, 0.00, 0.00, 0.00, 0.000, 0.000, 0.000, 14:29:05.029
102, -24959.61, 0.00, 0.00, 0.00, 0.00, 0.00, 0.00, 0.00, 0.000, 0.000, 0.000, 14:29:05.029
103, -24993.74, 0.00, 0.00, 0.00, 0.00, 0.00, 0.00, 0.00, 0.000, 0.000, 0.000, 14:29:05.029
104, -24963.59, 0.00, 0.00, 0.00, 0.00, 0.00, 0.00, 0.00, 0.000, 0.000, 0.000, 14:29:05.029
105, -24952.12, 0.00, 0.00, 0.00, 0.00, 0.00, 0.00, 0.00, 0.000, 0.000, 0.000, 14:29:05.029
106, -24956.04, 0.00, 0.00, 0.00, 0.00, 0.00, 0.00, 0.00, 0.000, 0.000, 0.000, 14:29:05.029
107, -24968.24, 0.00, 0.00, 0.00, 0.00, 0.00, 0.00, 0.00, 0.000, 0.000, 0.000, 14:29:05.029
108, -24976.51, 0.00, 0.00, 0.00, 0.00, 0.00, 0.00, 0.00, 0.000, 0.000, 0.000, 14:29:05.029
109, -24953.35, 0.00, 0.00, 0.00, 0.00, 0.00, 0.00, 0.00, 0.136, 0.828, 0.492, 14:29:05.029
110, -24969.29, 0.00, 0.00, 0.00, 0.00, 0.00, 0.00, 0.00, 0.000, 0.000, 0.000, 14:29:05.030
111, -24985.27, 0.00, 0.00, 0.00, 0.00, 0.00, 0.00, 0.00, 0.000, 0.000, 0.000, 14:29:05.030
112, -24973.47, 0.00, 0.00, 0.00, 0.00, 0.00, 0.00, 0.00, 0.000, 0.000, 0.000, 14:29:05.030
113, -24963.23, 0.00, 0.00, 0.00, 0.00, 0.00, 0.00, 0.00, 0.000, 0.000, 0.000, 14:29:05.030
114, -24967.84, 0.00, 0.00, 0.00, 0.00, 0.00, 0.00, 0.00, 0.000, 0.000, 0.000, 14:29:05.030
115, -24967.10, 0.00, 0.00, 0.00, 0.00, 0.00, 0.00, 0.00, 0.000, 0.000, 0.000, 14:29:05.030
116, -24981.47, 0.00, 0.00, 0.00, 0.00, 0.00, 0.00, 0.00, 0.000, 0.000, 0.000, 14:29:05.030
117, -24967.10, 0.00, 0.00, 0.00, 0.00, 0.00, 0.00, 0.00, 0.000, 0.000, 0.000, 14:29:05.030
118, -24952.41, 0.00, 0.00, 0.00, 0.00, 0.00, 0.00, 0.00, 0.000, 0.000, 0.000, 14:29:05.030
119, -24966.43, 0.00, 0.00, 0.00, 0.00, 0.00, 0.00, 0.00, 0.132, 0.824, 0.496, 14:29:05.030
120, -24983.37, 0.00, 0.00, 0.00, 0.00, 0.00, 0.00, 0.00, 0.000, 0.000, 0.000, 14:29:05.030
121, -24974.27, 0.00, 0.00, 0.00, 0.00, 0.00, 0.00, 0.00, 0.000, 0.000, 0.000, 14:29:05.031
122, -24954.49, 0.00, 0.00, 0.00, 0.00, 0.00, 0.00, 0.00, 0.000, 0.000, 0.000, 14:29:05.031
123, -24969.09, 0.00, 0.00, 0.00, 0.00, 0.00, 0.00, 0.00, 0.000, 0.000, 0.000, 14:29:05.031
124, -24977.43, 0.00, 0.00, 0.00, 0.00, 0.00, 0.00, 0.00, 0.000, 0.000, 0.000, 14:29:05.031
125, -24971.66, 0.00, 0.00, 0.00, 0.00, 0.00, 0.00, 0.00, 0.000, 0.000, 0.000, 14:29:05.031
126, -24942.06, 0.00, 0.00, 0.00, 0.00, 0.00, 0.00, 0.00, 0.000, 0.000, 0.000, 14:29:05.031
127, -24954.02, 0.00, 0.00, 0.00, 0.00, 0.00, 0.00, 0.00, 0.000, 0.000, 0.000, 14:29:05.031
128, -24980.44, 0.00, 0.00, 0.00, 0.00, 0.00, 0.00, 0.00, 0.000, 0.000, 0.000, 14:29:05.031
129, -24986.48, 0.00, 0.00, 0.00, 0.00, 0.00, 0.00, 0.00, 0.130, 0.824, 0.498, 14:29:05.031
130, -24973.65, 0.00, 0.00, 0.00, 0.00, 0.00, 0.00, 0.00, 0.000, 0.000, 0.000, 14:29:05.031
131, -24989.94, 0.00, 0.00, 0.00, 0.00, 0.00, 0.00, 0.00, 0.000, 0.000, 0.000, 14:29:05.031
132, -24992.76, 0.00, 0.00, 0.00, 0.00, 0.00, 0.00, 0.00, 0.000, 0.000, 0.000, 14:29:05.031
133, -24982.79, 0.00, 0.00, 0.00, 0.00, 0.00, 0.00, 0.00, 0.000, 0.000, 0.000, 14:29:05.031
134, -24954.54, 0.00, 0.00, 0.00, 0.00, 0.00, 0.00, 0.00, 0.000, 0.000, 0.000, 14:29:05.031
135, -24957.78, 0.00, 0.00, 0.00, 0.00, 0.00, 0.00, 0.00, 0.000, 0.000, 0.000, 14:29:05.031
136, -24981.83, 0.00, 0.00, 0.00, 0.00, 0.00, 0.00, 0.00, 0.000, 0.000, 0.000, 14:29:05.031
137, -24990.97, 0.00, 0.00, 0.00, 0.00, 0.00, 0.00, 0.00, 0.000, 0.000, 0.000, 14:29:05.031
138, -24970.25, 0.00, 0.00, 0.00, 0.00, 0.00, 0.00, 0.00, 0.000, 0.000, 0.000, 14:29:05.031
139, -24948.10, 0.00, 0.00, 0.00, 0.00, 0.00, 0.00, 0.00, 0.134, 0.828, 0.496, 14:29:05.032
140, -24974.30, 0.00, 0.00, 0.00, 0.00, 0.00, 0.00, 0.00, 0.000, 0.000, 0.000, 14:29:05.032
141, -24978.68, 0.00, 0.00, 0.00, 0.00, 0.00, 0.00, 0.00, 0.000, 0.000, 0.000, 14:29:05.032
142, -24969.18, 0.00, 0.00, 0.00, 0.00, 0.00, 0.00, 0.00, 0.000, 0.000, 0.000, 14:29:05.032
143, -24949.40, 0.00, 0.00, 0.00, 0.00, 0.00, 0.00, 0.00, 0.000, 0.000, 0.000, 14:29:05.032
144, -24964.91, 0.00, 0.00, 0.00, 0.00, 0.00, 0.00, 0.00, 0.000, 0.000, 0.000, 14:29:05.032
145, -24986.84, 0.00, 0.00, 0.00, 0.00, 0.00, 0.00, 0.00, 0.000, 0.000, 0.000, 14:29:05.032
146, -24977.56, 0.00, 0.00, 0.00, 0.00, 0.00, 0.00, 0.00, 0.000, 0.000, 0.000, 14:29:05.032
147, -24944.35, 0.00, 0.00, 0.00, 0.00, 0.00, 0.00, 0.00, 0.000, 0.000, 0.000, 14:29:05.032
148, -24954.43, 0.00, 0.00, 0.00, 0.00, 0.00, 0.00, 0.00, 0.000, 0.000, 0.000, 14:29:05.032
149, -24984.80, 0.00, 0.00, 0.00, 0.00, 0.00, 0.00, 0.00, 0.132, 0.828, 0.494, 14:29:05.047
150, -24980.00, 0.00, 0.00, 0.00, 0.00, 0.00, 0.00, 0.00, 0.000, 0.000, 0.000, 14:29:05.047
151, -24954.54, 0.00, 0.00, 0.00, 0.00, 0.00, 0.00, 0.00, 0.000, 0.000, 0.000, 14:29:05.047
152, -24964.75, 0.00, 0.00, 0.00, 0.00, 0.00, 0.00, 0.00, 0.000, 0.000, 0.000, 14:29:05.047
153, -24975.17, 0.00, 0.00, 0.00, 0.00, 0.00, 0.00, 0.00, 0.000, 0.000, 0.000, 14:29:05.047
154, -24948.14, 0.00, 0.00, 0.00, 0.00, 0.00, 0.00, 0.00, 0.000, 0.000, 0.000, 14:29:05.047
155, -24956.19, 0.00, 0.00, 0.00, 0.00, 0.00, 0.00, 0.00, 0.000, 0.000, 0.000, 14:29:05.048
156, -24965.56, 0.00, 0.00, 0.00, 0.00, 0.00, 0.00, 0.00, 0.000, 0.000, 0.000, 14:29:05.048
157, -24982.23, 0.00, 0.00, 0.00, 0.00, 0.00, 0.00, 0.00, 0.000, 0.000, 0.000, 14:29:05.048
158, -24985.56, 0.00, 0.00, 0.00, 0.00, 0.00, 0.00, 0.00, 0.134, 0.832, 0.496, 14:29:05.048
159, -24954.52, 0.00, 0.00, 0.00, 0.00, 0.00, 0.00, 0.00, 0.000, 0.000, 0.000, 14:29:05.048
160, -24948.55, 0.00, 0.00, 0.00, 0.00, 0.00, 0.00, 0.00, 0.000, 0.000, 0.000, 14:29:05.049
161, -24974.07, 0.00, 0.00, 0.00, 0.00, 0.00, 0.00, 0.00, 0.000, 0.000, 0.000, 14:29:05.049
162, -24985.12, 0.00, 0.00, 0.00, 0.00, 0.00, 0.00, 0.00, 0.000, 0.000, 0.000, 14:29:05.049
163, -24955.16, 0.00, 0.00, 0.00, 0.00, 0.00, 0.00, 0.00, 0.000, 0.000, 0.000, 14:29:05.049
164, -24938.73, 0.00, 0.00, 0.00, 0.00, 0.00, 0.00, 0.00, 0.000, 0.000, 0.000, 14:29:05.049
165, -24976.89, 0.00, 0.00, 0.00, 0.00, 0.00, 0.00, 0.00, 0.000, 0.000, 0.000, 14:29:05.049
166, -24995.26, 0.00, 0.00, 0.00, 0.00, 0.00, 0.00, 0.00, 0.000, 0.000, 0.000, 14:29:05.050
167, -24970.99, 0.00, 0.00, 0.00, 0.00, 0.00, 0.00, 0.00, 0.000, 0.000, 0.000, 14:29:05.050
168, -24944.88, 0.00, 0.00, 0.00, 0.00, 0.00, 0.00, 0.00, 0.134, 0.828, 0.492, 14:29:05.051
169, -24955.59, 0.00, 0.00, 0.00, 0.00, 0.00, 0.00, 0.00, 0.000, 0.000, 0.000, 14:29:05.051
170, -25003.24, 0.00, 0.00, 0.00, 0.00, 0.00, 0.00, 0.00, 0.000, 0.000, 0.000, 14:29:05.051
171, -24976.89, 0.00, 0.00, 0.00, 0.00, 0.00, 0.00, 0.00, 0.000, 0.000, 0.000, 14:29:05.051
172, -24950.67, 0.00, 0.00, 0.00, 0.00, 0.00, 0.00, 0.00, 0.000, 0.000, 0.000, 14:29:05.051
173, -24956.15, 0.00, 0.00, 0.00, 0.00, 0.00, 0.00, 0.00, 0.000, 0.000, 0.000, 14:29:05.051
174, -24973.47, 0.00, 0.00, 0.00, 0.00, 0.00, 0.00, 0.00, 0.000, 0.000, 0.000, 14:29:05.051
175, -24956.10, 0.00, 0.00, 0.00, 0.00, 0.00, 0.00, 0.00, 0.000, 0.000, 0.000, 14:29:05.051
176, -24957.02, 0.00, 0.00, 0.00, 0.00, 0.00, 0.00, 0.00, 0.000, 0.000, 0.000, 14:29:05.051
177, -24974.63, 0.00, 0.00, 0.00, 0.00, 0.00, 0.00, 0.00, 0.000, 0.000, 0.000, 14:29:05.051
178, -24997.32, 0.00, 0.00, 0.00, 0.00, 0.00, 0.00, 0.00, 0.136, 0.826, 0.490, 14:29:05.051
179, -24969.20, 0.00, 0.00, 0.00, 0.00, 0.00, 0.00, 0.00, 0.000, 0.000, 0.000, 14:29:05.051
180, -24952.30, 0.00, 0.00, 0.00, 0.00, 0.00, 0.00, 0.00, 0.000, 0.000, 0.000, 14:29:05.053
181, -24964.84, 0.00, 0.00, 0.00, 0.00, 0.00, 0.00, 0.00, 0.000, 0.000, 0.000, 14:29:05.053
182, -24984.20, 0.00, 0.00, 0.00, 0.00, 0.00, 0.00, 0.00, 0.000, 0.000, 0.000, 14:29:05.053
183, -24994.64, 0.00, 0.00, 0.00, 0.00, 0.00, 0.00, 0.00, 0.000, 0.000, 0.000, 14:29:05.053
184, -24968.24, 0.00, 0.00, 0.00, 0.00, 0.00, 0.00, 0.00, 0.000, 0.000, 0.000, 14:29:05.053
185, -24950.04, 0.00, 0.00, 0.00, 0.00, 0.00, 0.00, 0.00, 0.000, 0.000, 0.000, 14:29:05.053
186, -24961.94, 0.00, 0.00, 0.00, 0.00, 0.00, 0.00, 0.00, 0.000, 0.000, 0.000, 14:29:05.053
187, -24985.18, 0.00, 0.00, 0.00, 0.00, 0.00, 0.00, 0.00, 0.000, 0.000, 0.000, 14:29:05.053
188, -24969.02, 0.00, 0.00, 0.00, 0.00, 0.00, 0.00, 0.00, 0.132, 0.824, 0.490, 14:29:05.053
189, -24966.81, 0.00, 0.00, 0.00, 0.00, 0.00, 0.00, 0.00, 0.000, 0.000, 0.000, 14:29:05.053
190, -24971.32, 0.00, 0.00, 0.00, 0.00, 0.00, 0.00, 0.00, 0.000, 0.000, 0.000, 14:29:05.053
191, -24970.25, 0.00, 0.00, 0.00, 0.00, 0.00, 0.00, 0.00, 0.000, 0.000, 0.000, 14:29:05.053
192, -24951.16, 0.00, 0.00, 0.00, 0.00, 0.00, 0.00, 0.00, 0.000, 0.000, 0.000, 14:29:05.053
193, -24956.41, 0.00, 0.00, 0.00, 0.00, 0.00, 0.00, 0.00, 0.000, 0.000, 0.000, 14:29:05.053
194, -24957.87, 0.00, 0.00, 0.00, 0.00, 0.00, 0.00, 0.00, 0.000, 0.000, 0.000, 14:29:05.053
195, -24979.57, 0.00, 0.00, 0.00, 0.00, 0.00, 0.00, 0.00, 0.000, 0.000, 0.000, 14:29:05.053
196, -24981.90, 0.00, 0.00, 0.00, 0.00, 0.00, 0.00, 0.00, 0.000, 0.000, 0.000, 14:29:05.053
197, -24961.20, 0.00, 0.00, 0.00, 0.00, 0.00, 0.00, 0.00, 0.000, 0.000, 0.000, 14:29:05.053
198, -24973.87, 0.00, 0.00, 0.00, 0.00, 0.00, 0.00, 0.00, 0.130, 0.824, 0.496, 14:29:05.053
199, -24995.82, 0.00, 0.00, 0.00, 0.00, 0.00, 0.00, 0.00, 0.000, 0.000, 0.000, 14:29:05.053
200, -24970.36, 0.00, 0.00, 0.00, 0.00, 0.00, 0.00, 0.00, 0.000, 0.000, 0.000, 14:29:05.053
201, -24938.62, 0.00, 0.00, 0.00, 0.00, 0.00, 0.00, 0.00, 0.000, 0.000, 0.000, 14:29:05.053
202, -24956.93, 0.00, 0.00, 0.00, 0.00, 0.00, 0.00, 0.00, 0.000, 0.000, 0.000, 14:29:05.053
203, -24970.50, 0.00, 0.00, 0.00, 0.00, 0.00, 0.00, 0.00, 0.000, 0.000, 0.000, 14:29:05.053
204, -24971.70, 0.00, 0.00, 0.00, 0.00, 0.00, 0.00, 0.00, 0.000, 0.000, 0.000, 14:29:05.053
205, -24962.23, 0.00, 0.00, 0.00, 0.00, 0.00, 0.00, 0.00, 0.000, 0.000, 0.000, 14:29:05.053
206, -24979.35, 0.00, 0.00, 0.00, 0.00, 0.00, 0.00, 0.00, 0.000, 0.000, 0.000, 14:29:05.054
207, -24989.18, 0.00, 0.00, 0.00, 0.00, 0.00, 0.00, 0.00, 0.000, 0.000, 0.000, 14:29:05.054
208, -24981.05, 0.00, 0.00, 0.00, 0.00, 0.00, 0.00, 0.00, 0.132, 0.824, 0.498, 14:29:05.054
209, -24955.88, 0.00, 0.00, 0.00, 0.00, 0.00, 0.00, 0.00, 0.000, 0.000, 0.000, 14:29:05.512
210, -24937.55, 0.00, 0.00, 0.00, 0.00, 0.00, 0.00, 0.00, 0.000, 0.000, 0.000, 14:29:05.513
211, -24962.16, 0.00, 0.00, 0.00, 0.00, 0.00, 0.00, 0.00, 0.000, 0.000, 0.000, 14:29:05.513
212, -24997.99, 0.00, 0.00, 0.00, 0.00, 0.00, 0.00, 0.00, 0.000, 0.000, 0.000, 14:29:05.513
213, -25000.18, 0.00, 0.00, 0.00, 0.00, 0.00, 0.00, 0.00, 0.000, 0.000, 0.000, 14:29:05.513
214, -24958.45, 0.00, 0.00, 0.00, 0.00, 0.00, 0.00, 0.00, 0.000, 0.000, 0.000, 14:29:05.513
215, -24953.06, 0.00, 0.00, 0.00, 0.00, 0.00, 0.00, 0.00, 0.000, 0.000, 0.000, 14:29:05.513
216, -24965.38, 0.00, 0.00, 0.00, 0.00, 0.00, 0.00, 0.00, 0.000, 0.000, 0.000, 14:29:05.513
217, -24959.83, 0.00, 0.00, 0.00, 0.00, 0.00, 0.00, 0.00, 0.000, 0.000, 0.000, 14:29:05.513
218, -24953.84, 0.00, 0.00, 0.00, 0.00, 0.00, 0.00, 0.00, 0.134, 0.816, 0.492, 14:29:05.513
219, -24978.77, 0.00, 0.00, 0.00, 0.00, 0.00, 0.00, 0.00, 0.000, 0.000, 0.000, 14:29:05.513
220, -25001.28, 0.00, 0.00, 0.00, 0.00, 0.00, 0.00, 0.00, 0.000, 0.000, 0.000, 14:29:05.513
221, -24974.59, 0.00, 0.00, 0.00, 0.00, 0.00, 0.00, 0.00, 0.000, 0.000, 0.000, 14:29:05.514
222, -24946.22, 0.00, 0.00, 0.00, 0.00, 0.00, 0.00, 0.00, 0.000, 0.000, 0.000, 14:29:05.514
223, -24961.91, 0.00, 0.00, 0.00, 0.00, 0.00, 0.00, 0.00, 0.000, 0.000, 0.000, 14:29:05.514
224, -24985.99, 0.00, 0.00, 0.00, 0.00, 0.00, 0.00, 0.00, 0.000, 0.000, 0.000, 14:29:05.514
225, -24977.54, 0.00, 0.00, 0.00, 0.00, 0.00, 0.00, 0.00, 0.000, 0.000, 0.000, 14:29:05.514
226, -24958.11, 0.00, 0.00, 0.00, 0.00, 0.00, 0.00, 0.00, 0.000, 0.000, 0.000, 14:29:05.514
227, -24966.65, 0.00, 0.00, 0.00, 0.00, 0.00, 0.00, 0.00, 0.000, 0.000, 0.000, 14:29:05.514
228, -24968.82, 0.00, 0.00, 0.00, 0.00, 0.00, 0.00, 0.00, 0.136, 0.818, 0.494, 14:29:05.514
229, -24955.59, 0.00, 0.00, 0.00, 0.00, 0.00, 0.00, 0.00, 0.000, 0.000, 0.000, 14:29:05.514
230, -24954.25, 0.00, 0.00, 0.00, 0.00, 0.00, 0.00, 0.00, 0.000, 0.000, 0.000, 14:29:05.514
231, -24974.32, 0.00, 0.00, 0.00, 0.00, 0.00, 0.00, 0.00, 0.000, 0.000, 0.000, 14:29:05.514
232, -24974.65, 0.00, 0.00, 0.00, 0.00, 0.00, 0.00, 0.00, 0.000, 0.000, 0.000, 14:29:05.514
233, -24980.58, 0.00, 0.00, 0.00, 0.00, 0.00, 0.00, 0.00, 0.000, 0.000, 0.000, 14:29:05.514
234, -24941.53, 0.00, 0.00, 0.00, 0.00, 0.00, 0.00, 0.00, 0.000, 0.000, 0.000, 14:29:05.515
235, -24962.67, 0.00, 0.00, 0.00, 0.00, 0.00, 0.00, 0.00, 0.000, 0.000, 0.000, 14:29:05.515
236, -24980.82, 0.00, 0.00, 0.00, 0.00, 0.00, 0.00, 0.00, 0.000, 0.000, 0.000, 14:29:05.515
237, -24973.80, 0.00, 0.00, 0.00, 0.00, 0.00, 0.00, 0.00, 0.000, 0.000, 0.000, 14:29:05.515
238, -24962.96, 0.00, 0.00, 0.00, 0.00, 0.00, 0.00, 0.00, 0.130, 0.822, 0.496, 14:29:05.515
239, -24957.04, 0.00, 0.00, 0.00, 0.00, 0.00, 0.00, 0.00, 0.000, 0.000, 0.000, 14:29:05.515
240, -24970.27, 0.00, 0.00, 0.00, 0.00, 0.00, 0.00, 0.00, 0.000, 0.000, 0.000, 14:29:05.515
241, -24982.34, 0.00, 0.00, 0.00, 0.00, 0.00, 0.00, 0.00, 0.000, 0.000, 0.000, 14:29:05.515
242, -24955.19, 0.00, 0.00, 0.00, 0.00, 0.00, 0.00, 0.00, 0.000, 0.000, 0.000, 14:29:05.515
243, -24949.55, 0.00, 0.00, 0.00, 0.00, 0.00, 0.00, 0.00, 0.000, 0.000, 0.000, 14:29:05.515
244, -24953.44, 0.00, 0.00, 0.00, 0.00, 0.00, 0.00, 0.00, 0.000, 0.000, 0.000, 14:29:05.515
245, -24976.60, 0.00, 0.00, 0.00, 0.00, 0.00, 0.00, 0.00, 0.000, 0.000, 0.000, 14:29:05.515
246, -24969.87, 0.00, 0.00, 0.00, 0.00, 0.00, 0.00, 0.00, 0.000, 0.000, 0.000, 14:29:05.515
247, -24961.47, 0.00, 0.00, 0.00, 0.00, 0.00, 0.00, 0.00, 0.000, 0.000, 0.000, 14:29:05.515
248, -24971.99, 0.00, 0.00, 0.00, 0.00, 0.00, 0.00, 0.00, 0.134, 0.826, 0.498, 14:29:05.515
249, -24998.21, 0.00, 0.00, 0.00, 0.00, 0.00, 0.00, 0.00, 0.000, 0.000, 0.000, 14:29:05.515
250, -24974.21, 0.00, 0.00, 0.00, 0.00, 0.00, 0.00, 0.00, 0.000, 0.000, 0.000, 14:29:05.515
251, -24973.40, 0.00, 0.00, 0.00, 0.00, 0.00, 0.00, 0.00, 0.000, 0.000, 0.000, 14:29:05.515
252, -24962.07, 0.00, 0.00, 0.00, 0.00, 0.00, 0.00, 0.00, 0.000, 0.000, 0.000, 14:29:05.515
253, -24954.74, 0.00, 0.00, 0.00, 0.00, 0.00, 0.00, 0.00, 0.000, 0.000, 0.000, 14:29:05.516
254, -24952.41, 0.00, 0.00, 0.00, 0.00, 0.00, 0.00, 0.00, 0.000, 0.000, 0.000, 14:29:05.516
255, -24946.83, 0.00, 0.00, 0.00, 0.00, 0.00, 0.00, 0.00, 0.000, 0.000, 0.000, 14:29:05.516
0, -24973.63, 0.00, 0.00, 0.00, 0.00, 0.00, 0.00, 0.00, 0.000, 0.000, 0.000, 14:29:05.516
1, -24979.62, 0.00, 0.00, 0.00, 0.00, 0.00, 0.00, 0.00, 0.000, 0.000, 0.000, 14:29:05.516
2, -24988.51, 0.00, 0.00, 0.00, 0.00, 0.00, 0.00, 0.00, 0.132, 0.828, 0.500, 14:29:05.516
3, -24974.99, 0.00, 0.00, 0.00, 0.00, 0.00, 0.00, 0.00, 0.000, 0.000, 0.000, 14:29:05.516
4, -24942.71, 0.00, 0.00, 0.00, 0.00, 0.00, 0.00, 0.00, 0.000, 0.000, 0.000, 14:29:05.516
5, -24947.43, 0.00, 0.00, 0.00, 0.00, 0.00, 0.00, 0.00, 0.000, 0.000, 0.000, 14:29:05.516
6, -24983.59, 0.00, 0.00, 0.00, 0.00, 0.00, 0.00, 0.00, 0.000, 0.000, 0.000, 14:29:05.516
7, -24967.01, 0.00, 0.00, 0.00, 0.00, 0.00, 0.00, 0.00, 0.000, 0.000, 0.000, 14:29:05.516
8, -24957.87, 0.00, 0.00, 0.00, 0.00, 0.00, 0.00, 0.00, 0.000, 0.000, 0.000, 14:29:05.516
9, -24964.06, 0.00, 0.00, 0.00, 0.00, 0.00, 0.00, 0.00, 0.000, 0.000, 0.000, 14:29:05.516
10, -24971.99, 0.00, 0.00, 0.00, 0.00, 0.00, 0.00, 0.00, 0.000, 0.000, 0.000, 14:29:05.516
11, -24969.42, 0.00, 0.00, 0.00, 0.00, 0.00, 0.00, 0.00, 0.000, 0.000, 0.000, 14:29:05.516
12, -24952.79, 0.00, 0.00, 0.00, 0.00, 0.00, 0.00, 0.00, 0.126, 0.826, 0.502, 14:29:05.516
13, -24968.22, 0.00, 0.00, 0.00, 0.00, 0.00, 0.00, 0.00, 0.000, 0.000, 0.000, 14:29:05.516
14, -24977.16, 0.00, 0.00, 0.00, 0.00, 0.00, 0.00, 0.00, 0.000, 0.000, 0.000, 14:29:05.516
15, -24958.87, 0.00, 0.00, 0.00, 0.00, 0.00, 0.00, 0.00, 0.000, 0.000, 0.000, 14:29:05.516
16, -24949.71, 0.00, 0.00, 0.00, 0.00, 0.00, 0.00, 0.00, 0.000, 0.000, 0.000, 14:29:05.516
17, -24950.49, 0.00, 0.00, 0.00, 0.00, 0.00, 0.00, 0.00, 0.000, 0.000, 0.000, 14:29:05.516
18, -24960.93, 0.00, 0.00, 0.00, 0.00, 0.00, 0.00, 0.00, 0.000, 0.000, 0.000, 14:29:05.517
19, -24969.33, 0.00, 0.00, 0.00, 0.00, 0.00, 0.00, 0.00, 0.000, 0.000, 0.000, 14:29:05.517
20, -24956.55, 0.00, 0.00, 0.00, 0.00, 0.00, 0.00, 0.00, 0.000, 0.000, 0.000, 14:29:05.517
21, -24956.33, 0.00, 0.00, 0.00, 0.00, 0.00, 0.00, 0.00, 0.128, 0.832, 0.498, 14:29:05.517
22, -24985.99, 0.00, 0.00, 0.00, 0.00, 0.00, 0.00, 0.00, 0.000, 0.000, 0.000, 14:29:05.517
23, -25005.34, 0.00, 0.00, 0.00, 0.00, 0.00, 0.00, 0.00, 0.000, 0.000, 0.000, 14:29:05.517
24, -24965.76, 0.00, 0.00, 0.00, 0.00, 0.00, 0.00, 0.00, 0.000, 0.000, 0.000, 14:29:05.517
25, -24958.38, 0.00, 0.00, 0.00, 0.00, 0.00, 0.00, 0.00, 0.000, 0.000, 0.000, 14:29:05.517
26, -24944.12, 0.00, 0.00, 0.00, 0.00, 0.00, 0.00, 0.00, 0.000, 0.000, 0.000, 14:29:05.527
27, -24975.44, 0.00, 0.00, 0.00, 0.00, 0.00, 0.00, 0.00, 0.000, 0.000, 0.000, 14:29:05.527
28, -24960.77, 0.00, 0.00, 0.00, 0.00, 0.00, 0.00, 0.00, 0.000, 0.000, 0.000, 14:29:05.527
29, -24941.17, 0.00, 0.00, 0.00, 0.00, 0.00, 0.00, 0.00, 0.000, 0.000, 0.000, 14:29:05.527
30, -24940.14, 0.00, 0.00, 0.00, 0.00, 0.00, 0.00, 0.00, 0.000, 0.000, 0.000, 14:29:05.527
31, -24975.75, 0.00, 0.00, 0.00, 0.00, 0.00, 0.00, 0.00, 0.130, 0.828, 0.496, 14:29:05.527
32, -24971.50, 0.00, 0.00, 0.00, 0.00, 0.00, 0.00, 0.00, 0.000, 0.000, 0.000, 14:29:05.527
33, -24956.77, 0.00, 0.00, 0.00, 0.00, 0.00, 0.00, 0.00, 0.000, 0.000, 0.000, 14:29:05.527
34, -24960.82, 0.00, 0.00, 0.00, 0.00, 0.00, 0.00, 0.00, 0.000, 0.000, 0.000, 14:29:05.528
35, -24999.80, 0.00, 0.00, 0.00, 0.00, 0.00, 0.00, 0.00, 0.000, 0.000, 0.000, 14:29:05.528
36, -24991.62, 0.00, 0.00, 0.00, 0.00, 0.00, 0.00, 0.00, 0.000, 0.000, 0.000, 14:29:05.528
37, -24946.18, 0.00, 0.00, 0.00, 0.00, 0.00, 0.00, 0.00, 0.000, 0.000, 0.000, 14:29:05.528
38, -24942.80, 0.00, 0.00, 0.00, 0.00, 0.00, 0.00, 0.00, 0.000, 0.000, 0.000, 14:29:05.528
39, -24967.99, 0.00, 0.00, 0.00, 0.00, 0.00, 0.00, 0.00, 0.000, 0.000, 0.000, 14:29:05.528
40, -24988.38, 0.00, 0.00, 0.00, 0.00, 0.00, 0.00, 0.00, 0.000, 0.000, 0.000, 14:29:05.528
41, -24963.97, 0.00, 0.00, 0.00, 0.00, 0.00, 0.00, 0.00, 0.136, 0.828, 0.496, 14:29:05.528
42, -24952.64, 0.00, 0.00, 0.00, 0.00, 0.00, 0.00, 0.00, 0.000, 0.000, 0.000, 14:29:05.528
43, -24973.96, 0.00, 0.00, 0.00, 0.00, 0.00, 0.00, 0.00, 0.000, 0.000, 0.000, 14:29:05.528
44, -24970.34, 0.00, 0.00, 0.00, 0.00, 0.00, 0.00, 0.00, 0.000, 0.000, 0.000, 14:29:05.529
45, -24953.06, 0.00, 0.00, 0.00, 0.00, 0.00, 0.00, 0.00, 0.000, 0.000, 0.000, 14:29:05.529
46, -24958.43, 0.00, 0.00, 0.00, 0.00, 0.00, 0.00, 0.00, 0.000, 0.000, 0.000, 14:29:05.529
47, -24985.54, 0.00, 0.00, 0.00, 0.00, 0.00, 0.00, 0.00, 0.000, 0.000, 0.000, 14:29:05.529
48, -24989.05, 0.00, 0.00, 0.00, 0.00, 0.00, 0.00, 0.00, 0.000, 0.000, 0.000, 14:29:05.529
49, -24962.14, 0.00, 0.00, 0.00, 0.00, 0.00, 0.00, 0.00, 0.000, 0.000, 0.000, 14:29:05.529
50, -24976.87, 0.00, 0.00, 0.00, 0.00, 0.00, 0.00, 0.00, 0.000, 0.000, 0.000, 14:29:05.529
51, -24973.54, 0.00, 0.00, 0.00, 0.00, 0.00, 0.00, 0.00, 0.132, 0.826, 0.498, 14:29:05.529
52, -24973.69, 0.00, 0.00, 0.00, 0.00, 0.00, 0.00, 0.00, 0.000, 0.000, 0.000, 14:29:05.529
53, -24958.76, 0.00, 0.00, 0.00, 0.00, 0.00, 0.00, 0.00, 0.000, 0.000, 0.000, 14:29:05.529
54, -24945.82, 0.00, 0.00, 0.00, 0.00, 0.00, 0.00, 0.00, 0.000, 0.000, 0.000, 14:29:05.529
55, -24969.27, 0.00, 0.00, 0.00, 0.00, 0.00, 0.00, 0.00, 0.000, 0.000, 0.000, 14:29:05.530
56, -24978.90, 0.00, 0.00, 0.00, 0.00, 0.00, 0.00, 0.00, 0.000, 0.000, 0.000, 14:29:05.530
57, -24990.41, 0.00, 0.00, 0.00, 0.00, 0.00, 0.00, 0.00, 0.000, 0.000, 0.000, 14:29:05.530
58, -24964.24, 0.00, 0.00, 0.00, 0.00, 0.00, 0.00, 0.00, 0.000, 0.000, 0.000, 14:29:05.530
59, -24957.22, 0.00, 0.00, 0.00, 0.00, 0.00, 0.00, 0.00, 0.000, 0.000, 0.000, 14:29:05.530
60, -24982.37, 0.00, 0.00, 0.00, 0.00, 0.00, 0.00, 0.00, 0.000, 0.000, 0.000, 14:29:05.530
61, -25001.50, 0.00, 0.00, 0.00, 0.00, 0.00, 0.00, 0.00, 0.130, 0.822, 0.498, 14:29:05.530
62, -24971.35, 0.00, 0.00, 0.00, 0.00, 0.00, 0.00, 0.00, 0.000, 0.000, 0.000, 14:29:05.530
63, -24970.68, 0.00, 0.00, 0.00, 0.00, 0.00, 0.00, 0.00, 0.000, 0.000, 0.000, 14:29:05.530
64, -24969.45, 0.00, 0.00, 0.00, 0.00, 0.00, 0.00, 0.00, 0.000, 0.000, 0.000, 14:29:05.530
65, -24985.40, 0.00, 0.00, 0.00, 0.00, 0.00, 0.00, 0.00, 0.000, 0.000, 0.000, 14:29:05.530
66, -24973.85, 0.00, 0.00, 0.00, 0.00, 0.00, 0.00, 0.00, 0.000, 0.000, 0.000, 14:29:05.530
67, -24970.90, 0.00, 0.00, 0.00, 0.00, 0.00, 0.00, 0.00, 0.000, 0.000, 0.000, 14:29:05.530
68, -24994.97, 0.00, 0.00, 0.00, 0.00, 0.00, 0.00, 0.00, 0.000, 0.000, 0.000, 14:29:05.530
69, -24983.42, 0.00, 0.00, 0.00, 0.00, 0.00, 0.00, 0.00, 0.000, 0.000, 0.000, 14:29:05.530
70, -24944.30, 0.00, 0.00, 0.00, 0.00, 0.00, 0.00, 0.00, 0.000, 0.000, 0.000, 14:29:05.530
71, -24963.19, 0.00, 0.00, 0.00, 0.00, 0.00, 0.00, 0.00, 0.134, 0.826, 0.498, 14:29:05.530
72, -24964.39, 0.00, 0.00, 0.00, 0.00, 0.00, 0.00, 0.00, 0.000, 0.000, 0.000, 14:29:05.530
73, -24975.77, 0.00, 0.00, 0.00, 0.00, 0.00, 0.00, 0.00, 0.000, 0.000, 0.000, 14:29:05.989
74, -24954.92, 0.00, 0.00, 0.00, 0.00, 0.00, 0.00, 0.00, 0.000, 0.000, 0.000, 14:29:05.989
75, -24956.71, 0.00, 0.00, 0.00, 0.00, 0.00, 0.00, 0.00, 0.000, 0.000, 0.000, 14:29:05.989
76, -24982.90, 0.00, 0.00, 0.00, 0.00, 0.00, 0.00, 0.00, 0.000, 0.000, 0.000, 14:29:05.989
77, -24988.96, 0.00, 0.00, 0.00, 0.00, 0.00, 0.00, 0.00, 0.000, 0.000, 0.000, 14:29:05.990
78, -24952.82, 0.00, 0.00, 0.00, 0.00, 0.00, 0.00, 0.00, 0.000, 0.000, 0.000, 14:29:05.990
79, -24954.22, 0.00, 0.00, 0.00, 0.00, 0.00, 0.00, 0.00, 0.000, 0.000, 0.000, 14:29:05.990
80, -24964.64, 0.00, 0.00, 0.00, 0.00, 0.00, 0.00, 0.00, 0.000, 0.000, 0.000, 14:29:05.990
81, -24986.32, 0.00, 0.00, 0.00, 0.00, 0.00, 0.00, 0.00, 0.136, 0.828, 0.496, 14:29:05.991
82, -24970.27, 0.00, 0.00, 0.00, 0.00, 0.00, 0.00, 0.00, 0.000, 0.000, 0.000, 14:29:05.991
83, -24952.68, 0.00, 0.00, 0.00, 0.00, 0.00, 0.00, 0.00, 0.000, 0.000, 0.000, 14:29:05.991
84, -24970.50, 0.00, 0.00, 0.00, 0.00, 0.00, 0.00, 0.00, 0.000, 0.000, 0.000, 14:29:05.991
85, -24987.06, 0.00, 0.00, 0.00, 0.00, 0.00, 0.00, 0.00, 0.000, 0.000, 0.000, 14:29:05.991
86, -24965.02, 0.00, 0.00, 0.00, 0.00, 0.00, 0.00, 0.00, 0.000, 0.000, 0.000, 14:29:05.991
87, -24956.66, 0.00, 0.00, 0.00, 0.00, 0.00, 0.00, 0.00, 0.000, 0.000, 0.000, 14:29:05.991
88, -24974.54, 0.00, 0.00, 0.00, 0.00, 0.00, 0.00, 0.00, 0.000, 0.000, 0.000, 14:29:05.991
89, -24995.60, 0.00, 0.00, 0.00, 0.00, 0.00, 0.00, 0.00, 0.000, 0.000, 0.000, 14:29:05.991
90, -24986.34, 0.00, 0.00, 0.00, 0.00, 0.00, 0.00, 0.00, 0.000, 0.000, 0.000, 14:29:05.991
91, -24949.26, 0.00, 0.00, 0.00, 0.00, 0.00, 0.00, 0.00, 0.134, 0.828, 0.490, 14:29:05.992
92, -24947.59, 0.00, 0.00, 0.00, 0.00, 0.00, 0.00, 0.00, 0.000, 0.000, 0.000, 14:29:05.992
93, -24969.13, 0.00, 0.00, 0.00, 0.00, 0.00, 0.00, 0.00, 0.000, 0.000, 0.000, 14:29:05.992
94, -24982.52, 0.00, 0.00, 0.00, 0.00, 0.00, 0.00, 0.00, 0.000, 0.000, 0.000, 14:29:05.992
95, -24953.55, 0.00, 0.00, 0.00, 0.00, 0.00, 0.00, 0.00, 0.000, 0.000, 0.000, 14:29:05.992
96, -24938.71, 0.00, 0.00, 0.00, 0.00, 0.00, 0.00, 0.00, 0.000, 0.000, 0.000, 14:29:05.992
97, -24968.19, 0.00, 0.00, 0.00, 0.00, 0.00, 0.00, 0.00, 0.000, 0.000, 0.000, 14:29:05.992
98, -24977.20, 0.00, 0.00, 0.00, 0.00, 0.00, 0.00, 0.00, 0.000, 0.000, 0.000, 14:29:05.992
99, -24940.46, 0.00, 0.00, 0.00, 0.00, 0.00, 0.00, 0.00, 0.000, 0.000, 0.000, 14:29:05.993
100, -24935.22, 0.00, 0.00, 0.00, 0.00, 0.00, 0.00, 0.00, 0.000, 0.000, 0.000, 14:29:05.993
101, -24973.76, 0.00, 0.00, 0.00, 0.00, 0.00, 0.00, 0.00, 0.136, 0.824, 0.496, 14:29:05.993
102, -25005.72, 0.00, 0.00, 0.00, 0.00, 0.00, 0.00, 0.00, 0.000, 0.000, 0.000, 14:29:05.993
103, -24975.03, 0.00, 0.00, 0.00, 0.00, 0.00, 0.00, 0.00, 0.000, 0.000, 0.000, 14:29:05.993
104, -24934.09, 0.00, 0.00, 0.00, 0.00, 0.00, 0.00, 0.00, 0.000, 0.000, 0.000, 14:29:05.994
105, -24950.89, 0.00, 0.00, 0.00, 0.00, 0.00, 0.00, 0.00, 0.000, 0.000, 0.000, 14:29:05.994
106, -24981.13, 0.00, 0.00, 0.00, 0.00, 0.00, 0.00, 0.00, 0.000, 0.000, 0.000, 14:29:05.994
107, -24977.31, 0.00, 0.00, 0.00, 0.00, 0.00, 0.00, 0.00, 0.000, 0.000, 0.000, 14:29:05.994
108, -24952.73, 0.00, 0.00, 0.00, 0.00, 0.00, 0.00, 0.00, 0.000, 0.000, 0.000, 14:29:05.995
109, -24984.15, 0.00, 0.00, 0.00, 0.00, 0.00, 0.00, 0.00, 0.000, 0.000, 0.000, 14:29:05.995
110, -24997.36, 0.00, 0.00, 0.00, 0.00, 0.00, 0.00, 0.00, 0.000, 0.000, 0.000, 14:29:05.995
111, -24963.52, 0.00, 0.00, 0.00, 0.00, 0.00, 0.00, 0.00, 0.134, 0.818, 0.494, 14:29:05.995
112, -24940.99, 0.00, 0.00, 0.00, 0.00, 0.00, 0.00, 0.00, 0.000, 0.000, 0.000, 14:29:05.995
113, -24964.75, 0.00, 0.00, 0.00, 0.00, 0.00, 0.00, 0.00, 0.000, 0.000, 0.000, 14:29:05.995
114, -24970.56, 0.00, 0.00, 0.00, 0.00, 0.00, 0.00, 0.00, 0.000, 0.000, 0.000, 14:29:05.995
115, -24972.06, 0.00, 0.00, 0.00, 0.00, 0.00, 0.00, 0.00, 0.000, 0.000, 0.000, 14:29:05.995
116, -24953.02, 0.00, 0.00, 0.00, 0.00, 0.00, 0.00, 0.00, 0.000, 0.000, 0.000, 14:29:05.996
117, -24961.58, 0.00, 0.00, 0.00, 0.00, 0.00, 0.00, 0.00, 0.000, 0.000, 0.000, 14:29:05.996
118, -24974.88, 0.00, 0.00, 0.00, 0.00, 0.00, 0.00, 0.00, 0.000, 0.000, 0.000, 14:29:05.996
119, -24955.21, 0.00, 0.00, 0.00, 0.00, 0.00, 0.00, 0.00, 0.000, 0.000, 0.000, 14:29:05.996
120, -24942.89, 0.00, 0.00, 0.00, 0.00, 0.00, 0.00, 0.00, 0.000, 0.000, 0.000, 14:29:05.996
121, -24965.76, 0.00, 0.00, 0.00, 0.00, 0.00, 0.00, 0.00, 0.136, 0.822, 0.494, 14:29:05.997
122, -25008.40, 0.00, 0.00, 0.00, 0.00, 0.00, 0.00, 0.00, 0.000, 0.000, 0.000, 14:29:05.997
123, -24990.08, 0.00, 0.00, 0.00, 0.00, 0.00, 0.00, 0.00, 0.000, 0.000, 0.000, 14:29:05.997
124, -24944.57, 0.00, 0.00, 0.00, 0.00, 0.00, 0.00, 0.00, 0.000, 0.000, 0.000, 14:29:05.997
125, -24956.93, 0.00, 0.00, 0.00, 0.00, 0.00, 0.00, 0.00, 0.000, 0.000, 0.000, 14:29:05.997
126, -24988.56, 0.00, 0.00, 0.00, 0.00, 0.00, 0.00, 0.00, 0.000, 0.000, 0.000, 14:29:05.997
127, -24974.63, 0.00, 0.00, 0.00, 0.00, 0.00, 0.00, 0.00, 0.000, 0.000, 0.000, 14:29:05.998
128, -24966.74, 0.00, 0.00, 0.00, 0.00, 0.00, 0.00, 0.00, 0.000, 0.000, 0.000, 14:29:05.998
129, -24984.64, 0.00, 0.00, 0.00, 0.00, 0.00, 0.00, 0.00, 0.000, 0.000, 0.000, 14:29:05.998
130, -24964.97, 0.00, 0.00, 0.00, 0.00, 0.00, 0.00, 0.00, 0.130, 0.822, 0.498, 14:29:05.998
131, -24954.25, 0.00, 0.00, 0.00, 0.00, 0.00, 0.00, 0.00, 0.000, 0.000, 0.000, 14:29:05.998
132, -24960.19, 0.00, 0.00, 0.00, 0.00, 0.00, 0.00, 0.00, 0.000, 0.000, 0.000, 14:29:05.998
133, -24936.07, 0.00, 0.00, 0.00, 0.00, 0.00, 0.00, 0.00, 0.000, 0.000, 0.000, 14:29:05.999
134, -24959.19, 0.00, 0.00, 0.00, 0.00, 0.00, 0.00, 0.00, 0.000, 0.000, 0.000, 14:29:05.999
135, -24993.18, 0.00, 0.00, 0.00, 0.00, 0.00, 0.00, 0.00, 0.000, 0.000, 0.000, 14:29:05.999
136, -24956.53, 0.00, 0.00, 0.00, 0.00, 0.00, 0.00, 0.00, 0.000, 0.000, 0.000, 14:29:05.999
137, -24940.54, 0.00, 0.00, 0.00, 0.00, 0.00, 0.00, 0.00, 0.000, 0.000, 0.000, 14:29:05.999
138, -24947.59, 0.00, 0.00, 0.00, 0.00, 0.00, 0.00, 0.00, 0.000, 0.000, 0.000, 14:29:05.999
139, -24974.70, 0.00, 0.00, 0.00, 0.00, 0.00, 0.00, 0.00, 0.000, 0.000, 0.000, 14:29:06.000
140, -24994.99, 0.00, 0.00, 0.00, 0.00, 0.00, 0.00, 0.00, 0.128, 0.822, 0.502, 14:29:06.000
141, -24965.94, 0.00, 0.00, 0.00, 0.00, 0.00, 0.00, 0.00, 0.000, 0.000, 0.000, 14:29:06.000
142, -24946.27, 0.00, 0.00, 0.00, 0.00, 0.00, 0.00, 0.00, 0.000, 0.000, 0.000, 14:29:06.000
143, -24963.52, 0.00, 0.00, 0.00, 0.00, 0.00, 0.00, 0.00, 0.000, 0.000, 0.000, 14:29:06.000
144, -24990.39, 0.00, 0.00, 0.00, 0.00, 0.00, 0.00, 0.00, 0.000, 0.000, 0.000, 14:29:06.000
145, -24967.28, 0.00, 0.00, 0.00, 0.00, 0.00, 0.00, 0.00, 0.000, 0.000, 0.000, 14:29:06.000
146, -24969.40, 0.00, 0.00, 0.00, 0.00, 0.00, 0.00, 0.00, 0.000, 0.000, 0.000, 14:29:06.000
147, -24979.73, 0.00, 0.00, 0.00, 0.00, 0.00, 0.00, 0.00, 0.000, 0.000, 0.000, 14:29:06.000
148, -24977.43, 0.00, 0.00, 0.00, 0.00, 0.00, 0.00, 0.00, 0.000, 0.000, 0.000, 14:29:06.001
149, -24956.73, 0.00, 0.00, 0.00, 0.00, 0.00, 0.00, 0.00, 0.000, 0.000, 0.000, 14:29:06.001
150, -24946.69, 0.00, 0.00, 0.00, 0.00, 0.00, 0.00, 0.00, 0.130, 0.826, 0.500, 14:29:06.001
151, -24975.68, 0.00, 0.00, 0.00, 0.00, 0.00, 0.00, 0.00, 0.000, 0.000, 0.000, 14:29:06.001
152, -25002.71, 0.00, 0.00, 0.00, 0.00, 0.00, 0.00, 0.00, 0.000, 0.000, 0.000, 14:29:06.001
153, -24949.24, 0.00, 0.00, 0.00, 0.00, 0.00, 0.00, 0.00, 0.000, 0.000, 0.000, 14:29:06.001
154, -24924.25, 0.00, 0.00, 0.00, 0.00, 0.00, 0.00, 0.00, 0.000, 0.000, 0.000, 14:29:06.001
155, -24940.77, 0.00, 0.00, 0.00, 0.00, 0.00, 0.00, 0.00, 0.000, 0.000, 0.000, 14:29:06.002
156, -24970.45, 0.00, 0.00, 0.00, 0.00, 0.00, 0.00, 0.00, 0.000, 0.000, 0.000, 14:29:06.002
157, -24965.62, 0.00, 0.00, 0.00, 0.00, 0.00, 0.00, 0.00, 0.000, 0.000, 0.000, 14:29:06.002
158, -24957.24, 0.00, 0.00, 0.00, 0.00, 0.00, 0.00, 0.00, 0.000, 0.000, 0.000, 14:29:06.002
159, -24970.74, 0.00, 0.00, 0.00, 0.00, 0.00, 0.00, 0.00, 0.000, 0.000, 0.000, 14:29:06.002
160, -24960.91, 0.00, 0.00, 0.00, 0.00, 0.00, 0.00, 0.00, 0.132, 0.822, 0.496, 14:29:06.002
161, -24972.71, 0.00, 0.00, 0.00, 0.00, 0.00, 0.00, 0.00, 0.000, 0.000, 0.000, 14:29:06.002
162, -24947.45, 0.00, 0.00, 0.00, 0.00, 0.00, 0.00, 0.00, 0.000, 0.000, 0.000, 14:29:06.016
163, -24943.23, 0.00, 0.00, 0.00, 0.00, 0.00, 0.00, 0.00, 0.000, 0.000, 0.000, 14:29:06.016
164, -24976.04, 0.00, 0.00, 0.00, 0.00, 0.00, 0.00, 0.00, 0.000, 0.000, 0.000, 14:29:06.017
165, -24986.70, 0.00, 0.00, 0.00, 0.00, 0.00, 0.00, 0.00, 0.000, 0.000, 0.000, 14:29:06.017
166, -24966.05, 0.00, 0.00, 0.00, 0.00, 0.00, 0.00, 0.00, 0.000, 0.000, 0.000, 14:29:06.017
167, -24958.45, 0.00, 0.00, 0.00, 0.00, 0.00, 0.00, 0.00, 0.000, 0.000, 0.000, 14:29:06.018
168, -24991.08, 0.00, 0.00, 0.00, 0.00, 0.00, 0.00, 0.00, 0.000, 0.000, 0.000, 14:29:06.018
169, -24995.82, 0.00, 0.00, 0.00, 0.00, 0.00, 0.00, 0.00, 0.000, 0.000, 0.000, 14:29:06.018
170, -24963.14, 0.00, 0.00, 0.00, 0.00, 0.00, 0.00, 0.00, 0.132, 0.822, 0.494, 14:29:06.018
171, -24956.75, 0.00, 0.00, 0.00, 0.00, 0.00, 0.00, 0.00, 0.000, 0.000, 0.000, 14:29:06.018
172, -24950.38, 0.00, 0.00, 0.00, 0.00, 0.00, 0.00, 0.00, 0.000, 0.000, 0.000, 14:29:06.018
173, -24971.61, 0.00, 0.00, 0.00, 0.00, 0.00, 0.00, 0.00, 0.000, 0.000, 0.000, 14:29:06.018
174, -24956.93, 0.00, 0.00, 0.00, 0.00, 0.00, 0.00, 0.00, 0.000, 0.000, 0.000, 14:29:06.018
175, -24927.18, 0.00, 0.00, 0.00, 0.00, 0.00, 0.00, 0.00, 0.000, 0.000, 0.000, 14:29:06.018
176, -24940.25, 0.00, 0.00, 0.00, 0.00, 0.00, 0.00, 0.00, 0.000, 0.000, 0.000, 14:29:06.018
177, -24986.50, 0.00, 0.00, 0.00, 0.00, 0.00, 0.00, 0.00, 0.000, 0.000, 0.000, 14:29:06.018
178, -24982.79, 0.00, 0.00, 0.00, 0.00, 0.00, 0.00, 0.00, 0.000, 0.000, 0.000, 14:29:06.018
179, -24961.73, 0.00, 0.00, 0.00, 0.00, 0.00, 0.00, 0.00, 0.000, 0.000, 0.000, 14:29:06.018
180, -24957.40, 0.00, 0.00, 0.00, 0.00, 0.00, 0.00, 0.00, 0.134, 0.828, 0.494, 14:29:06.019
181, -24969.31, 0.00, 0.00, 0.00, 0.00, 0.00, 0.00, 0.00, 0.000, 0.000, 0.000, 14:29:06.019
182, -24970.34, 0.00, 0.00, 0.00, 0.00, 0.00, 0.00, 0.00, 0.000, 0.000, 0.000, 14:29:06.019
183, -24953.55, 0.00, 0.00, 0.00, 0.00, 0.00, 0.00, 0.00, 0.000, 0.000, 0.000, 14:29:06.019
184, -24963.72, 0.00, 0.00, 0.00, 0.00, 0.00, 0.00, 0.00, 0.000, 0.000, 0.000, 14:29:06.019
185, -24980.04, 0.00, 0.00, 0.00, 0.00, 0.00, 0.00, 0.00, 0.000, 0.000, 0.000, 14:29:06.019
186, -24955.77, 0.00, 0.00, 0.00, 0.00, 0.00, 0.00, 0.00, 0.000, 0.000, 0.000, 14:29:06.019
187, -24958.94, 0.00, 0.00, 0.00, 0.00, 0.00, 0.00, 0.00, 0.000, 0.000, 0.000, 14:29:06.019
188, -24974.16, 0.00, 0.00, 0.00, 0.00, 0.00, 0.00, 0.00, 0.000, 0.000, 0.000, 14:29:06.019
189, -24993.41, 0.00, 0.00, 0.00, 0.00, 0.00, 0.00, 0.00, 0.000, 0.000, 0.000, 14:29:06.019
190, -24976.33, 0.00, 0.00, 0.00, 0.00, 0.00, 0.00, 0.00, 0.130, 0.826, 0.496, 14:29:06.019
191, -24944.68, 0.00, 0.00, 0.00, 0.00, 0.00, 0.00, 0.00, 0.000, 0.000, 0.000, 14:29:06.020
192, -24956.62, 0.00, 0.00, 0.00, 0.00, 0.00, 0.00, 0.00, 0.000, 0.000, 0.000, 14:29:06.020
193, -24982.12, 0.00, 0.00, 0.00, 0.00, 0.00, 0.00, 0.00, 0.000, 0.000, 0.000, 14:29:06.472
194, -24982.50, 0.00, 0.00, 0.00, 0.00, 0.00, 0.00, 0.00, 0.000, 0.000, 0.000, 14:29:06.472
195, -24934.94, 0.00, 0.00, 0.00, 0.00, 0.00, 0.00, 0.00, 0.000, 0.000, 0.000, 14:29:06.472
196, -24934.87, 0.00, 0.00, 0.00, 0.00, 0.00, 0.00, 0.00, 0.000, 0.000, 0.000, 14:29:06.472
197, -24961.80, 0.00, 0.00, 0.00, 0.00, 0.00, 0.00, 0.00, 0.000, 0.000, 0.000, 14:29:06.473
198, -24987.48, 0.00, 0.00, 0.00, 0.00, 0.00, 0.00, 0.00, 0.000, 0.000, 0.000, 14:29:06.473
199, -24953.49, 0.00, 0.00, 0.00, 0.00, 0.00, 0.00, 0.00, 0.000, 0.000, 0.000, 14:29:06.473
200, -24926.17, 0.00, 0.00, 0.00, 0.00, 0.00, 0.00, 0.00, 0.132, 0.826, 0.504, 14:29:06.473
201, -24946.56, 0.00, 0.00, 0.00, 0.00, 0.00, 0.00, 0.00, 0.000, 0.000, 0.000, 14:29:06.474
202, -24967.03, 0.00, 0.00, 0.00, 0.00, 0.00, 0.00, 0.00, 0.000, 0.000, 0.000, 14:29:06.474
203, -24980.20, 0.00, 0.00, 0.00, 0.00, 0.00, 0.00, 0.00, 0.000, 0.000, 0.000, 14:29:06.474
204, -24924.25, 0.00, 0.00, 0.00, 0.00, 0.00, 0.00, 0.00, 0.000, 0.000, 0.000, 14:29:06.474
205, -24937.59, 0.00, 0.00, 0.00, 0.00, 0.00, 0.00, 0.00, 0.000, 0.000, 0.000, 14:29:06.474
206, -24999.55, 0.00, 0.00, 0.00, 0.00, 0.00, 0.00, 0.00, 0.000, 0.000, 0.000, 14:29:06.475
207, -24975.03, 0.00, 0.00, 0.00, 0.00, 0.00, 0.00, 0.00, 0.000, 0.000, 0.000, 14:29:06.475
208, -24947.45, 0.00, 0.00, 0.00, 0.00, 0.00, 0.00, 0.00, 0.000, 0.000, 0.000, 14:29:06.475
209, -24956.17, 0.00, 0.00, 0.00, 0.00, 0.00, 0.00, 0.00, 0.000, 0.000, 0.000, 14:29:06.475
210, -24968.55, 0.00, 0.00, 0.00, 0.00, 0.00, 0.00, 0.00, 0.136, 0.822, 0.504, 14:29:06.476
211, -24962.76, 0.00, 0.00, 0.00, 0.00, 0.00, 0.00, 0.00, 0.000, 0.000, 0.000, 14:29:06.476
212, -24965.13, 0.00, 0.00, 0.00, 0.00, 0.00, 0.00, 0.00, 0.000, 0.000, 0.000, 14:29:06.476
213, -24975.26, 0.00, 0.00, 0.00, 0.00, 0.00, 0.00, 0.00, 0.000, 0.000, 0.000, 14:29:06.476
214, -24966.56, 0.00, 0.00, 0.00, 0.00, 0.00, 0.00, 0.00, 0.000, 0.000, 0.000, 14:29:06.477
215, -24960.35, 0.00, 0.00, 0.00, 0.00, 0.00, 0.00, 0.00, 0.000, 0.000, 0.000, 14:29:06.477
216, -24934.13, 0.00, 0.00, 0.00, 0.00, 0.00, 0.00, 0.00, 0.000, 0.000, 0.000, 14:29:06.477
217, -24938.27, 0.00, 0.00, 0.00, 0.00, 0.00, 0.00, 0.00, 0.000, 0.000, 0.000, 14:29:06.477
218, -24971.41, 0.00, 0.00, 0.00, 0.00, 0.00, 0.00, 0.00, 0.000, 0.000, 0.000, 14:29:06.478
219, -24966.67, 0.00, 0.00, 0.00, 0.00, 0.00, 0.00, 0.00, 0.000, 0.000, 0.000, 14:29:06.478
220, -24961.91, 0.00, 0.00, 0.00, 0.00, 0.00, 0.00, 0.00, 0.132, 0.822, 0.494, 14:29:06.478
221, -24957.00, 0.00, 0.00, 0.00, 0.00, 0.00, 0.00, 0.00, 0.000, 0.000, 0.000, 14:29:06.478
222, -24968.22, 0.00, 0.00, 0.00, 0.00, 0.00, 0.00, 0.00, 0.000, 0.000, 0.000, 14:29:06.479
223, -24961.51, 0.00, 0.00, 0.00, 0.00, 0.00, 0.00, 0.00, 0.000, 0.000, 0.000, 14:29:06.479
224, -24940.39, 0.00, 0.00, 0.00, 0.00, 0.00, 0.00, 0.00, 0.000, 0.000, 0.000, 14:29:06.479
225, -24936.63, 0.00, 0.00, 0.00, 0.00, 0.00, 0.00, 0.00, 0.000, 0.000, 0.000, 14:29:06.479
226, -24937.73, 0.00, 0.00, 0.00, 0.00, 0.00, 0.00, 0.00, 0.000, 0.000, 0.000, 14:29:06.480
227, -24973.31, 0.00, 0.00, 0.00, 0.00, 0.00, 0.00, 0.00, 0.000, 0.000, 0.000, 14:29:06.480
228, -24979.15, 0.00, 0.00, 0.00, 0.00, 0.00, 0.00, 0.00, 0.000, 0.000, 0.000, 14:29:06.480
229, -24955.97, 0.00, 0.00, 0.00, 0.00, 0.00, 0.00, 0.00, 0.000, 0.000, 0.000, 14:29:06.480
230, -24933.57, 0.00, 0.00, 0.00, 0.00, 0.00, 0.00, 0.00, 0.134, 0.822, 0.498, 14:29:06.481
231, -24961.18, 0.00, 0.00, 0.00, 0.00, 0.00, 0.00, 0.00, 0.000, 0.000, 0.000, 14:29:06.481
232, -24960.95, 0.00, 0.00, 0.00, 0.00, 0.00, 0.00, 0.00, 0.000, 0.000, 0.000, 14:29:06.481
233, -24957.38, 0.00, 0.00, 0.00, 0.00, 0.00, 0.00, 0.00, 0.000, 0.000, 0.000, 14:29:06.482
234, -24961.18, 0.00, 0.00, 0.00, 0.00, 0.00, 0.00, 0.00, 0.000, 0.000, 0.000, 14:29:06.482
235, -24972.17, 0.00, 0.00, 0.00, 0.00, 0.00, 0.00, 0.00, 0.000, 0.000, 0.000, 14:29:06.482
236, -24972.42, 0.00, 0.00, 0.00, 0.00, 0.00, 0.00, 0.00, 0.000, 0.000, 0.000, 14:29:06.482
237, -24948.99, 0.00, 0.00, 0.00, 0.00, 0.00, 0.00, 0.00, 0.000, 0.000, 0.000, 14:29:06.483
238, -24954.36, 0.00, 0.00, 0.00, 0.00, 0.00, 0.00, 0.00, 0.000, 0.000, 0.000, 14:29:06.483
239, -24970.74, 0.00, 0.00, 0.00, 0.00, 0.00, 0.00, 0.00, 0.130, 0.828, 0.494, 14:29:06.483
240, -24973.36, 0.00, 0.00, 0.00, 0.00, 0.00, 0.00, 0.00, 0.000, 0.000, 0.000, 14:29:06.483
241, -24937.97, 0.00, 0.00, 0.00, 0.00, 0.00, 0.00, 0.00, 0.000, 0.000, 0.000, 14:29:06.484
242, -24945.62, 0.00, 0.00, 0.00, 0.00, 0.00, 0.00, 0.00, 0.000, 0.000, 0.000, 14:29:06.484
243, -24959.68, 0.00, 0.00, 0.00, 0.00, 0.00, 0.00, 0.00, 0.000, 0.000, 0.000, 14:29:06.484
244, -24973.80, 0.00, 0.00, 0.00, 0.00, 0.00, 0.00, 0.00, 0.000, 0.000, 0.000, 14:29:06.484
245, -24955.21, 0.00, 0.00, 0.00, 0.00, 0.00, 0.00, 0.00, 0.000, 0.000, 0.000, 14:29:06.485
246, -24951.54, 0.00, 0.00, 0.00, 0.00, 0.00, 0.00, 0.00, 0.000, 0.000, 0.000, 14:29:06.485
247, -24951.81, 0.00, 0.00, 0.00, 0.00, 0.00, 0.00, 0.00, 0.000, 0.000, 0.000, 14:29:06.485
248, -24971.79, 0.00, 0.00, 0.00, 0.00, 0.00, 0.00, 0.00, 0.000, 0.000, 0.000, 14:29:06.486
249, -24951.77, 0.00, 0.00, 0.00, 0.00, 0.00, 0.00, 0.00, 0.136, 0.820, 0.494, 14:29:06.486
250, -24911.91, 0.00, 0.00, 0.00, 0.00, 0.00, 0.00, 0.00, 0.000, 0.000, 0.000, 14:29:06.486
251, -24962.23, 0.00, 0.00, 0.00, 0.00, 0.00, 0.00, 0.00, 0.000, 0.000, 0.000, 14:29:06.486
252, -25012.58, 0.00, 0.00, 0.00, 0.00, 0.00, 0.00, 0.00, 0.000, 0.000, 0.000, 14:29:06.487
253, -24964.53, 0.00, 0.00, 0.00, 0.00, 0.00, 0.00, 0.00, 0.000, 0.000, 0.000, 14:29:06.487
254, -24944.23, 0.00, 0.00, 0.00, 0.00, 0.00, 0.00, 0.00, 0.000, 0.000, 0.000, 14:29:06.487
255, -24948.61, 0.00, 0.00, 0.00, 0.00, 0.00, 0.00, 0.00, 0.000, 0.000, 0.000, 14:29:06.487
0, -24957.80, 0.00, 0.00, 0.00, 0.00, 0.00, 0.00, 0.00, 0.000, 0.000, 0.000, 14:29:06.488
1, -24950.42, 0.00, 0.00, 0.00, 0.00, 0.00, 0.00, 0.00, 0.000, 0.000, 0.000, 14:29:06.488
2, -24939.58, 0.00, 0.00, 0.00, 0.00, 0.00, 0.00, 0.00, 0.000, 0.000, 0.000, 14:29:06.488
3, -24958.70, 0.00, 0.00, 0.00, 0.00, 0.00, 0.00, 0.00, 0.134, 0.816, 0.494, 14:29:06.488
4, -24995.24, 0.00, 0.00, 0.00, 0.00, 0.00, 0.00, 0.00, 0.000, 0.000, 0.000, 14:29:06.489
5, -24950.74, 0.00, 0.00, 0.00, 0.00, 0.00, 0.00, 0.00, 0.000, 0.000, 0.000, 14:29:06.489
6, -24947.32, 0.00, 0.00, 0.00, 0.00, 0.00, 0.00, 0.00, 0.000, 0.000, 0.000, 14:29:06.489
7, -24949.64, 0.00, 0.00, 0.00, 0.00, 0.00, 0.00, 0.00, 0.000, 0.000, 0.000, 14:29:06.490
8, -24946.40, 0.00, 0.00, 0.00, 0.00, 0.00, 0.00, 0.00, 0.000, 0.000, 0.000, 14:29:06.490
9, -24969.29, 0.00, 0.00, 0.00, 0.00, 0.00, 0.00, 0.00, 0.000, 0.000, 0.000, 14:29:06.490
10, -24961.94, 0.00, 0.00, 0.00, 0.00, 0.00, 0.00, 0.00, 0.000, 0.000, 0.000, 14:29:06.490
11, -24965.20, 0.00, 0.00, 0.00, 0.00, 0.00, 0.00, 0.00, 0.000, 0.000, 0.000, 14:29:06.491
12, -24983.48, 0.00, 0.00, 0.00, 0.00, 0.00, 0.00, 0.00, 0.000, 0.000, 0.000, 14:29:06.491
13, -24995.22, 0.00, 0.00, 0.00, 0.00, 0.00, 0.00, 0.00, 0.134, 0.818, 0.492, 14:29:06.491
14, -24944.81, 0.00, 0.00, 0.00, 0.00, 0.00, 0.00, 0.00, 0.000, 0.000, 0.000, 14:29:06.492
15, -24948.05, 0.00, 0.00, 0.00, 0.00, 0.00, 0.00, 0.00, 0.000, 0.000, 0.000, 14:29:06.492
16, -24949.84, 0.00, 0.00, 0.00, 0.00, 0.00, 0.00, 0.00, 0.000, 0.000, 0.000, 14:29:06.492
17, -24966.27, 0.00, 0.00, 0.00, 0.00, 0.00, 0.00, 0.00, 0.000, 0.000, 0.000, 14:29:06.492
18, -24960.24, 0.00, 0.00, 0.00, 0.00, 0.00, 0.00, 0.00, 0.000, 0.000, 0.000, 14:29:06.492
19, -24940.39, 0.00, 0.00, 0.00, 0.00, 0.00, 0.00, 0.00, 0.000, 0.000, 0.000, 14:29:06.492
20, -24951.54, 0.00, 0.00, 0.00, 0.00, 0.00, 0.00, 0.00, 0.000, 0.000, 0.000, 14:29:06.492
21, -24988.87, 0.00, 0.00, 0.00, 0.00, 0.00, 0.00, 0.00, 0.000, 0.000, 0.000, 14:29:06.493
22, -24954.54, 0.00, 0.00, 0.00, 0.00, 0.00, 0.00, 0.00, 0.000, 0.000, 0.000, 14:29:06.493
23, -24933.28, 0.00, 0.00, 0.00, 0.00, 0.00, 0.00, 0.00, 0.132, 0.820, 0.492, 14:29:06.493
24, -24949.91, 0.00, 0.00, 0.00, 0.00, 0.00, 0.00, 0.00, 0.000, 0.000, 0.000, 14:29:06.493
25, -24956.37, 0.00, 0.00, 0.00, 0.00, 0.00, 0.00, 0.00, 0.000, 0.000, 0.000, 14:29:06.493
26, -24969.63, 0.00, 0.00, 0.00, 0.00, 0.00, 0.00, 0.00, 0.000, 0.000, 0.000, 14:29:06.493
27, -24930.33, 0.00, 0.00, 0.00, 0.00, 0.00, 0.00, 0.00, 0.000, 0.000, 0.000, 14:29:06.493
28, -24925.70, 0.00, 0.00, 0.00, 0.00, 0.00, 0.00, 0.00, 0.000, 0.000, 0.000, 14:29:06.494
29, -24960.62, 0.00, 0.00, 0.00, 0.00, 0.00, 0.00, 0.00, 0.000, 0.000, 0.000, 14:29:06.494
30, -24981.70, 0.00, 0.00, 0.00, 0.00, 0.00, 0.00, 0.00, 0.000, 0.000, 0.000, 14:29:06.494
31, -24965.06, 0.00, 0.00, 0.00, 0.00, 0.00, 0.00, 0.00, 0.000, 0.000, 0.000, 14:29:06.494
32, -24947.47, 0.00, 0.00, 0.00, 0.00, 0.00, 0.00, 0.00, 0.000, 0.000, 0.000, 14:29:06.494
33, -24962.79, 0.00, 0.00, 0.00, 0.00, 0.00, 0.00, 0.00, 0.130, 0.824, 0.488, 14:29:06.494
34, -24948.21, 0.00, 0.00, 0.00, 0.00, 0.00, 0.00, 0.00, 0.000, 0.000, 0.000, 14:29:06.494
35, -24951.86, 0.00, 0.00, 0.00, 0.00, 0.00, 0.00, 0.00, 0.000, 0.000, 0.000, 14:29:06.495
36, -24957.49, 0.00, 0.00, 0.00, 0.00, 0.00, 0.00, 0.00, 0.000, 0.000, 0.000, 14:29:06.495
37, -24960.17, 0.00, 0.00, 0.00, 0.00, 0.00, 0.00, 0.00, 0.000, 0.000, 0.000, 14:29:06.501
38, -24977.40, 0.00, 0.00, 0.00, 0.00, 0.00, 0.00, 0.00, 0.000, 0.000, 0.000, 14:29:06.501
39, -24946.60, 0.00, 0.00, 0.00, 0.00, 0.00, 0.00, 0.00, 0.000, 0.000, 0.000, 14:29:06.502
40, -24943.07, 0.00, 0.00, 0.00, 0.00, 0.00, 0.00, 0.00, 0.000, 0.000, 0.000, 14:29:06.502
41, -24943.67, 0.00, 0.00, 0.00, 0.00, 0.00, 0.00, 0.00, 0.000, 0.000, 0.000, 14:29:06.502
42, -24979.79, 0.00, 0.00, 0.00, 0.00, 0.00, 0.00, 0.00, 0.000, 0.000, 0.000, 14:29:06.502
43, -24971.93, 0.00, 0.00, 0.00, 0.00, 0.00, 0.00, 0.00, 0.128, 0.826, 0.490, 14:29:06.502
44, -24948.21, 0.00, 0.00, 0.00, 0.00, 0.00, 0.00, 0.00, 0.000, 0.000, 0.000, 14:29:06.502
45, -24971.10, 0.00, 0.00, 0.00, 0.00, 0.00, 0.00, 0.00, 0.000, 0.000, 0.000, 14:29:06.502
46, -24980.82, 0.00, 0.00, 0.00, 0.00, 0.00, 0.00, 0.00, 0.000, 0.000, 0.000, 14:29:06.502
47, -24955.16, 0.00, 0.00, 0.00, 0.00, 0.00, 0.00, 0.00, 0.000, 0.000, 0.000, 14:29:06.502
48, -24962.40, 0.00, 0.00, 0.00, 0.00, 0.00, 0.00, 0.00, 0.000, 0.000, 0.000, 14:29:06.502
49, -24966.32, 0.00, 0.00, 0.00, 0.00, 0.00, 0.00, 0.00, 0.000, 0.000, 0.000, 14:29:06.502
50, -24958.43, 0.00, 0.00, 0.00, 0.00, 0.00, 0.00, 0.00, 0.000, 0.000, 0.000, 14:29:06.502
51, -24957.13, 0.00, 0.00, 0.00, 0.00, 0.00, 0.00, 0.00, 0.000, 0.000, 0.000, 14:29:06.503
52, -24951.05, 0.00, 0.00, 0.00, 0.00, 0.00, 0.00, 0.00, 0.000, 0.000, 0.000, 14:29:06.503
53, -24964.86, 0.00, 0.00, 0.00, 0.00, 0.00, 0.00, 0.00, 0.132, 0.826, 0.490, 14:29:06.503
54, -24965.94, 0.00, 0.00, 0.00, 0.00, 0.00, 0.00, 0.00, 0.000, 0.000, 0.000, 14:29:06.503
55, -24969.67, 0.00, 0.00, 0.00, 0.00, 0.00, 0.00, 0.00, 0.000, 0.000, 0.000, 14:29:06.503
56, -24972.15, 0.00, 0.00, 0.00, 0.00, 0.00, 0.00, 0.00, 0.000, 0.000, 0.000, 14:29:06.503
57, -24933.04, 0.00, 0.00, 0.00, 0.00, 0.00, 0.00, 0.00, 0.000, 0.000, 0.000, 14:29:06.503
58, -24938.27, 0.00, 0.00, 0.00, 0.00, 0.00, 0.00, 0.00, 0.000, 0.000, 0.000, 14:29:06.950
59, -24983.24, 0.00, 0.00, 0.00, 0.00, 0.00, 0.00, 0.00, 0.000, 0.000, 0.000, 14:29:06.951
60, -24994.55, 0.00, 0.00, 0.00, 0.00, 0.00, 0.00, 0.00, 0.000, 0.000, 0.000, 14:29:06.951
61, -24964.15, 0.00, 0.00, 0.00, 0.00, 0.00, 0.00, 0.00, 0.000, 0.000, 0.000, 14:29:06.951
62, -24952.86, 0.00, 0.00, 0.00, 0.00, 0.00, 0.00, 0.00, 0.000, 0.000, 0.000, 14:29:06.951
63, -24983.10, 0.00, 0.00, 0.00, 0.00, 0.00, 0.00, 0.00, 0.134, 0.822, 0.484, 14:29:06.952
64, -24976.67, 0.00, 0.00, 0.00, 0.00, 0.00, 0.00, 0.00, 0.000, 0.000, 0.000, 14:29:06.952
65, -24956.82, 0.00, 0.00, 0.00, 0.00, 0.00, 0.00, 0.00, 0.000, 0.000, 0.000, 14:29:06.952
66, -24941.21, 0.00, 0.00, 0.00, 0.00, 0.00, 0.00, 0.00, 0.000, 0.000, 0.000, 14:29:06.952
67, -24971.57, 0.00, 0.00, 0.00, 0.00, 0.00, 0.00, 0.00, 0.000, 0.000, 0.000, 14:29:06.952
68, -24999.91, 0.00, 0.00, 0.00, 0.00, 0.00, 0.00, 0.00, 0.000, 0.000, 0.000, 14:29:06.953
69, -24952.41, 0.00, 0.00, 0.00, 0.00, 0.00, 0.00, 0.00, 0.000, 0.000, 0.000, 14:29:06.953
70, -24941.80, 0.00, 0.00, 0.00, 0.00, 0.00, 0.00, 0.00, 0.000, 0.000, 0.000, 14:29:06.953
71, -24966.36, 0.00, 0.00, 0.00, 0.00, 0.00, 0.00, 0.00, 0.000, 0.000, 0.000, 14:29:06.953
72, -24970.47, 0.00, 0.00, 0.00, 0.00, 0.00, 0.00, 0.00, 0.000, 0.000, 0.000, 14:29:06.953
73, -24975.46, 0.00, 0.00, 0.00, 0.00, 0.00, 0.00, 0.00, 0.132, 0.822, 0.490, 14:29:06.954
74, -24971.55, 0.00, 0.00, 0.00, 0.00, 0.00, 0.00, 0.00, 0.000, 0.000, 0.000, 14:29:06.954
75, -24962.07, 0.00, 0.00, 0.00, 0.00, 0.00, 0.00, 0.00, 0.000, 0.000, 0.000, 14:29:06.954
76, -24953.26, 0.00, 0.00, 0.00, 0.00, 0.00, 0.00, 0.00, 0.000, 0.000, 0.000, 14:29:06.954
77, -24951.23, 0.00, 0.00, 0.00, 0.00, 0.00, 0.00, 0.00, 0.000, 0.000, 0.000, 14:29:06.954
78, -24941.44, 0.00, 0.00, 0.00, 0.00, 0.00, 0.00, 0.00, 0.000, 0.000, 0.000, 14:29:06.955
79, -24969.94, 0.00, 0.00, 0.00, 0.00, 0.00, 0.00, 0.00, 0.000, 0.000, 0.000, 14:29:06.955
80, -24995.96, 0.00, 0.00, 0.00, 0.00, 0.00, 0.00, 0.00, 0.000, 0.000, 0.000, 14:29:06.955
81, -24957.78, 0.00, 0.00, 0.00, 0.00, 0.00, 0.00, 0.00, 0.000, 0.000, 0.000, 14:29:06.955
82, -24928.74, 0.00, 0.00, 0.00, 0.00, 0.00, 0.00, 0.00, 0.130, 0.824, 0.488, 14:29:06.955
83, -24945.91, 0.00, 0.00, 0.00, 0.00, 0.00, 0.00, 0.00, 0.000, 0.000, 0.000, 14:29:06.956
84, -24973.78, 0.00, 0.00, 0.00, 0.00, 0.00, 0.00, 0.00, 0.000, 0.000, 0.000, 14:29:06.956
85, -24973.20, 0.00, 0.00, 0.00, 0.00, 0.00, 0.00, 0.00, 0.000, 0.000, 0.000, 14:29:06.956
86, -24957.42, 0.00, 0.00, 0.00, 0.00, 0.00, 0.00, 0.00, 0.000, 0.000, 0.000, 14:29:06.956
87, -24966.03, 0.00, 0.00, 0.00, 0.00, 0.00, 0.00, 0.00, 0.000, 0.000, 0.000, 14:29:06.957
88, -24988.13, 0.00, 0.00, 0.00, 0.00, 0.00, 0.00, 0.00, 0.000, 0.000, 0.000, 14:29:06.957
89, -24971.53, 0.00, 0.00, 0.00, 0.00, 0.00, 0.00, 0.00, 0.000, 0.000, 0.000, 14:29:06.957
90, -24959.34, 0.00, 0.00, 0.00, 0.00, 0.00, 0.00, 0.00, 0.000, 0.000, 0.000, 14:29:06.958
91, -24948.21, 0.00, 0.00, 0.00, 0.00, 0.00, 0.00, 0.00, 0.000, 0.000, 0.000, 14:29:06.958
92, -24979.91, 0.00, 0.00, 0.00, 0.00, 0.00, 0.00, 0.00, 0.134, 0.822, 0.492, 14:29:06.958
93, -24998.03, 0.00, 0.00, 0.00, 0.00, 0.00, 0.00, 0.00, 0.000, 0.000, 0.000, 14:29:06.958
94, -24966.29, 0.00, 0.00, 0.00, 0.00, 0.00, 0.00, 0.00, 0.000, 0.000, 0.000, 14:29:06.959
95, -24958.29, 0.00, 0.00, 0.00, 0.00, 0.00, 0.00, 0.00, 0.000, 0.000, 0.000, 14:29:06.959
96, -24955.45, 0.00, 0.00, 0.00, 0.00, 0.00, 0.00, 0.00, 0.000, 0.000, 0.000, 14:29:06.959
97, -24968.15, 0.00, 0.00, 0.00, 0.00, 0.00, 0.00, 0.00, 0.000, 0.000, 0.000, 14:29:06.959
98, -24965.89, 0.00, 0.00, 0.00, 0.00, 0.00, 0.00, 0.00, 0.000, 0.000, 0.000, 14:29:06.960
99, -24977.43, 0.00, 0.00, 0.00, 0.00, 0.00, 0.00, 0.00, 0.000, 0.000, 0.000, 14:29:06.960
100, -24981.83, 0.00, 0.00, 0.00, 0.00, 0.00, 0.00, 0.00, 0.000, 0.000, 0.000, 14:29:06.960
101, -24962.03, 0.00, 0.00, 0.00, 0.00, 0.00, 0.00, 0.00, 0.000, 0.000, 0.000, 14:29:06.960
102, -24955.43, 0.00, 0.00, 0.00, 0.00, 0.00, 0.00, 0.00, 0.134, 0.820, 0.490, 14:29:06.960
103, -24954.96, 0.00, 0.00, 0.00, 0.00, 0.00, 0.00, 0.00, 0.000, 0.000, 0.000, 14:29:06.961
104, -24962.94, 0.00, 0.00, 0.00, 0.00, 0.00, 0.00, 0.00, 0.000, 0.000, 0.000, 14:29:06.961
105, -24967.79, 0.00, 0.00, 0.00, 0.00, 0.00, 0.00, 0.00, 0.000, 0.000, 0.000, 14:29:06.961
106, -24958.36, 0.00, 0.00, 0.00, 0.00, 0.00, 0.00, 0.00, 0.000, 0.000, 0.000, 14:29:06.961
107, -24964.55, 0.00, 0.00, 0.00, 0.00, 0.00, 0.00, 0.00, 0.000, 0.000, 0.000, 14:29:06.961
108, -24957.44, 0.00, 0.00, 0.00, 0.00, 0.00, 0.00, 0.00, 0.000, 0.000, 0.000, 14:29:06.962
109, -24977.65, 0.00, 0.00, 0.00, 0.00, 0.00, 0.00, 0.00, 0.000, 0.000, 0.000, 14:29:06.962
110, -24960.57, 0.00, 0.00, 0.00, 0.00, 0.00, 0.00, 0.00, 0.000, 0.000, 0.000, 14:29:06.962
111, -24933.17, 0.00, 0.00, 0.00, 0.00, 0.00, 0.00, 0.00, 0.000, 0.000, 0.000, 14:29:06.962
112, -24931.18, 0.00, 0.00, 0.00, 0.00, 0.00, 0.00, 0.00, 0.136, 0.814, 0.494, 14:29:06.962
113, -24986.12, 0.00, 0.00, 0.00, 0.00, 0.00, 0.00, 0.00, 0.000, 0.000, 0.000, 14:29:06.963
114, -24982.79, 0.00, 0.00, 0.00, 0.00, 0.00, 0.00, 0.00, 0.000, 0.000, 0.000, 14:29:06.963
115, -24947.70, 0.00, 0.00, 0.00, 0.00, 0.00, 0.00, 0.00, 0.000, 0.000, 0.000, 14:29:06.963
116, -24949.55, 0.00, 0.00, 0.00, 0.00, 0.00, 0.00, 0.00, 0.000, 0.000, 0.000, 14:29:06.963
117, -24975.26, 0.00, 0.00, 0.00, 0.00, 0.00, 0.00, 0.00, 0.000, 0.000, 0.000, 14:29:06.963
118, -24989.63, 0.00, 0.00, 0.00, 0.00, 0.00, 0.00, 0.00, 0.000, 0.000, 0.000, 14:29:06.963
119, -24963.25, 0.00, 0.00, 0.00, 0.00, 0.00, 0.00, 0.00, 0.000, 0.000, 0.000, 14:29:06.964
120, -24959.43, 0.00, 0.00, 0.00, 0.00, 0.00, 0.00, 0.00, 0.000, 0.000, 0.000, 14:29:06.964
121, -24990.72, 0.00, 0.00, 0.00, 0.00, 0.00, 0.00, 0.00, 0.000, 0.000, 0.000, 14:29:06.964
122, -24987.48, 0.00, 0.00, 0.00, 0.00, 0.00, 0.00, 0.00, 0.134, 0.824, 0.496, 14:29:06.964
123, -24946.56, 0.00, 0.00, 0.00, 0.00, 0.00, 0.00, 0.00, 0.000, 0.000, 0.000, 14:29:06.964
124, -24964.13, 0.00, 0.00, 0.00, 0.00, 0.00, 0.00, 0.00, 0.000, 0.000, 0.000, 14:29:06.965
125, -24998.21, 0.00, 0.00, 0.00, 0.00, 0.00, 0.00, 0.00, 0.000, 0.000, 0.000, 14:29:06.965
126, -24969.00, 0.00, 0.00, 0.00, 0.00, 0.00, 0.00, 0.00, 0.000, 0.000, 0.000, 14:29:06.965
127, -24944.77, 0.00, 0.00, 0.00, 0.00, 0.00, 0.00, 0.00, 0.000, 0.000, 0.000, 14:29:06.965
128, -24944.12, 0.00, 0.00, 0.00, 0.00, 0.00, 0.00, 0.00, 0.000, 0.000, 0.000, 14:29:06.965
129, -24944.19, 0.00, 0.00, 0.00, 0.00, 0.00, 0.00, 0.00, 0.000, 0.000, 0.000, 14:29:06.966
130, -24968.66, 0.00, 0.00, 0.00, 0.00, 0.00, 0.00, 0.00, 0.000, 0.000, 0.000, 14:29:06.966
131, -24963.57, 0.00, 0.00, 0.00, 0.00, 0.00, 0.00, 0.00, 0.000, 0.000, 0.000, 14:29:06.966
132, -24943.18, 0.00, 0.00, 0.00, 0.00, 0.00, 0.00, 0.00, 0.134, 0.818, 0.494, 14:29:06.966
133, -24950.20, 0.00, 0.00, 0.00, 0.00, 0.00, 0.00, 0.00, 0.000, 0.000, 0.000, 14:29:06.966
134, -24996.42, 0.00, 0.00, 0.00, 0.00, 0.00, 0.00, 0.00, 0.000, 0.000, 0.000, 14:29:06.967
135, -24974.12, 0.00, 0.00, 0.00, 0.00, 0.00, 0.00, 0.00, 0.000, 0.000, 0.000, 14:29:06.967
136, -24958.58, 0.00, 0.00, 0.00, 0.00, 0.00, 0.00, 0.00, 0.000, 0.000, 0.000, 14:29:06.967
137, -24955.45, 0.00, 0.00, 0.00, 0.00, 0.00, 0.00, 0.00, 0.000, 0.000, 0.000, 14:29:06.967
138, -24985.96, 0.00, 0.00, 0.00, 0.00, 0.00, 0.00, 0.00, 0.000, 0.000, 0.000, 14:29:06.967
139, -24986.84, 0.00, 0.00, 0.00, 0.00, 0.00, 0.00, 0.00, 0.000, 0.000, 0.000, 14:29:06.968
140, -24953.91, 0.00, 0.00, 0.00, 0.00, 0.00, 0.00, 0.00, 0.000, 0.000, 0.000, 14:29:06.968
141, -24964.26, 0.00, 0.00, 0.00, 0.00, 0.00, 0.00, 0.00, 0.000, 0.000, 0.000, 14:29:06.968
142, -24994.23, 0.00, 0.00, 0.00, 0.00, 0.00, 0.00, 0.00, 0.132, 0.820, 0.492, 14:29:06.968
143, -24966.72, 0.00, 0.00, 0.00, 0.00, 0.00, 0.00, 0.00, 0.000, 0.000, 0.000, 14:29:06.968
144, -24933.10, 0.00, 0.00, 0.00, 0.00, 0.00, 0.00, 0.00, 0.000, 0.000, 0.000, 14:29:06.969
145, -24948.77, 0.00, 0.00, 0.00, 0.00, 0.00, 0.00, 0.00, 0.000, 0.000, 0.000, 14:29:06.969
146, -24972.69, 0.00, 0.00, 0.00, 0.00, 0.00, 0.00, 0.00, 0.000, 0.000, 0.000, 14:29:06.969
147, -24970.56, 0.00, 0.00, 0.00, 0.00, 0.00, 0.00, 0.00, 0.000, 0.000, 0.000, 14:29:06.969
148, -24946.22, 0.00, 0.00, 0.00, 0.00, 0.00, 0.00, 0.00, 0.000, 0.000, 0.000, 14:29:06.970
149, -24942.60, 0.00, 0.00, 0.00, 0.00, 0.00, 0.00, 0.00, 0.000, 0.000, 0.000, 14:29:06.970
150, -24966.43, 0.00, 0.00, 0.00, 0.00, 0.00, 0.00, 0.00, 0.000, 0.000, 0.000, 14:29:06.970
151, -24984.13, 0.00, 0.00, 0.00, 0.00, 0.00, 0.00, 0.00, 0.000, 0.000, 0.000, 14:29:06.970
152, -24967.32, 0.00, 0.00, 0.00, 0.00, 0.00, 0.00, 0.00, 0.130, 0.816, 0.492, 14:29:06.971
153, -24966.54, 0.00, 0.00, 0.00, 0.00, 0.00, 0.00, 0.00, 0.000, 0.000, 0.000, 14:29:06.971
154, -24962.70, 0.00, 0.00, 0.00, 0.00, 0.00, 0.00, 0.00, 0.000, 0.000, 0.000, 14:29:06.971
155, -24966.72, 0.00, 0.00, 0.00, 0.00, 0.00, 0.00, 0.00, 0.000, 0.000, 0.000, 14:29:06.971
156, -24967.30, 0.00, 0.00, 0.00, 0.00, 0.00, 0.00, 0.00, 0.000, 0.000, 0.000, 14:29:06.971
157, -24948.05, 0.00, 0.00, 0.00, 0.00, 0.00, 0.00, 0.00, 0.000, 0.000, 0.000, 14:29:06.972
158, -24938.76, 0.00, 0.00, 0.00, 0.00, 0.00, 0.00, 0.00, 0.000, 0.000, 0.000, 14:29:06.972
159, -24970.05, 0.00, 0.00, 0.00, 0.00, 0.00, 0.00, 0.00, 0.000, 0.000, 0.000, 14:29:06.972
160, -24969.00, 0.00, 0.00, 0.00, 0.00, 0.00, 0.00, 0.00, 0.000, 0.000, 0.000, 14:29:06.972
161, -24951.30, 0.00, 0.00, 0.00, 0.00, 0.00, 0.00, 0.00, 0.000, 0.000, 0.000, 14:29:06.973
162, -24942.24, 0.00, 0.00, 0.00, 0.00, 0.00, 0.00, 0.00, 0.128, 0.822, 0.496, 14:29:06.973
163, -24986.39, 0.00, 0.00, 0.00, 0.00, 0.00, 0.00, 0.00, 0.000, 0.000, 0.000, 14:29:06.973
164, -24992.87, 0.00, 0.00, 0.00, 0.00, 0.00, 0.00, 0.00, 0.000, 0.000, 0.000, 14:29:06.973
165, -24939.76, 0.00, 0.00, 0.00, 0.00, 0.00, 0.00, 0.00, 0.000, 0.000, 0.000, 14:29:06.973
166, -24937.15, 0.00, 0.00, 0.00, 0.00, 0.00, 0.00, 0.00, 0.000, 0.000, 0.000, 14:29:06.973
167, -24969.11, 0.00, 0.00, 0.00, 0.00, 0.00, 0.00, 0.00, 0.000, 0.000, 0.000, 14:29:06.973
168, -24969.94, 0.00, 0.00, 0.00, 0.00, 0.00, 0.00, 0.00, 0.000, 0.000, 0.000, 14:29:06.973
169, -24946.29, 0.00, 0.00, 0.00, 0.00, 0.00, 0.00, 0.00, 0.000, 0.000, 0.000, 14:29:06.973
170, -24962.90, 0.00, 0.00, 0.00, 0.00, 0.00, 0.00, 0.00, 0.000, 0.000, 0.000, 14:29:06.973
171, -24955.99, 0.00, 0.00, 0.00, 0.00, 0.00, 0.00, 0.00, 0.000, 0.000, 0.000, 14:29:06.973
172, -24960.30, 0.00, 0.00, 0.00, 0.00, 0.00, 0.00, 0.00, 0.134, 0.822, 0.492, 14:29:06.973
173, -24956.33, 0.00, 0.00, 0.00, 0.00, 0.00, 0.00, 0.00, 0.000, 0.000, 0.000, 14:29:06.987
174, -24960.73, 0.00, 0.00, 0.00, 0.00, 0.00, 0.00, 0.00, 0.000, 0.000, 0.000, 14:29:06.987
175, -24985.79, 0.00, 0.00, 0.00, 0.00, 0.00, 0.00, 0.00, 0.000, 0.000, 0.000, 14:29:06.987
176, -24979.13, 0.00, 0.00, 0.00, 0.00, 0.00, 0.00, 0.00, 0.000, 0.000, 0.000, 14:29:06.987
177, -24932.43, 0.00, 0.00, 0.00, 0.00, 0.00, 0.00, 0.00, 0.000, 0.000, 0.000, 14:29:06.987
178, -24956.79, 0.00, 0.00, 0.00, 0.00, 0.00, 0.00, 0.00, 0.000, 0.000, 0.000, 14:29:07.429
179, -24950.11, 0.00, 0.00, 0.00, 0.00, 0.00, 0.00, 0.00, 0.000, 0.000, 0.000, 14:29:07.429
180, -24957.76, 0.00, 0.00, 0.00, 0.00, 0.00, 0.00, 0.00, 0.000, 0.000, 0.000, 14:29:07.430
181, -24954.45, 0.00, 0.00, 0.00, 0.00, 0.00, 0.00, 0.00, 0.000, 0.000, 0.000, 14:29:07.430
182, -24920.25, 0.00, 0.00, 0.00, 0.00, 0.00, 0.00, 0.00, 0.132, 0.824, 0.494, 14:29:07.430
183, -24950.69, 0.00, 0.00, 0.00, 0.00, 0.00, 0.00, 0.00, 0.000, 0.000, 0.000, 14:29:07.430
184, -24982.30, 0.00, 0.00, 0.00, 0.00, 0.00, 0.00, 0.00, 0.000, 0.000, 0.000, 14:29:07.430
185, -24965.15, 0.00, 0.00, 0.00, 0.00, 0.00, 0.00, 0.00, 0.000, 0.000, 0.000, 14:29:07.430
186, -24938.06, 0.00, 0.00, 0.00, 0.00, 0.00, 0.00, 0.00, 0.000, 0.000, 0.000, 14:29:07.430
187, -24942.56, 0.00, 0.00, 0.00, 0.00, 0.00, 0.00, 0.00, 0.000, 0.000, 0.000, 14:29:07.430
188, -24962.90, 0.00, 0.00, 0.00, 0.00, 0.00, 0.00, 0.00, 0.000, 0.000, 0.000, 14:29:07.430
189, -24963.54, 0.00, 0.00, 0.00, 0.00, 0.00, 0.00, 0.00, 0.000, 0.000, 0.000, 14:29:07.430
190, -24955.59, 0.00, 0.00, 0.00, 0.00, 0.00, 0.00, 0.00, 0.000, 0.000, 0.000, 14:29:07.430
191, -24956.21, 0.00, 0.00, 0.00, 0.00, 0.00, 0.00, 0.00, 0.126, 0.820, 0.490, 14:29:07.430
192, -24981.67, 0.00, 0.00, 0.00, 0.00, 0.00, 0.00, 0.00, 0.000, 0.000, 0.000, 14:29:07.430
193, -24965.96, 0.00, 0.00, 0.00, 0.00, 0.00, 0.00, 0.00, 0.000, 0.000, 0.000, 14:29:07.430
194, -24952.62, 0.00, 0.00, 0.00, 0.00, 0.00, 0.00, 0.00, 0.000, 0.000, 0.000, 14:29:07.431
195, -24943.63, 0.00, 0.00, 0.00, 0.00, 0.00, 0.00, 0.00, 0.000, 0.000, 0.000, 14:29:07.431
196, -24990.08, 0.00, 0.00, 0.00, 0.00, 0.00, 0.00, 0.00, 0.000, 0.000, 0.000, 14:29:07.431
197, -24978.16, 0.00, 0.00, 0.00, 0.00, 0.00, 0.00, 0.00, 0.000, 0.000, 0.000, 14:29:07.431
198, -24939.61, 0.00, 0.00, 0.00, 0.00, 0.00, 0.00, 0.00, 0.000, 0.000, 0.000, 14:29:07.431
199, -24920.38, 0.00, 0.00, 0.00, 0.00, 0.00, 0.00, 0.00, 0.000, 0.000, 0.000, 14:29:07.431
200, -24956.26, 0.00, 0.00, 0.00, 0.00, 0.00, 0.00, 0.00, 0.000, 0.000, 0.000, 14:29:07.431
201, -24985.38, 0.00, 0.00, 0.00, 0.00, 0.00, 0.00, 0.00, 0.132, 0.818, 0.490, 14:29:07.431
202, -24961.80, 0.00, 0.00, 0.00, 0.00, 0.00, 0.00, 0.00, 0.000, 0.000, 0.000, 14:29:07.431
203, -24934.91, 0.00, 0.00, 0.00, 0.00, 0.00, 0.00, 0.00, 0.000, 0.000, 0.000, 14:29:07.431
204, -24949.91, 0.00, 0.00, 0.00, 0.00, 0.00, 0.00, 0.00, 0.000, 0.000, 0.000, 14:29:07.431
205, -24967.01, 0.00, 0.00, 0.00, 0.00, 0.00, 0.00, 0.00, 0.000, 0.000, 0.000, 14:29:07.431
206, -24939.38, 0.00, 0.00, 0.00, 0.00, 0.00, 0.00, 0.00, 0.000, 0.000, 0.000, 14:29:07.431
207, -24934.09, 0.00, 0.00, 0.00, 0.00, 0.00, 0.00, 0.00, 0.000, 0.000, 0.000, 14:29:07.431
208, -24952.08, 0.00, 0.00, 0.00, 0.00, 0.00, 0.00, 0.00, 0.000, 0.000, 0.000, 14:29:07.432
209, -24965.54, 0.00, 0.00, 0.00, 0.00, 0.00, 0.00, 0.00, 0.000, 0.000, 0.000, 14:29:07.432
210, -24950.87, 0.00, 0.00, 0.00, 0.00, 0.00, 0.00, 0.00, 0.000, 0.000, 0.000, 14:29:07.432
211, -24932.07, 0.00, 0.00, 0.00, 0.00, 0.00, 0.00, 0.00, 0.134, 0.828, 0.498, 14:29:07.432
212, -24951.21, 0.00, 0.00, 0.00, 0.00, 0.00, 0.00, 0.00, 0.000, 0.000, 0.000, 14:29:07.432
213, -24975.37, 0.00, 0.00, 0.00, 0.00, 0.00, 0.00, 0.00, 0.000, 0.000, 0.000, 14:29:07.432
214, -24988.27, 0.00, 0.00, 0.00, 0.00, 0.00, 0.00, 0.00, 0.000, 0.000, 0.000, 14:29:07.432
215, -24963.30, 0.00, 0.00, 0.00, 0.00, 0.00, 0.00, 0.00, 0.000, 0.000, 0.000, 14:29:07.432
216, -24925.50, 0.00, 0.00, 0.00, 0.00, 0.00, 0.00, 0.00, 0.000, 0.000, 0.000, 14:29:07.432
217, -24950.27, 0.00, 0.00, 0.00, 0.00, 0.00, 0.00, 0.00, 0.000, 0.000, 0.000, 14:29:07.433
218, -24968.69, 0.00, 0.00, 0.00, 0.00, 0.00, 0.00, 0.00, 0.000, 0.000, 0.000, 14:29:07.433
219, -24940.50, 0.00, 0.00, 0.00, 0.00, 0.00, 0.00, 0.00, 0.000, 0.000, 0.000, 14:29:07.433
220, -24954.69, 0.00, 0.00, 0.00, 0.00, 0.00, 0.00, 0.00, 0.000, 0.000, 0.000, 14:29:07.433
221, -24980.58, 0.00, 0.00, 0.00, 0.00, 0.00, 0.00, 0.00, 0.134, 0.822, 0.496, 14:29:07.433
222, -24985.58, 0.00, 0.00, 0.00, 0.00, 0.00, 0.00, 0.00, 0.000, 0.000, 0.000, 14:29:07.433
223, -24950.45, 0.00, 0.00, 0.00, 0.00, 0.00, 0.00, 0.00, 0.000, 0.000, 0.000, 14:29:07.433
224, -24943.29, 0.00, 0.00, 0.00, 0.00, 0.00, 0.00, 0.00, 0.000, 0.000, 0.000, 14:29:07.433
225, -24965.24, 0.00, 0.00, 0.00, 0.00, 0.00, 0.00, 0.00, 0.000, 0.000, 0.000, 14:29:07.433
226, -24959.63, 0.00, 0.00, 0.00, 0.00, 0.00, 0.00, 0.00, 0.000, 0.000, 0.000, 14:29:07.433
227, -24940.23, 0.00, 0.00, 0.00, 0.00, 0.00, 0.00, 0.00, 0.000, 0.000, 0.000, 14:29:07.433
228, -24919.65, 0.00, 0.00, 0.00, 0.00, 0.00, 0.00, 0.00, 0.000, 0.000, 0.000, 14:29:07.433
229, -24936.70, 0.00, 0.00, 0.00, 0.00, 0.00, 0.00, 0.00, 0.000, 0.000, 0.000, 14:29:07.433
230, -24966.92, 0.00, 0.00, 0.00, 0.00, 0.00, 0.00, 0.00, 0.000, 0.000, 0.000, 14:29:07.433
231, -24960.44, 0.00, 0.00, 0.00, 0.00, 0.00, 0.00, 0.00, 0.134, 0.828, 0.494, 14:29:07.434
232, -24931.25, 0.00, 0.00, 0.00, 0.00, 0.00, 0.00, 0.00, 0.000, 0.000, 0.000, 14:29:07.434
233, -24932.23, 0.00, 0.00, 0.00, 0.00, 0.00, 0.00, 0.00, 0.000, 0.000, 0.000, 14:29:07.434
234, -24951.81, 0.00, 0.00, 0.00, 0.00, 0.00, 0.00, 0.00, 0.000, 0.000, 0.000, 14:29:07.434
235, -24956.82, 0.00, 0.00, 0.00, 0.00, 0.00, 0.00, 0.00, 0.000, 0.000, 0.000, 14:29:07.434
236, -24949.22, 0.00, 0.00, 0.00, 0.00, 0.00, 0.00, 0.00, 0.000, 0.000, 0.000, 14:29:07.434
237, -24955.65, 0.00, 0.00, 0.00, 0.00, 0.00, 0.00, 0.00, 0.000, 0.000, 0.000, 14:29:07.434
238, -24975.08, 0.00, 0.00, 0.00, 0.00, 0.00, 0.00, 0.00, 0.000, 0.000, 0.000, 14:29:07.434
239, -24967.37, 0.00, 0.00, 0.00, 0.00, 0.00, 0.00, 0.00, 0.000, 0.000, 0.000, 14:29:07.434
240, -24945.39, 0.00, 0.00, 0.00, 0.00, 0.00, 0.00, 0.00, 0.000, 0.000, 0.000, 14:29:07.434
241, -24944.14, 0.00, 0.00, 0.00, 0.00, 0.00, 0.00, 0.00, 0.134, 0.828, 0.500, 14:29:07.434
242, -24973.51, 0.00, 0.00, 0.00, 0.00, 0.00, 0.00, 0.00, 0.000, 0.000, 0.000, 14:29:07.434
243, -24974.54, 0.00, 0.00, 0.00, 0.00, 0.00, 0.00, 0.00, 0.000, 0.000, 0.000, 14:29:07.435
244, -24956.44, 0.00, 0.00, 0.00, 0.00, 0.00, 0.00, 0.00, 0.000, 0.000, 0.000, 14:29:07.435
245, -24960.68, 0.00, 0.00, 0.00, 0.00, 0.00, 0.00, 0.00, 0.000, 0.000, 0.000, 14:29:07.435
246, -24939.81, 0.00, 0.00, 0.00, 0.00, 0.00, 0.00, 0.00, 0.000, 0.000, 0.000, 14:29:07.435
247, -24950.92, 0.00, 0.00, 0.00, 0.00, 0.00, 0.00, 0.00, 0.000, 0.000, 0.000, 14:29:07.435
248, -24950.40, 0.00, 0.00, 0.00, 0.00, 0.00, 0.00, 0.00, 0.000, 0.000, 0.000, 14:29:07.435
249, -24961.94, 0.00, 0.00, 0.00, 0.00, 0.00, 0.00, 0.00, 0.000, 0.000, 0.000, 14:29:07.435
250, -24978.74, 0.00, 0.00, 0.00, 0.00, 0.00, 0.00, 0.00, 0.000, 0.000, 0.000, 14:29:07.435
251, -24951.65, 0.00, 0.00, 0.00, 0.00, 0.00, 0.00, 0.00, 0.132, 0.822, 0.498, 14:29:07.435
252, -24932.97, 0.00, 0.00, 0.00, 0.00, 0.00, 0.00, 0.00, 0.000, 0.000, 0.000, 14:29:07.435
253, -24930.46, 0.00, 0.00, 0.00, 0.00, 0.00, 0.00, 0.00, 0.000, 0.000, 0.000, 14:29:07.435
254, -24943.79, 0.00, 0.00, 0.00, 0.00, 0.00, 0.00, 0.00, 0.000, 0.000, 0.000, 14:29:07.435
255, -24970.41, 0.00, 0.00, 0.00, 0.00, 0.00, 0.00, 0.00, 0.000, 0.000, 0.000, 14:29:07.435
0, -24965.76, 0.00, 0.00, 0.00, 0.00, 0.00, 0.00, 0.00, 0.000, 0.000, 0.000, 14:29:07.435
1, -24943.58, 0.00, 0.00, 0.00, 0.00, 0.00, 0.00, 0.00, 0.000, 0.000, 0.000, 14:29:07.436
2, -24947.54, 0.00, 0.00, 0.00, 0.00, 0.00, 0.00, 0.00, 0.000, 0.000, 0.000, 14:29:07.436
3, -24953.53, 0.00, 0.00, 0.00, 0.00, 0.00, 0.00, 0.00, 0.000, 0.000, 0.000, 14:29:07.436
4, -24967.37, 0.00, 0.00, 0.00, 0.00, 0.00, 0.00, 0.00, 0.000, 0.000, 0.000, 14:29:07.436
5, -24944.26, 0.00, 0.00, 0.00, 0.00, 0.00, 0.00, 0.00, 0.136, 0.824, 0.496, 14:29:07.436
6, -24933.75, 0.00, 0.00, 0.00, 0.00, 0.00, 0.00, 0.00, 0.000, 0.000, 0.000, 14:29:07.436
7, -24967.26, 0.00, 0.00, 0.00, 0.00, 0.00, 0.00, 0.00, 0.000, 0.000, 0.000, 14:29:07.436
8, -24967.03, 0.00, 0.00, 0.00, 0.00, 0.00, 0.00, 0.00, 0.000, 0.000, 0.000, 14:29:07.436
9, -24940.68, 0.00, 0.00, 0.00, 0.00, 0.00, 0.00, 0.00, 0.000, 0.000, 0.000, 14:29:07.436
10, -24936.99, 0.00, 0.00, 0.00, 0.00, 0.00, 0.00, 0.00, 0.000, 0.000, 0.000, 14:29:07.436
11, -24944.84, 0.00, 0.00, 0.00, 0.00, 0.00, 0.00, 0.00, 0.000, 0.000, 0.000, 14:29:07.436
12, -24965.06, 0.00, 0.00, 0.00, 0.00, 0.00, 0.00, 0.00, 0.000, 0.000, 0.000, 14:29:07.436
13, -24942.29, 0.00, 0.00, 0.00, 0.00, 0.00, 0.00, 0.00, 0.000, 0.000, 0.000, 14:29:07.437
14, -24937.48, 0.00, 0.00, 0.00, 0.00, 0.00, 0.00, 0.00, 0.000, 0.000, 0.000, 14:29:07.437
15, -24976.60, 0.00, 0.00, 0.00, 0.00, 0.00, 0.00, 0.00, 0.136, 0.824, 0.492, 14:29:07.437
16, -24976.60, 0.00, 0.00, 0.00, 0.00, 0.00, 0.00, 0.00, 0.000, 0.000, 0.000, 14:29:07.437
17, -24930.55, 0.00, 0.00, 0.00, 0.00, 0.00, 0.00, 0.00, 0.000, 0.000, 0.000, 14:29:07.437
18, -24930.35, 0.00, 0.00, 0.00, 0.00, 0.00, 0.00, 0.00, 0.000, 0.000, 0.000, 14:29:07.437
19, -24939.43, 0.00, 0.00, 0.00, 0.00, 0.00, 0.00, 0.00, 0.000, 0.000, 0.000, 14:29:07.437
20, -24960.30, 0.00, 0.00, 0.00, 0.00, 0.00, 0.00, 0.00, 0.000, 0.000, 0.000, 14:29:07.438
21, -24941.17, 0.00, 0.00, 0.00, 0.00, 0.00, 0.00, 0.00, 0.000, 0.000, 0.000, 14:29:07.438
22, -24929.17, 0.00, 0.00, 0.00, 0.00, 0.00, 0.00, 0.00, 0.000, 0.000, 0.000, 14:29:07.438
23, -24930.46, 0.00, 0.00, 0.00, 0.00, 0.00, 0.00, 0.00, 0.000, 0.000, 0.000, 14:29:07.438
24, -24950.67, 0.00, 0.00, 0.00, 0.00, 0.00, 0.00, 0.00, 0.000, 0.000, 0.000, 14:29:07.438
25, -24954.87, 0.00, 0.00, 0.00, 0.00, 0.00, 0.00, 0.00, 0.134, 0.824, 0.498, 14:29:07.438
26, -24948.44, 0.00, 0.00, 0.00, 0.00, 0.00, 0.00, 0.00, 0.000, 0.000, 0.000, 14:29:07.438
27, -24945.98, 0.00, 0.00, 0.00, 0.00, 0.00, 0.00, 0.00, 0.000, 0.000, 0.000, 14:29:07.438
