%OpenBCI Raw EEG Data
%
%Sample Rate = 250.0 Hz
%First Column = SampleIndex
%Last Column = Timestamp 
%Other Columns = EEG data in microvolts followed by Accel Data (in G) interleaved with Aux Data
0, -25583.98, 0.00, 0.00, 0.00, 0.00, 0.00, 0.00, 0.00, 0.092, -0.490, -0.904, 14:05:07.367
1, -25594.06, 0.00, 0.00, 0.00, 0.00, 0.00, 0.00, 0.00, 0.000, 0.000, 0.000, 14:05:07.842
2, -25594.45, 0.00, 0.00, 0.00, 0.00, 0.00, 0.00, 0.00, 0.000, 0.000, 0.000, 14:05:07.842
3, -25580.45, 0.00, 0.00, 0.00, 0.00, 0.00, 0.00, 0.00, 0.000, 0.000, 0.000, 14:05:07.842
4, -25584.14, 0.00, 0.00, 0.00, 0.00, 0.00, 0.00, 0.00, 0.000, 0.000, 0.000, 14:05:07.842
5, -25580.05, 0.00, 0.00, 0.00, 0.00, 0.00, 0.00, 0.00, 0.000, 0.000, 0.000, 14:05:07.842
6, -25580.95, 0.00, 0.00, 0.00, 0.00, 0.00, 0.00, 0.00, 0.000, 0.000, 0.000, 14:05:07.842
7, -25568.58, 0.00, 0.00, 0.00, 0.00, 0.00, 0.00, 0.00, 0.078, -0.472, -0.918, 14:05:07.842
8, -25575.20, 0.00, 0.00, 0.00, 0.00, 0.00, 0.00, 0.00, 0.000, 0.000, 0.000, 14:05:07.842
9, -25593.55, 0.00, 0.00, 0.00, 0.00, 0.00, 0.00, 0.00, 0.000, 0.000, 0.000, 14:05:07.842
10, -25593.39, 0.00, 0.00, 0.00, 0.00, 0.00, 0.00, 0.00, 0.000, 0.000, 0.000, 14:05:07.842
11, -25593.33, 0.00, 0.00, 0.00, 0.00, 0.00, 0.00, 0.00, 0.000, 0.000, 0.000, 14:05:07.842
12, -25584.07, 0.00, 0.00, 0.00, 0.00, 0.00, 0.00, 0.00, 0.000, 0.000, 0.000, 14:05:07.842
13, -25576.68, 0.00, 0.00, 0.00, 0.00, 0.00, 0.00, 0.00, 0.000, 0.000, 0.000, 14:05:07.843
14, -25582.29, 0.00, 0.00, 0.00, 0.00, 0.00, 0.00, 0.00, 0.000, 0.000, 0.000, 14:05:07.843
15, -25568.74, 0.00, 0.00, 0.00, 0.00, 0.00, 0.00, 0.00, 0.000, 0.000, 0.000, 14:05:07.843
16, -25583.31, 0.00, 0.00, 0.00, 0.00, 0.00, 0.00, 0.00, 0.000, 0.000, 0.000, 14:05:07.843
17, -25597.08, 0.00, 0.00, 0.00, 0.00, 0.00, 0.00, 0.00, 0.074, -0.456, -0.920, 14:05:07.843
18, -25596.79, 0.00, 0.00, 0.00, 0.00, 0.00, 0.00, 0.00, 0.000, 0.000, 0.000, 14:05:07.843
19, -25578.71, 0.00, 0.00, 0.00, 0.00, 0.00, 0.00, 0.00, 0.000, 0.000, 0.000, 14:05:07.843
20, -25588.79, 0.00, 0.00, 0.00, 0.00, 0.00, 0.00, 0.00, 0.000, 0.000, 0.000, 14:05:07.843
21, -25587.20, 0.00, 0.00, 0.00, 0.00, 0.00, 0.00, 0.00, 0.000, 0.000, 0.000, 14:05:07.843
22, -25590.64, 0.00, 0.00, 0.00, 0.00, 0.00, 0.00, 0.00, 0.000, 0.000, 0.000, 14:05:07.843
23, -25582.87, 0.00, 0.00, 0.00, 0.00, 0.00, 0.00, 0.00, 0.000, 0.000, 0.000, 14:05:07.843
24, -25560.36, 0.00, 0.00, 0.00, 0.00, 0.00, 0.00, 0.00, 0.000, 0.000, 0.000, 14:05:07.843
25, -25569.14, 0.00, 0.00, 0.00, 0.00, 0.00, 0.00, 0.00, 0.000, 0.000, 0.000, 14:05:07.843
26, -25587.96, 0.00, 0.00, 0.00, 0.00, 0.00, 0.00, 0.00, 0.000, 0.000, 0.000, 14:05:07.843
27, -25589.62, 0.00, 0.00, 0.00, 0.00, 0.00, 0.00, 0.00, 0.076, -0.440, -0.942, 14:05:07.843
28, -25597.96, 0.00, 0.00, 0.00, 0.00, 0.00, 0.00, 0.00, 0.000, 0.000, 0.000, 14:05:07.843
29, -25600.84, 0.00, 0.00, 0.00, 0.00, 0.00, 0.00, 0.00, 0.000, 0.000, 0.000, 14:05:07.843
30, -25570.60, 0.00, 0.00, 0.00, 0.00, 0.00, 0.00, 0.00, 0.000, 0.000, 0.000, 14:05:07.843
31, -25566.86, 0.00, 0.00, 0.00, 0.00, 0.00, 0.00, 0.00, 0.000, 0.000, 0.000, 14:05:07.844
32, -25582.58, 0.00, 0.00, 0.00, 0.00, 0.00, 0.00, 0.00, 0.000, 0.000, 0.000, 14:05:07.844
33, -25597.96, 0.00, 0.00, 0.00, 0.00, 0.00, 0.00, 0.00, 0.000, 0.000, 0.000, 14:05:07.844
34, -25597.51, 0.00, 0.00, 0.00, 0.00, 0.00, 0.00, 0.00, 0.000, 0.000, 0.000, 14:05:07.844
35, -25580.34, 0.00, 0.00, 0.00, 0.00, 0.00, 0.00, 0.00, 0.000, 0.000, 0.000, 14:05:07.844
36, -25561.30, 0.00, 0.00, 0.00, 0.00, 0.00, 0.00, 0.00, 0.076, -0.436, -0.946, 14:05:07.844
37, -25585.97, 0.00, 0.00, 0.00, 0.00, 0.00, 0.00, 0.00, 0.000, 0.000, 0.000, 14:05:07.844
38, -25603.36, 0.00, 0.00, 0.00, 0.00, 0.00, 0.00, 0.00, 0.000, 0.000, 0.000, 14:05:07.844
39, -25599.47, 0.00, 0.00, 0.00, 0.00, 0.00, 0.00, 0.00, 0.000, 0.000, 0.000, 14:05:07.844
40, -25587.18, 0.00, 0.00, 0.00, 0.00, 0.00, 0.00, 0.00, 0.000, 0.000, 0.000, 14:05:07.844
41, -25585.01, 0.00, 0.00, 0.00, 0.00, 0.00, 0.00, 0.00, 0.000, 0.000, 0.000, 14:05:07.844
42, -25593.17, 0.00, 0.00, 0.00, 0.00, 0.00, 0.00, 0.00, 0.000, 0.000, 0.000, 14:05:07.845
43, -25599.38, 0.00, 0.00, 0.00, 0.00, 0.00, 0.00, 0.00, 0.000, 0.000, 0.000, 14:05:07.845
44, -25594.09, 0.00, 0.00, 0.00, 0.00, 0.00, 0.00, 0.00, 0.000, 0.000, 0.000, 14:05:07.845
45, -25587.34, 0.00, 0.00, 0.00, 0.00, 0.00, 0.00, 0.00, 0.000, 0.000, 0.000, 14:05:07.845
46, -25581.55, 0.00, 0.00, 0.00, 0.00, 0.00, 0.00, 0.00, 0.076, -0.432, -0.946, 14:05:07.845
47, -25592.52, 0.00, 0.00, 0.00, 0.00, 0.00, 0.00, 0.00, 0.000, 0.000, 0.000, 14:05:07.845
48, -25583.81, 0.00, 0.00, 0.00, 0.00, 0.00, 0.00, 0.00, 0.000, 0.000, 0.000, 14:05:07.845
49, -25581.73, 0.00, 0.00, 0.00, 0.00, 0.00, 0.00, 0.00, 0.000, 0.000, 0.000, 14:05:07.845
50, -25614.49, 0.00, 0.00, 0.00, 0.00, 0.00, 0.00, 0.00, 0.000, 0.000, 0.000, 14:05:07.845
51, -25616.35, 0.00, 0.00, 0.00, 0.00, 0.00, 0.00, 0.00, 0.000, 0.000, 0.000, 14:05:07.845
52, -25592.03, 0.00, 0.00, 0.00, 0.00, 0.00, 0.00, 0.00, 0.000, 0.000, 0.000, 14:05:07.845
53, -25566.75, 0.00, 0.00, 0.00, 0.00, 0.00, 0.00, 0.00, 0.000, 0.000, 0.000, 14:05:07.845
54, -25586.15, 0.00, 0.00, 0.00, 0.00, 0.00, 0.00, 0.00, 0.000, 0.000, 0.000, 14:05:07.845
55, -25615.03, 0.00, 0.00, 0.00, 0.00, 0.00, 0.00, 0.00, 0.000, 0.000, 0.000, 14:05:07.845
56, -25610.25, 0.00, 0.00, 0.00, 0.00, 0.00, 0.00, 0.00, 0.072, -0.434, -0.950, 14:05:07.845
57, -25573.32, 0.00, 0.00, 0.00, 0.00, 0.00, 0.00, 0.00, 0.000, 0.000, 0.000, 14:05:07.846
58, -25570.17, 0.00, 0.00, 0.00, 0.00, 0.00, 0.00, 0.00, 0.000, 0.000, 0.000, 14:05:07.846
59, -25614.34, 0.00, 0.00, 0.00, 0.00, 0.00, 0.00, 0.00, 0.000, 0.000, 0.000, 14:05:07.846
60, -25598.02, 0.00, 0.00, 0.00, 0.00, 0.00, 0.00, 0.00, 0.000, 0.000, 0.000, 14:05:07.846
61, -25580.10, 0.00, 0.00, 0.00, 0.00, 0.00, 0.00, 0.00, 0.000, 0.000, 0.000, 14:05:07.846
62, -25593.39, 0.00, 0.00, 0.00, 0.00, 0.00, 0.00, 0.00, 0.000, 0.000, 0.000, 14:05:07.846
63, -25593.28, 0.00, 0.00, 0.00, 0.00, 0.00, 0.00, 0.00, 0.000, 0.000, 0.000, 14:05:07.846
64, -25596.55, 0.00, 0.00, 0.00, 0.00, 0.00, 0.00, 0.00, 0.000, 0.000, 0.000, 14:05:07.846
65, -25595.45, 0.00, 0.00, 0.00, 0.00, 0.00, 0.00, 0.00, 0.000, 0.000, 0.000, 14:05:07.846
66, -25608.04, 0.00, 0.00, 0.00, 0.00, 0.00, 0.00, 0.00, 0.070, -0.434, -0.946, 14:05:07.846
67, -25611.79, 0.00, 0.00, 0.00, 0.00, 0.00, 0.00, 0.00, 0.000, 0.000, 0.000, 14:05:07.846
68, -25614.00, 0.00, 0.00, 0.00, 0.00, 0.00, 0.00, 0.00, 0.000, 0.000, 0.000, 14:05:07.846
69, -25574.44, 0.00, 0.00, 0.00, 0.00, 0.00, 0.00, 0.00, 0.000, 0.000, 0.000, 14:05:07.846
70, -25584.03, 0.00, 0.00, 0.00, 0.00, 0.00, 0.00, 0.00, 0.000, 0.000, 0.000, 14:05:07.847
71, -25587.40, 0.00, 0.00, 0.00, 0.00, 0.00, 0.00, 0.00, 0.000, 0.000, 0.000, 14:05:07.847
72, -25615.57, 0.00, 0.00, 0.00, 0.00, 0.00, 0.00, 0.00, 0.000, 0.000, 0.000, 14:05:07.847
73, -25609.98, 0.00, 0.00, 0.00, 0.00, 0.00, 0.00, 0.00, 0.000, 0.000, 0.000, 14:05:07.847
74, -25587.99, 0.00, 0.00, 0.00, 0.00, 0.00, 0.00, 0.00, 0.000, 0.000, 0.000, 14:05:07.847
75, -25595.96, 0.00, 0.00, 0.00, 0.00, 0.00, 0.00, 0.00, 0.000, 0.000, 0.000, 14:05:07.847
76, -25612.62, 0.00, 0.00, 0.00, 0.00, 0.00, 0.00, 0.00, 0.078, -0.434, -0.942, 14:05:07.847
77, -25597.51, 0.00, 0.00, 0.00, 0.00, 0.00, 0.00, 0.00, 0.000, 0.000, 0.000, 14:05:07.847
78, -25582.84, 0.00, 0.00, 0.00, 0.00, 0.00, 0.00, 0.00, 0.000, 0.000, 0.000, 14:05:07.847
79, -25584.74, 0.00, 0.00, 0.00, 0.00, 0.00, 0.00, 0.00, 0.000, 0.000, 0.000, 14:05:07.847
80, -25613.64, 0.00, 0.00, 0.00, 0.00, 0.00, 0.00, 0.00, 0.000, 0.000, 0.000, 14:05:07.847
81, -25609.60, 0.00, 0.00, 0.00, 0.00, 0.00, 0.00, 0.00, 0.000, 0.000, 0.000, 14:05:07.847
82, -25576.79, 0.00, 0.00, 0.00, 0.00, 0.00, 0.00, 0.00, 0.000, 0.000, 0.000, 14:05:07.847
83, -25596.86, 0.00, 0.00, 0.00, 0.00, 0.00, 0.00, 0.00, 0.000, 0.000, 0.000, 14:05:07.847
84, -25599.27, 0.00, 0.00, 0.00, 0.00, 0.00, 0.00, 0.00, 0.000, 0.000, 0.000, 14:05:07.847
85, -25599.72, 0.00, 0.00, 0.00, 0.00, 0.00, 0.00, 0.00, 0.000, 0.000, 0.000, 14:05:07.847
86, -25590.89, 0.00, 0.00, 0.00, 0.00, 0.00, 0.00, 0.00, 0.072, -0.436, -0.946, 14:05:07.847
87, -25582.44, 0.00, 0.00, 0.00, 0.00, 0.00, 0.00, 0.00, 0.000, 0.000, 0.000, 14:05:07.847
88, -25598.11, 0.00, 0.00, 0.00, 0.00, 0.00, 0.00, 0.00, 0.000, 0.000, 0.000, 14:05:07.848
89, -25585.39, 0.00, 0.00, 0.00, 0.00, 0.00, 0.00, 0.00, 0.000, 0.000, 0.000, 14:05:07.848
90, -25574.80, 0.00, 0.00, 0.00, 0.00, 0.00, 0.00, 0.00, 0.000, 0.000, 0.000, 14:05:07.848
91, -25588.54, 0.00, 0.00, 0.00, 0.00, 0.00, 0.00, 0.00, 0.000, 0.000, 0.000, 14:05:07.848
92, -25588.86, 0.00, 0.00, 0.00, 0.00, 0.00, 0.00, 0.00, 0.000, 0.000, 0.000, 14:05:07.849
93, -25600.82, 0.00, 0.00, 0.00, 0.00, 0.00, 0.00, 0.00, 0.000, 0.000, 0.000, 14:05:07.849
94, -25602.22, 0.00, 0.00, 0.00, 0.00, 0.00, 0.00, 0.00, 0.000, 0.000, 0.000, 14:05:07.849
95, -25582.93, 0.00, 0.00, 0.00, 0.00, 0.00, 0.00, 0.00, 0.000, 0.000, 0.000, 14:05:07.849
96, -25585.86, 0.00, 0.00, 0.00, 0.00, 0.00, 0.00, 0.00, 0.074, -0.440, -0.944, 14:05:07.849
97, -25596.26, 0.00, 0.00, 0.00, 0.00, 0.00, 0.00, 0.00, 0.000, 0.000, 0.000, 14:05:07.850
98, -25589.93, 0.00, 0.00, 0.00, 0.00, 0.00, 0.00, 0.00, 0.000, 0.000, 0.000, 14:05:07.850
99, -25601.15, 0.00, 0.00, 0.00, 0.00, 0.00, 0.00, 0.00, 0.000, 0.000, 0.000, 14:05:07.850
100, -25592.17, 0.00, 0.00, 0.00, 0.00, 0.00, 0.00, 0.00, 0.000, 0.000, 0.000, 14:05:07.850
101, -25592.01, 0.00, 0.00, 0.00, 0.00, 0.00, 0.00, 0.00, 0.000, 0.000, 0.000, 14:05:07.850
102, -25584.90, 0.00, 0.00, 0.00, 0.00, 0.00, 0.00, 0.00, 0.000, 0.000, 0.000, 14:05:07.850
103, -25588.03, 0.00, 0.00, 0.00, 0.00, 0.00, 0.00, 0.00, 0.000, 0.000, 0.000, 14:05:07.850
104, -25594.85, 0.00, 0.00, 0.00, 0.00, 0.00, 0.00, 0.00, 0.000, 0.000, 0.000, 14:05:07.850
105, -25619.48, 0.00, 0.00, 0.00, 0.00, 0.00, 0.00, 0.00, 0.000, 0.000, 0.000, 14:05:07.852
106, -25601.31, 0.00, 0.00, 0.00, 0.00, 0.00, 0.00, 0.00, 0.078, -0.438, -0.956, 14:05:07.852
107, -25564.99, 0.00, 0.00, 0.00, 0.00, 0.00, 0.00, 0.00, 0.000, 0.000, 0.000, 14:05:07.852
108, -25578.06, 0.00, 0.00, 0.00, 0.00, 0.00, 0.00, 0.00, 0.000, 0.000, 0.000, 14:05:07.852
109, -25613.82, 0.00, 0.00, 0.00, 0.00, 0.00, 0.00, 0.00, 0.000, 0.000, 0.000, 14:05:07.852
110, -25610.11, 0.00, 0.00, 0.00, 0.00, 0.00, 0.00, 0.00, 0.000, 0.000, 0.000, 14:05:07.853
111, -25575.40, 0.00, 0.00, 0.00, 0.00, 0.00, 0.00, 0.00, 0.000, 0.000, 0.000, 14:05:07.853
112, -25567.36, 0.00, 0.00, 0.00, 0.00, 0.00, 0.00, 0.00, 0.000, 0.000, 0.000, 14:05:07.853
113, -25590.02, 0.00, 0.00, 0.00, 0.00, 0.00, 0.00, 0.00, 0.000, 0.000, 0.000, 14:05:07.853
114, -25598.69, 0.00, 0.00, 0.00, 0.00, 0.00, 0.00, 0.00, 0.000, 0.000, 0.000, 14:05:07.854
115, -25600.32, 0.00, 0.00, 0.00, 0.00, 0.00, 0.00, 0.00, 0.000, 0.000, 0.000, 14:05:07.854
116, -25605.73, 0.00, 0.00, 0.00, 0.00, 0.00, 0.00, 0.00, 0.080, -0.436, -0.950, 14:05:07.854
117, -25598.65, 0.00, 0.00, 0.00, 0.00, 0.00, 0.00, 0.00, 0.000, 0.000, 0.000, 14:05:07.854
118, -25581.77, 0.00, 0.00, 0.00, 0.00, 0.00, 0.00, 0.00, 0.000, 0.000, 0.000, 14:05:07.854
119, -25572.03, 0.00, 0.00, 0.00, 0.00, 0.00, 0.00, 0.00, 0.000, 0.000, 0.000, 14:05:07.854
120, -25576.47, 0.00, 0.00, 0.00, 0.00, 0.00, 0.00, 0.00, 0.000, 0.000, 0.000, 14:05:07.854
121, -25599.09, 0.00, 0.00, 0.00, 0.00, 0.00, 0.00, 0.00, 0.000, 0.000, 0.000, 14:05:08.323
122, -25602.04, 0.00, 0.00, 0.00, 0.00, 0.00, 0.00, 0.00, 0.000, 0.000, 0.000, 14:05:08.323
123, -25587.40, 0.00, 0.00, 0.00, 0.00, 0.00, 0.00, 0.00, 0.000, 0.000, 0.000, 14:05:08.323
124, -25592.75, 0.00, 0.00, 0.00, 0.00, 0.00, 0.00, 0.00, 0.000, 0.000, 0.000, 14:05:08.323
125, -25606.52, 0.00, 0.00, 0.00, 0.00, 0.00, 0.00, 0.00, 0.074, -0.432, -0.940, 14:05:08.323
126, -25610.61, 0.00, 0.00, 0.00, 0.00, 0.00, 0.00, 0.00, 0.000, 0.000, 0.000, 14:05:08.323
127, -25608.48, 0.00, 0.00, 0.00, 0.00, 0.00, 0.00, 0.00, 0.000, 0.000, 0.000, 14:05:08.323
128, -25599.41, 0.00, 0.00, 0.00, 0.00, 0.00, 0.00, 0.00, 0.000, 0.000, 0.000, 14:05:08.323
129, -25591.88, 0.00, 0.00, 0.00, 0.00, 0.00, 0.00, 0.00, 0.000, 0.000, 0.000, 14:05:08.323
130, -25583.27, 0.00, 0.00, 0.00, 0.00, 0.00, 0.00, 0.00, 0.000, 0.000, 0.000, 14:05:08.323
131, -25589.28, 0.00, 0.00, 0.00, 0.00, 0.00, 0.00, 0.00, 0.000, 0.000, 0.000, 14:05:08.324
132, -25588.46, 0.00, 0.00, 0.00, 0.00, 0.00, 0.00, 0.00, 0.000, 0.000, 0.000, 14:05:08.324
133, -25594.36, 0.00, 0.00, 0.00, 0.00, 0.00, 0.00, 0.00, 0.000, 0.000, 0.000, 14:05:08.324
134, -25609.76, 0.00, 0.00, 0.00, 0.00, 0.00, 0.00, 0.00, 0.000, 0.000, 0.000, 14:05:08.324
135, -25606.58, 0.00, 0.00, 0.00, 0.00, 0.00, 0.00, 0.00, 0.078, -0.426, -0.950, 14:05:08.324
136, -25586.15, 0.00, 0.00, 0.00, 0.00, 0.00, 0.00, 0.00, 0.000, 0.000, 0.000, 14:05:08.324
137, -25595.99, 0.00, 0.00, 0.00, 0.00, 0.00, 0.00, 0.00, 0.000, 0.000, 0.000, 14:05:08.324
138, -25596.39, 0.00, 0.00, 0.00, 0.00, 0.00, 0.00, 0.00, 0.000, 0.000, 0.000, 14:05:08.324
139, -25602.29, 0.00, 0.00, 0.00, 0.00, 0.00, 0.00, 0.00, 0.000, 0.000, 0.000, 14:05:08.324
140, -25581.84, 0.00, 0.00, 0.00, 0.00, 0.00, 0.00, 0.00, 0.000, 0.000, 0.000, 14:05:08.324
141, -25593.33, 0.00, 0.00, 0.00, 0.00, 0.00, 0.00, 0.00, 0.000, 0.000, 0.000, 14:05:08.324
142, -25596.35, 0.00, 0.00, 0.00, 0.00, 0.00, 0.00, 0.00, 0.000, 0.000, 0.000, 14:05:08.324
143, -25594.22, 0.00, 0.00, 0.00, 0.00, 0.00, 0.00, 0.00, 0.000, 0.000, 0.000, 14:05:08.324
144, -25583.89, 0.00, 0.00, 0.00, 0.00, 0.00, 0.00, 0.00, 0.000, 0.000, 0.000, 14:05:08.324
145, -25595.21, 0.00, 0.00, 0.00, 0.00, 0.00, 0.00, 0.00, 0.078, -0.432, -0.942, 14:05:08.324
146, -25627.08, 0.00, 0.00, 0.00, 0.00, 0.00, 0.00, 0.00, 0.000, 0.000, 0.000, 14:05:08.324
147, -25621.40, 0.00, 0.00, 0.00, 0.00, 0.00, 0.00, 0.00, 0.000, 0.000, 0.000, 14:05:08.324
148, -25594.40, 0.00, 0.00, 0.00, 0.00, 0.00, 0.00, 0.00, 0.000, 0.000, 0.000, 14:05:08.325
149, -25598.02, 0.00, 0.00, 0.00, 0.00, 0.00, 0.00, 0.00, 0.000, 0.000, 0.000, 14:05:08.325
150, -25595.63, 0.00, 0.00, 0.00, 0.00, 0.00, 0.00, 0.00, 0.000, 0.000, 0.000, 14:05:08.325
151, -25595.59, 0.00, 0.00, 0.00, 0.00, 0.00, 0.00, 0.00, 0.000, 0.000, 0.000, 14:05:08.325
152, -25610.70, 0.00, 0.00, 0.00, 0.00, 0.00, 0.00, 0.00, 0.000, 0.000, 0.000, 14:05:08.326
153, -25608.82, 0.00, 0.00, 0.00, 0.00, 0.00, 0.00, 0.00, 0.000, 0.000, 0.000, 14:05:08.326
154, -25600.21, 0.00, 0.00, 0.00, 0.00, 0.00, 0.00, 0.00, 0.000, 0.000, 0.000, 14:05:08.326
155, -25593.15, 0.00, 0.00, 0.00, 0.00, 0.00, 0.00, 0.00, 0.076, -0.438, -0.942, 14:05:08.326
156, -25585.86, 0.00, 0.00, 0.00, 0.00, 0.00, 0.00, 0.00, 0.000, 0.000, 0.000, 14:05:08.326
157, -25584.50, 0.00, 0.00, 0.00, 0.00, 0.00, 0.00, 0.00, 0.000, 0.000, 0.000, 14:05:08.326
158, -25594.27, 0.00, 0.00, 0.00, 0.00, 0.00, 0.00, 0.00, 0.000, 0.000, 0.000, 14:05:08.326
159, -25626.65, 0.00, 0.00, 0.00, 0.00, 0.00, 0.00, 0.00, 0.000, 0.000, 0.000, 14:05:08.326
160, -25599.70, 0.00, 0.00, 0.00, 0.00, 0.00, 0.00, 0.00, 0.000, 0.000, 0.000, 14:05:08.326
161, -25570.24, 0.00, 0.00, 0.00, 0.00, 0.00, 0.00, 0.00, 0.000, 0.000, 0.000, 14:05:08.326
162, -25591.09, 0.00, 0.00, 0.00, 0.00, 0.00, 0.00, 0.00, 0.000, 0.000, 0.000, 14:05:08.326
163, -25611.14, 0.00, 0.00, 0.00, 0.00, 0.00, 0.00, 0.00, 0.000, 0.000, 0.000, 14:05:08.326
164, -25607.32, 0.00, 0.00, 0.00, 0.00, 0.00, 0.00, 0.00, 0.000, 0.000, 0.000, 14:05:08.326
165, -25595.36, 0.00, 0.00, 0.00, 0.00, 0.00, 0.00, 0.00, 0.072, -0.436, -0.942, 14:05:08.326
166, -25592.46, 0.00, 0.00, 0.00, 0.00, 0.00, 0.00, 0.00, 0.000, 0.000, 0.000, 14:05:08.326
167, -25606.07, 0.00, 0.00, 0.00, 0.00, 0.00, 0.00, 0.00, 0.000, 0.000, 0.000, 14:05:08.326
168, -25621.07, 0.00, 0.00, 0.00, 0.00, 0.00, 0.00, 0.00, 0.000, 0.000, 0.000, 14:05:08.326
169, -25604.06, 0.00, 0.00, 0.00, 0.00, 0.00, 0.00, 0.00, 0.000, 0.000, 0.000, 14:05:08.326
170, -25603.86, 0.00, 0.00, 0.00, 0.00, 0.00, 0.00, 0.00, 0.000, 0.000, 0.000, 14:05:08.327
171, -25605.29, 0.00, 0.00, 0.00, 0.00, 0.00, 0.00, 0.00, 0.000, 0.000, 0.000, 14:05:08.327
172, -25620.57, 0.00, 0.00, 0.00, 0.00, 0.00, 0.00, 0.00, 0.000, 0.000, 0.000, 14:05:08.327
173, -25603.99, 0.00, 0.00, 0.00, 0.00, 0.00, 0.00, 0.00, 0.000, 0.000, 0.000, 14:05:08.327
174, -25576.97, 0.00, 0.00, 0.00, 0.00, 0.00, 0.00, 0.00, 0.000, 0.000, 0.000, 14:05:08.327
175, -25602.00, 0.00, 0.00, 0.00, 0.00, 0.00, 0.00, 0.00, 0.078, -0.440, -0.944, 14:05:08.327
176, -25615.23, 0.00, 0.00, 0.00, 0.00, 0.00, 0.00, 0.00, 0.000, 0.000, 0.000, 14:05:08.327
177, -25593.55, 0.00, 0.00, 0.00, 0.00, 0.00, 0.00, 0.00, 0.000, 0.000, 0.000, 14:05:08.327
178, -25580.50, 0.00, 0.00, 0.00, 0.00, 0.00, 0.00, 0.00, 0.000, 0.000, 0.000, 14:05:08.327
179, -25602.38, 0.00, 0.00, 0.00, 0.00, 0.00, 0.00, 0.00, 0.000, 0.000, 0.000, 14:05:08.327
180, -25619.57, 0.00, 0.00, 0.00, 0.00, 0.00, 0.00, 0.00, 0.000, 0.000, 0.000, 14:05:08.327
181, -25612.68, 0.00, 0.00, 0.00, 0.00, 0.00, 0.00, 0.00, 0.000, 0.000, 0.000, 14:05:08.328
182, -25594.65, 0.00, 0.00, 0.00, 0.00, 0.00, 0.00, 0.00, 0.000, 0.000, 0.000, 14:05:08.328
183, -25612.80, 0.00, 0.00, 0.00, 0.00, 0.00, 0.00, 0.00, 0.000, 0.000, 0.000, 14:05:08.328
184, -25611.37, 0.00, 0.00, 0.00, 0.00, 0.00, 0.00, 0.00, 0.000, 0.000, 0.000, 14:05:08.328
185, -25597.31, 0.00, 0.00, 0.00, 0.00, 0.00, 0.00, 0.00, 0.076, -0.438, -0.944, 14:05:08.328
186, -25601.20, 0.00, 0.00, 0.00, 0.00, 0.00, 0.00, 0.00, 0.000, 0.000, 0.000, 14:05:08.328
187, -25597.62, 0.00, 0.00, 0.00, 0.00, 0.00, 0.00, 0.00, 0.000, 0.000, 0.000, 14:05:08.328
188, -25599.32, 0.00, 0.00, 0.00, 0.00, 0.00, 0.00, 0.00, 0.000, 0.000, 0.000, 14:05:08.328
189, -25614.58, 0.00, 0.00, 0.00, 0.00, 0.00, 0.00, 0.00, 0.000, 0.000, 0.000, 14:05:08.328
190, -25612.51, 0.00, 0.00, 0.00, 0.00, 0.00, 0.00, 0.00, 0.000, 0.000, 0.000, 14:05:08.328
191, -25590.89, 0.00, 0.00, 0.00, 0.00, 0.00, 0.00, 0.00, 0.000, 0.000, 0.000, 14:05:08.329
192, -25608.21, 0.00, 0.00, 0.00, 0.00, 0.00, 0.00, 0.00, 0.000, 0.000, 0.000, 14:05:08.329
193, -25604.91, 0.00, 0.00, 0.00, 0.00, 0.00, 0.00, 0.00, 0.000, 0.000, 0.000, 14:05:08.329
194, -25603.86, 0.00, 0.00, 0.00, 0.00, 0.00, 0.00, 0.00, 0.000, 0.000, 0.000, 14:05:08.329
195, -25608.42, 0.00, 0.00, 0.00, 0.00, 0.00, 0.00, 0.00, 0.076, -0.432, -0.950, 14:05:08.329
196, -25610.36, 0.00, 0.00, 0.00, 0.00, 0.00, 0.00, 0.00, 0.000, 0.000, 0.000, 14:05:08.329
197, -25613.78, 0.00, 0.00, 0.00, 0.00, 0.00, 0.00, 0.00, 0.000, 0.000, 0.000, 14:05:08.329
198, -25612.44, 0.00, 0.00, 0.00, 0.00, 0.00, 0.00, 0.00, 0.000, 0.000, 0.000, 14:05:08.329
199, -25608.44, 0.00, 0.00, 0.00, 0.00, 0.00, 0.00, 0.00, 0.000, 0.000, 0.000, 14:05:08.329
200, -25608.44, 0.00, 0.00, 0.00, 0.00, 0.00, 0.00, 0.00, 0.000, 0.000, 0.000, 14:05:08.329
201, -25608.68, 0.00, 0.00, 0.00, 0.00, 0.00, 0.00, 0.00, 0.000, 0.000, 0.000, 14:05:08.329
202, -25610.45, 0.00, 0.00, 0.00, 0.00, 0.00, 0.00, 0.00, 0.000, 0.000, 0.000, 14:05:08.329
203, -25611.92, 0.00, 0.00, 0.00, 0.00, 0.00, 0.00, 0.00, 0.000, 0.000, 0.000, 14:05:08.329
204, -25595.92, 0.00, 0.00, 0.00, 0.00, 0.00, 0.00, 0.00, 0.000, 0.000, 0.000, 14:05:08.329
205, -25609.98, 0.00, 0.00, 0.00, 0.00, 0.00, 0.00, 0.00, 0.074, -0.430, -0.950, 14:05:08.329
206, -25601.11, 0.00, 0.00, 0.00, 0.00, 0.00, 0.00, 0.00, 0.000, 0.000, 0.000, 14:05:08.330
207, -25608.35, 0.00, 0.00, 0.00, 0.00, 0.00, 0.00, 0.00, 0.000, 0.000, 0.000, 14:05:08.330
208, -25619.01, 0.00, 0.00, 0.00, 0.00, 0.00, 0.00, 0.00, 0.000, 0.000, 0.000, 14:05:08.330
209, -25611.46, 0.00, 0.00, 0.00, 0.00, 0.00, 0.00, 0.00, 0.000, 0.000, 0.000, 14:05:08.330
210, -25596.12, 0.00, 0.00, 0.00, 0.00, 0.00, 0.00, 0.00, 0.000, 0.000, 0.000, 14:05:08.330
211, -25592.39, 0.00, 0.00, 0.00, 0.00, 0.00, 0.00, 0.00, 0.000, 0.000, 0.000, 14:05:08.330
212, -25587.56, 0.00, 0.00, 0.00, 0.00, 0.00, 0.00, 0.00, 0.000, 0.000, 0.000, 14:05:08.331
213, -25603.34, 0.00, 0.00, 0.00, 0.00, 0.00, 0.00, 0.00, 0.000, 0.000, 0.000, 14:05:08.331
214, -25606.58, 0.00, 0.00, 0.00, 0.00, 0.00, 0.00, 0.00, 0.072, -0.432, -0.944, 14:05:08.331
215, -25598.69, 0.00, 0.00, 0.00, 0.00, 0.00, 0.00, 0.00, 0.000, 0.000, 0.000, 14:05:08.331
216, -25616.08, 0.00, 0.00, 0.00, 0.00, 0.00, 0.00, 0.00, 0.000, 0.000, 0.000, 14:05:08.331
217, -25623.68, 0.00, 0.00, 0.00, 0.00, 0.00, 0.00, 0.00, 0.000, 0.000, 0.000, 14:05:08.331
218, -25621.29, 0.00, 0.00, 0.00, 0.00, 0.00, 0.00, 0.00, 0.000, 0.000, 0.000, 14:05:08.332
219, -25622.16, 0.00, 0.00, 0.00, 0.00, 0.00, 0.00, 0.00, 0.000, 0.000, 0.000, 14:05:08.332
220, -25591.03, 0.00, 0.00, 0.00, 0.00, 0.00, 0.00, 0.00, 0.000, 0.000, 0.000, 14:05:08.332
221, -25594.42, 0.00, 0.00, 0.00, 0.00, 0.00, 0.00, 0.00, 0.000, 0.000, 0.000, 14:05:08.332
222, -25619.55, 0.00, 0.00, 0.00, 0.00, 0.00, 0.00, 0.00, 0.000, 0.000, 0.000, 14:05:08.332
223, -25603.68, 0.00, 0.00, 0.00, 0.00, 0.00, 0.00, 0.00, 0.000, 0.000, 0.000, 14:05:08.332
224, -25597.13, 0.00, 0.00, 0.00, 0.00, 0.00, 0.00, 0.00, 0.070, -0.436, -0.940, 14:05:08.332
225, -25607.05, 0.00, 0.00, 0.00, 0.00, 0.00, 0.00, 0.00, 0.000, 0.000, 0.000, 14:05:08.332
226, -25618.52, 0.00, 0.00, 0.00, 0.00, 0.00, 0.00, 0.00, 0.000, 0.000, 0.000, 14:05:08.332
227, -25606.96, 0.00, 0.00, 0.00, 0.00, 0.00, 0.00, 0.00, 0.000, 0.000, 0.000, 14:05:08.332
228, -25588.97, 0.00, 0.00, 0.00, 0.00, 0.00, 0.00, 0.00, 0.000, 0.000, 0.000, 14:05:08.332
229, -25608.39, 0.00, 0.00, 0.00, 0.00, 0.00, 0.00, 0.00, 0.000, 0.000, 0.000, 14:05:08.332
230, -25603.74, 0.00, 0.00, 0.00, 0.00, 0.00, 0.00, 0.00, 0.000, 0.000, 0.000, 14:05:08.332
231, -25595.07, 0.00, 0.00, 0.00, 0.00, 0.00, 0.00, 0.00, 0.000, 0.000, 0.000, 14:05:08.332
232, -25598.76, 0.00, 0.00, 0.00, 0.00, 0.00, 0.00, 0.00, 0.000, 0.000, 0.000, 14:05:08.332
233, -25596.46, 0.00, 0.00, 0.00, 0.00, 0.00, 0.00, 0.00, 0.000, 0.000, 0.000, 14:05:08.332
234, -25600.66, 0.00, 0.00, 0.00, 0.00, 0.00, 0.00, 0.00, 0.070, -0.434, -0.948, 14:05:08.332
235, -25600.08, 0.00, 0.00, 0.00, 0.00, 0.00, 0.00, 0.00, 0.000, 0.000, 0.000, 14:05:08.332
236, -25590.29, 0.00, 0.00, 0.00, 0.00, 0.00, 0.00, 0.00, 0.000, 0.000, 0.000, 14:05:08.333
237, -25604.75, 0.00, 0.00, 0.00, 0.00, 0.00, 0.00, 0.00, 0.000, 0.000, 0.000, 14:05:08.333
238, -25631.30, 0.00, 0.00, 0.00, 0.00, 0.00, 0.00, 0.00, 0.000, 0.000, 0.000, 14:05:08.333
239, -25607.77, 0.00, 0.00, 0.00, 0.00, 0.00, 0.00, 0.00, 0.000, 0.000, 0.000, 14:05:08.333
240, -25607.48, 0.00, 0.00, 0.00, 0.00, 0.00, 0.00, 0.00, 0.000, 0.000, 0.000, 14:05:08.333
241, -25618.45, 0.00, 0.00, 0.00, 0.00, 0.00, 0.00, 0.00, 0.000, 0.000, 0.000, 14:05:08.807
242, -25608.95, 0.00, 0.00, 0.00, 0.00, 0.00, 0.00, 0.00, 0.000, 0.000, 0.000, 14:05:08.807
243, -25626.95, 0.00, 0.00, 0.00, 0.00, 0.00, 0.00, 0.00, 0.000, 0.000, 0.000, 14:05:08.807
244, -25632.09, 0.00, 0.00, 0.00, 0.00, 0.00, 0.00, 0.00, 0.072, -0.428, -0.952, 14:05:08.807
245, -25611.59, 0.00, 0.00, 0.00, 0.00, 0.00, 0.00, 0.00, 0.000, 0.000, 0.000, 14:05:08.808
246, -25596.30, 0.00, 0.00, 0.00, 0.00, 0.00, 0.00, 0.00, 0.000, 0.000, 0.000, 14:05:08.808
247, -25605.40, 0.00, 0.00, 0.00, 0.00, 0.00, 0.00, 0.00, 0.000, 0.000, 0.000, 14:05:08.808
248, -25604.10, 0.00, 0.00, 0.00, 0.00, 0.00, 0.00, 0.00, 0.000, 0.000, 0.000, 14:05:08.808
249, -25603.34, 0.00, 0.00, 0.00, 0.00, 0.00, 0.00, 0.00, 0.000, 0.000, 0.000, 14:05:08.808
250, -25619.23, 0.00, 0.00, 0.00, 0.00, 0.00, 0.00, 0.00, 0.000, 0.000, 0.000, 14:05:08.808
251, -25628.69, 0.00, 0.00, 0.00, 0.00, 0.00, 0.00, 0.00, 0.000, 0.000, 0.000, 14:05:08.808
252, -25608.64, 0.00, 0.00, 0.00, 0.00, 0.00, 0.00, 0.00, 0.000, 0.000, 0.000, 14:05:08.808
253, -25605.84, 0.00, 0.00, 0.00, 0.00, 0.00, 0.00, 0.00, 0.000, 0.000, 0.000, 14:05:08.809
254, -25596.59, 0.00, 0.00, 0.00, 0.00, 0.00, 0.00, 0.00, 0.068, -0.432, -0.950, 14:05:08.809
255, -25607.83, 0.00, 0.00, 0.00, 0.00, 0.00, 0.00, 0.00, 0.000, 0.000, 0.000, 14:05:08.809
0, -25607.65, 0.00, 0.00, 0.00, 0.00, 0.00, 0.00, 0.00, 0.000, 0.000, 0.000, 14:05:08.809
1, -25613.67, 0.00, 0.00, 0.00, 0.00, 0.00, 0.00, 0.00, 0.000, 0.000, 0.000, 14:05:08.809
2, -25634.03, 0.00, 0.00, 0.00, 0.00, 0.00, 0.00, 0.00, 0.000, 0.000, 0.000, 14:05:08.809
3, -25626.01, 0.00, 0.00, 0.00, 0.00, 0.00, 0.00, 0.00, 0.000, 0.000, 0.000, 14:05:08.809
4, -25593.33, 0.00, 0.00, 0.00, 0.00, 0.00, 0.00, 0.00, 0.000, 0.000, 0.000, 14:05:08.810
5, -25597.11, 0.00, 0.00, 0.00, 0.00, 0.00, 0.00, 0.00, 0.000, 0.000, 0.000, 14:05:08.810
6, -25598.07, 0.00, 0.00, 0.00, 0.00, 0.00, 0.00, 0.00, 0.000, 0.000, 0.000, 14:05:08.810
7, -25624.69, 0.00, 0.00, 0.00, 0.00, 0.00, 0.00, 0.00, 0.000, 0.000, 0.000, 14:05:08.810
8, -25629.09, 0.00, 0.00, 0.00, 0.00, 0.00, 0.00, 0.00, 0.070, -0.426, -0.946, 14:05:08.810
9, -25604.15, 0.00, 0.00, 0.00, 0.00, 0.00, 0.00, 0.00, 0.000, 0.000, 0.000, 14:05:08.810
10, -25616.86, 0.00, 0.00, 0.00, 0.00, 0.00, 0.00, 0.00, 0.000, 0.000, 0.000, 14:05:08.810
11, -25625.74, 0.00, 0.00, 0.00, 0.00, 0.00, 0.00, 0.00, 0.000, 0.000, 0.000, 14:05:08.811
12, -25623.57, 0.00, 0.00, 0.00, 0.00, 0.00, 0.00, 0.00, 0.000, 0.000, 0.000, 14:05:08.811
13, -25608.30, 0.00, 0.00, 0.00, 0.00, 0.00, 0.00, 0.00, 0.000, 0.000, 0.000, 14:05:08.811
14, -25611.21, 0.00, 0.00, 0.00, 0.00, 0.00, 0.00, 0.00, 0.000, 0.000, 0.000, 14:05:08.811
15, -25595.43, 0.00, 0.00, 0.00, 0.00, 0.00, 0.00, 0.00, 0.000, 0.000, 0.000, 14:05:08.811
16, -25629.34, 0.00, 0.00, 0.00, 0.00, 0.00, 0.00, 0.00, 0.000, 0.000, 0.000, 14:05:08.811
17, -25620.51, 0.00, 0.00, 0.00, 0.00, 0.00, 0.00, 0.00, 0.000, 0.000, 0.000, 14:05:08.811
18, -25600.05, 0.00, 0.00, 0.00, 0.00, 0.00, 0.00, 0.00, 0.076, -0.426, -0.946, 14:05:08.812
19, -25596.39, 0.00, 0.00, 0.00, 0.00, 0.00, 0.00, 0.00, 0.000, 0.000, 0.000, 14:05:08.812
20, -25608.30, 0.00, 0.00, 0.00, 0.00, 0.00, 0.00, 0.00, 0.000, 0.000, 0.000, 14:05:08.812
21, -25617.87, 0.00, 0.00, 0.00, 0.00, 0.00, 0.00, 0.00, 0.000, 0.000, 0.000, 14:05:08.812
22, -25593.10, 0.00, 0.00, 0.00, 0.00, 0.00, 0.00, 0.00, 0.000, 0.000, 0.000, 14:05:08.812
23, -25595.27, 0.00, 0.00, 0.00, 0.00, 0.00, 0.00, 0.00, 0.000, 0.000, 0.000, 14:05:08.812
24, -25607.19, 0.00, 0.00, 0.00, 0.00, 0.00, 0.00, 0.00, 0.000, 0.000, 0.000, 14:05:08.813
25, -25609.60, 0.00, 0.00, 0.00, 0.00, 0.00, 0.00, 0.00, 0.000, 0.000, 0.000, 14:05:08.813
26, -25618.92, 0.00, 0.00, 0.00, 0.00, 0.00, 0.00, 0.00, 0.000, 0.000, 0.000, 14:05:08.813
27, -25618.05, 0.00, 0.00, 0.00, 0.00, 0.00, 0.00, 0.00, 0.000, 0.000, 0.000, 14:05:08.813
28, -25618.79, 0.00, 0.00, 0.00, 0.00, 0.00, 0.00, 0.00, 0.070, -0.428, -0.942, 14:05:08.813
29, -25616.42, 0.00, 0.00, 0.00, 0.00, 0.00, 0.00, 0.00, 0.000, 0.000, 0.000, 14:05:08.813
30, -25598.16, 0.00, 0.00, 0.00, 0.00, 0.00, 0.00, 0.00, 0.000, 0.000, 0.000, 14:05:08.813
31, -25618.38, 0.00, 0.00, 0.00, 0.00, 0.00, 0.00, 0.00, 0.000, 0.000, 0.000, 14:05:08.813
32, -25625.85, 0.00, 0.00, 0.00, 0.00, 0.00, 0.00, 0.00, 0.000, 0.000, 0.000, 14:05:08.814
33, -25619.59, 0.00, 0.00, 0.00, 0.00, 0.00, 0.00, 0.00, 0.000, 0.000, 0.000, 14:05:08.814
34, -25608.21, 0.00, 0.00, 0.00, 0.00, 0.00, 0.00, 0.00, 0.000, 0.000, 0.000, 14:05:08.814
35, -25605.51, 0.00, 0.00, 0.00, 0.00, 0.00, 0.00, 0.00, 0.000, 0.000, 0.000, 14:05:08.814
36, -25612.44, 0.00, 0.00, 0.00, 0.00, 0.00, 0.00, 0.00, 0.000, 0.000, 0.000, 14:05:08.814
37, -25627.84, 0.00, 0.00, 0.00, 0.00, 0.00, 0.00, 0.00, 0.000, 0.000, 0.000, 14:05:08.814
38, -25634.92, 0.00, 0.00, 0.00, 0.00, 0.00, 0.00, 0.00, 0.074, -0.430, -0.942, 14:05:08.814
39, -25614.03, 0.00, 0.00, 0.00, 0.00, 0.00, 0.00, 0.00, 0.000, 0.000, 0.000, 14:05:08.814
40, -25600.75, 0.00, 0.00, 0.00, 0.00, 0.00, 0.00, 0.00, 0.000, 0.000, 0.000, 14:05:08.815
41, -25620.06, 0.00, 0.00, 0.00, 0.00, 0.00, 0.00, 0.00, 0.000, 0.000, 0.000, 14:05:08.815
42, -25607.30, 0.00, 0.00, 0.00, 0.00, 0.00, 0.00, 0.00, 0.000, 0.000, 0.000, 14:05:08.815
43, -25593.28, 0.00, 0.00, 0.00, 0.00, 0.00, 0.00, 0.00, 0.000, 0.000, 0.000, 14:05:08.815
44, -25596.46, 0.00, 0.00, 0.00, 0.00, 0.00, 0.00, 0.00, 0.000, 0.000, 0.000, 14:05:08.815
45, -25632.85, 0.00, 0.00, 0.00, 0.00, 0.00, 0.00, 0.00, 0.000, 0.000, 0.000, 14:05:08.815
46, -25629.58, 0.00, 0.00, 0.00, 0.00, 0.00, 0.00, 0.00, 0.000, 0.000, 0.000, 14:05:08.816
47, -25597.37, 0.00, 0.00, 0.00, 0.00, 0.00, 0.00, 0.00, 0.000, 0.000, 0.000, 14:05:08.816
48, -25608.30, 0.00, 0.00, 0.00, 0.00, 0.00, 0.00, 0.00, 0.072, -0.430, -0.948, 14:05:08.816
49, -25623.17, 0.00, 0.00, 0.00, 0.00, 0.00, 0.00, 0.00, 0.000, 0.000, 0.000, 14:05:08.817
50, -25625.76, 0.00, 0.00, 0.00, 0.00, 0.00, 0.00, 0.00, 0.000, 0.000, 0.000, 14:05:08.817
51, -25613.33, 0.00, 0.00, 0.00, 0.00, 0.00, 0.00, 0.00, 0.000, 0.000, 0.000, 14:05:08.817
52, -25608.37, 0.00, 0.00, 0.00, 0.00, 0.00, 0.00, 0.00, 0.000, 0.000, 0.000, 14:05:08.817
53, -25609.22, 0.00, 0.00, 0.00, 0.00, 0.00, 0.00, 0.00, 0.000, 0.000, 0.000, 14:05:08.817
54, -25619.08, 0.00, 0.00, 0.00, 0.00, 0.00, 0.00, 0.00, 0.000, 0.000, 0.000, 14:05:08.817
55, -25613.76, 0.00, 0.00, 0.00, 0.00, 0.00, 0.00, 0.00, 0.000, 0.000, 0.000, 14:05:08.817
56, -25617.98, 0.00, 0.00, 0.00, 0.00, 0.00, 0.00, 0.00, 0.000, 0.000, 0.000, 14:05:08.817
57, -25606.98, 0.00, 0.00, 0.00, 0.00, 0.00, 0.00, 0.00, 0.074, -0.430, -0.950, 14:05:08.818
58, -25619.14, 0.00, 0.00, 0.00, 0.00, 0.00, 0.00, 0.00, 0.000, 0.000, 0.000, 14:05:08.818
59, -25614.72, 0.00, 0.00, 0.00, 0.00, 0.00, 0.00, 0.00, 0.000, 0.000, 0.000, 14:05:08.818
60, -25607.16, 0.00, 0.00, 0.00, 0.00, 0.00, 0.00, 0.00, 0.000, 0.000, 0.000, 14:05:08.818
61, -25611.59, 0.00, 0.00, 0.00, 0.00, 0.00, 0.00, 0.00, 0.000, 0.000, 0.000, 14:05:08.818
62, -25607.95, 0.00, 0.00, 0.00, 0.00, 0.00, 0.00, 0.00, 0.000, 0.000, 0.000, 14:05:08.818
63, -25602.07, 0.00, 0.00, 0.00, 0.00, 0.00, 0.00, 0.00, 0.000, 0.000, 0.000, 14:05:08.818
64, -25604.62, 0.00, 0.00, 0.00, 0.00, 0.00, 0.00, 0.00, 0.000, 0.000, 0.000, 14:05:08.818
65, -25620.17, 0.00, 0.00, 0.00, 0.00, 0.00, 0.00, 0.00, 0.000, 0.000, 0.000, 14:05:08.819
66, -25626.65, 0.00, 0.00, 0.00, 0.00, 0.00, 0.00, 0.00, 0.000, 0.000, 0.000, 14:05:08.819
67, -25613.04, 0.00, 0.00, 0.00, 0.00, 0.00, 0.00, 0.00, 0.066, -0.432, -0.954, 14:05:08.819
68, -25604.53, 0.00, 0.00, 0.00, 0.00, 0.00, 0.00, 0.00, 0.000, 0.000, 0.000, 14:05:08.819
69, -25622.85, 0.00, 0.00, 0.00, 0.00, 0.00, 0.00, 0.00, 0.000, 0.000, 0.000, 14:05:08.819
70, -25615.90, 0.00, 0.00, 0.00, 0.00, 0.00, 0.00, 0.00, 0.000, 0.000, 0.000, 14:05:08.819
71, -25599.05, 0.00, 0.00, 0.00, 0.00, 0.00, 0.00, 0.00, 0.000, 0.000, 0.000, 14:05:08.819
72, -25591.09, 0.00, 0.00, 0.00, 0.00, 0.00, 0.00, 0.00, 0.000, 0.000, 0.000, 14:05:08.819
73, -25599.14, 0.00, 0.00, 0.00, 0.00, 0.00, 0.00, 0.00, 0.000, 0.000, 0.000, 14:05:08.820
74, -25615.01, 0.00, 0.00, 0.00, 0.00, 0.00, 0.00, 0.00, 0.000, 0.000, 0.000, 14:05:08.820
75, -25621.78, 0.00, 0.00, 0.00, 0.00, 0.00, 0.00, 0.00, 0.000, 0.000, 0.000, 14:05:08.820
76, -25618.76, 0.00, 0.00, 0.00, 0.00, 0.00, 0.00, 0.00, 0.000, 0.000, 0.000, 14:05:08.821
77, -25606.63, 0.00, 0.00, 0.00, 0.00, 0.00, 0.00, 0.00, 0.070, -0.434, -0.946, 14:05:08.822
78, -25630.86, 0.00, 0.00, 0.00, 0.00, 0.00, 0.00, 0.00, 0.000, 0.000, 0.000, 14:05:08.822
79, -25649.50, 0.00, 0.00, 0.00, 0.00, 0.00, 0.00, 0.00, 0.000, 0.000, 0.000, 14:05:08.822
80, -25608.33, 0.00, 0.00, 0.00, 0.00, 0.00, 0.00, 0.00, 0.000, 0.000, 0.000, 14:05:08.822
81, -25586.51, 0.00, 0.00, 0.00, 0.00, 0.00, 0.00, 0.00, 0.000, 0.000, 0.000, 14:05:08.822
82, -25601.51, 0.00, 0.00, 0.00, 0.00, 0.00, 0.00, 0.00, 0.000, 0.000, 0.000, 14:05:08.822
83, -25622.50, 0.00, 0.00, 0.00, 0.00, 0.00, 0.00, 0.00, 0.000, 0.000, 0.000, 14:05:08.822
84, -25617.36, 0.00, 0.00, 0.00, 0.00, 0.00, 0.00, 0.00, 0.000, 0.000, 0.000, 14:05:08.823
85, -25592.72, 0.00, 0.00, 0.00, 0.00, 0.00, 0.00, 0.00, 0.000, 0.000, 0.000, 14:05:08.823
86, -25607.14, 0.00, 0.00, 0.00, 0.00, 0.00, 0.00, 0.00, 0.000, 0.000, 0.000, 14:05:08.823
87, -25626.34, 0.00, 0.00, 0.00, 0.00, 0.00, 0.00, 0.00, 0.072, -0.432, -0.944, 14:05:08.823
88, -25601.44, 0.00, 0.00, 0.00, 0.00, 0.00, 0.00, 0.00, 0.000, 0.000, 0.000, 14:05:08.823
89, -25599.47, 0.00, 0.00, 0.00, 0.00, 0.00, 0.00, 0.00, 0.000, 0.000, 0.000, 14:05:08.823
90, -25613.13, 0.00, 0.00, 0.00, 0.00, 0.00, 0.00, 0.00, 0.000, 0.000, 0.000, 14:05:08.823
91, -25616.98, 0.00, 0.00, 0.00, 0.00, 0.00, 0.00, 0.00, 0.000, 0.000, 0.000, 14:05:08.823
92, -25624.20, 0.00, 0.00, 0.00, 0.00, 0.00, 0.00, 0.00, 0.000, 0.000, 0.000, 14:05:08.824
93, -25582.29, 0.00, 0.00, 0.00, 0.00, 0.00, 0.00, 0.00, 0.000, 0.000, 0.000, 14:05:08.824
94, -25590.71, 0.00, 0.00, 0.00, 0.00, 0.00, 0.00, 0.00, 0.000, 0.000, 0.000, 14:05:08.824
95, -25613.38, 0.00, 0.00, 0.00, 0.00, 0.00, 0.00, 0.00, 0.000, 0.000, 0.000, 14:05:08.824
96, -25606.63, 0.00, 0.00, 0.00, 0.00, 0.00, 0.00, 0.00, 0.000, 0.000, 0.000, 14:05:08.824
97, -25606.47, 0.00, 0.00, 0.00, 0.00, 0.00, 0.00, 0.00, 0.076, -0.436, -0.944, 14:05:08.824
98, -25599.29, 0.00, 0.00, 0.00, 0.00, 0.00, 0.00, 0.00, 0.000, 0.000, 0.000, 14:05:08.824
99, -25613.47, 0.00, 0.00, 0.00, 0.00, 0.00, 0.00, 0.00, 0.000, 0.000, 0.000, 14:05:08.825
100, -25611.43, 0.00, 0.00, 0.00, 0.00, 0.00, 0.00, 0.00, 0.000, 0.000, 0.000, 14:05:08.825
101, -25609.80, 0.00, 0.00, 0.00, 0.00, 0.00, 0.00, 0.00, 0.000, 0.000, 0.000, 14:05:08.825
102, -25625.45, 0.00, 0.00, 0.00, 0.00, 0.00, 0.00, 0.00, 0.000, 0.000, 0.000, 14:05:08.825
103, -25623.84, 0.00, 0.00, 0.00, 0.00, 0.00, 0.00, 0.00, 0.000, 0.000, 0.000, 14:05:08.825
104, -25622.83, 0.00, 0.00, 0.00, 0.00, 0.00, 0.00, 0.00, 0.000, 0.000, 0.000, 14:05:08.825
105, -25595.56, 0.00, 0.00, 0.00, 0.00, 0.00, 0.00, 0.00, 0.000, 0.000, 0.000, 14:05:08.825
106, -25589.66, 0.00, 0.00, 0.00, 0.00, 0.00, 0.00, 0.00, 0.000, 0.000, 0.000, 14:05:09.284
107, -25622.01, 0.00, 0.00, 0.00, 0.00, 0.00, 0.00, 0.00, 0.072, -0.438, -0.944, 14:05:09.285
108, -25632.44, 0.00, 0.00, 0.00, 0.00, 0.00, 0.00, 0.00, 0.000, 0.000, 0.000, 14:05:09.285
109, -25613.62, 0.00, 0.00, 0.00, 0.00, 0.00, 0.00, 0.00, 0.000, 0.000, 0.000, 14:05:09.285
110, -25619.95, 0.00, 0.00, 0.00, 0.00, 0.00, 0.00, 0.00, 0.000, 0.000, 0.000, 14:05:09.286
111, -25612.68, 0.00, 0.00, 0.00, 0.00, 0.00, 0.00, 0.00, 0.000, 0.000, 0.000, 14:05:09.286
112, -25624.13, 0.00, 0.00, 0.00, 0.00, 0.00, 0.00, 0.00, 0.000, 0.000, 0.000, 14:05:09.286
113, -25611.63, 0.00, 0.00, 0.00, 0.00, 0.00, 0.00, 0.00, 0.000, 0.000, 0.000, 14:05:09.286
114, -25595.41, 0.00, 0.00, 0.00, 0.00, 0.00, 0.00, 0.00, 0.000, 0.000, 0.000, 14:05:09.287
115, -25612.57, 0.00, 0.00, 0.00, 0.00, 0.00, 0.00, 0.00, 0.000, 0.000, 0.000, 14:05:09.287
116, -25612.97, 0.00, 0.00, 0.00, 0.00, 0.00, 0.00, 0.00, 0.000, 0.000, 0.000, 14:05:09.287
117, -25612.10, 0.00, 0.00, 0.00, 0.00, 0.00, 0.00, 0.00, 0.068, -0.436, -0.948, 14:05:09.287
118, -25613.13, 0.00, 0.00, 0.00, 0.00, 0.00, 0.00, 0.00, 0.000, 0.000, 0.000, 14:05:09.288
119, -25620.80, 0.00, 0.00, 0.00, 0.00, 0.00, 0.00, 0.00, 0.000, 0.000, 0.000, 14:05:09.288
120, -25617.36, 0.00, 0.00, 0.00, 0.00, 0.00, 0.00, 0.00, 0.000, 0.000, 0.000, 14:05:09.293
121, -25619.81, 0.00, 0.00, 0.00, 0.00, 0.00, 0.00, 0.00, 0.000, 0.000, 0.000, 14:05:09.293
122, -25611.01, 0.00, 0.00, 0.00, 0.00, 0.00, 0.00, 0.00, 0.000, 0.000, 0.000, 14:05:09.293
123, -25605.64, 0.00, 0.00, 0.00, 0.00, 0.00, 0.00, 0.00, 0.000, 0.000, 0.000, 14:05:09.293
124, -25600.59, 0.00, 0.00, 0.00, 0.00, 0.00, 0.00, 0.00, 0.000, 0.000, 0.000, 14:05:09.293
125, -25609.42, 0.00, 0.00, 0.00, 0.00, 0.00, 0.00, 0.00, 0.000, 0.000, 0.000, 14:05:09.294
126, -25599.94, 0.00, 0.00, 0.00, 0.00, 0.00, 0.00, 0.00, 0.000, 0.000, 0.000, 14:05:09.294
127, -25605.71, 0.00, 0.00, 0.00, 0.00, 0.00, 0.00, 0.00, 0.066, -0.434, -0.940, 14:05:09.294
128, -25622.68, 0.00, 0.00, 0.00, 0.00, 0.00, 0.00, 0.00, 0.000, 0.000, 0.000, 14:05:09.294
129, -25627.12, 0.00, 0.00, 0.00, 0.00, 0.00, 0.00, 0.00, 0.000, 0.000, 0.000, 14:05:09.294
130, -25618.21, 0.00, 0.00, 0.00, 0.00, 0.00, 0.00, 0.00, 0.000, 0.000, 0.000, 14:05:09.295
131, -25601.29, 0.00, 0.00, 0.00, 0.00, 0.00, 0.00, 0.00, 0.000, 0.000, 0.000, 14:05:09.295
132, -25615.23, 0.00, 0.00, 0.00, 0.00, 0.00, 0.00, 0.00, 0.000, 0.000, 0.000, 14:05:09.295
133, -25625.51, 0.00, 0.00, 0.00, 0.00, 0.00, 0.00, 0.00, 0.000, 0.000, 0.000, 14:05:09.295
134, -25610.09, 0.00, 0.00, 0.00, 0.00, 0.00, 0.00, 0.00, 0.000, 0.000, 0.000, 14:05:09.295
135, -25608.77, 0.00, 0.00, 0.00, 0.00, 0.00, 0.00, 0.00, 0.000, 0.000, 0.000, 14:05:09.296
136, -25633.02, 0.00, 0.00, 0.00, 0.00, 0.00, 0.00, 0.00, 0.000, 0.000, 0.000, 14:05:09.296
137, -25635.53, 0.00, 0.00, 0.00, 0.00, 0.00, 0.00, 0.00, 0.072, -0.430, -0.942, 14:05:09.297
138, -25634.57, 0.00, 0.00, 0.00, 0.00, 0.00, 0.00, 0.00, 0.000, 0.000, 0.000, 14:05:09.297
139, -25619.72, 0.00, 0.00, 0.00, 0.00, 0.00, 0.00, 0.00, 0.000, 0.000, 0.000, 14:05:09.297
140, -25621.69, 0.00, 0.00, 0.00, 0.00, 0.00, 0.00, 0.00, 0.000, 0.000, 0.000, 14:05:09.297
141, -25620.51, 0.00, 0.00, 0.00, 0.00, 0.00, 0.00, 0.00, 0.000, 0.000, 0.000, 14:05:09.298
142, -25607.05, 0.00, 0.00, 0.00, 0.00, 0.00, 0.00, 0.00, 0.000, 0.000, 0.000, 14:05:09.298
143, -25611.99, 0.00, 0.00, 0.00, 0.00, 0.00, 0.00, 0.00, 0.000, 0.000, 0.000, 14:05:09.298
144, -25620.40, 0.00, 0.00, 0.00, 0.00, 0.00, 0.00, 0.00, 0.000, 0.000, 0.000, 14:05:09.298
145, -25612.75, 0.00, 0.00, 0.00, 0.00, 0.00, 0.00, 0.00, 0.000, 0.000, 0.000, 14:05:09.298
146, -25607.99, 0.00, 0.00, 0.00, 0.00, 0.00, 0.00, 0.00, 0.080, -0.432, -0.938, 14:05:09.299
147, -25584.61, 0.00, 0.00, 0.00, 0.00, 0.00, 0.00, 0.00, 0.000, 0.000, 0.000, 14:05:09.299
148, -25601.89, 0.00, 0.00, 0.00, 0.00, 0.00, 0.00, 0.00, 0.000, 0.000, 0.000, 14:05:09.299
149, -25634.12, 0.00, 0.00, 0.00, 0.00, 0.00, 0.00, 0.00, 0.000, 0.000, 0.000, 14:05:09.299
150, -25612.24, 0.00, 0.00, 0.00, 0.00, 0.00, 0.00, 0.00, 0.000, 0.000, 0.000, 14:05:09.299
151, -25594.24, 0.00, 0.00, 0.00, 0.00, 0.00, 0.00, 0.00, 0.000, 0.000, 0.000, 14:05:09.300
152, -25595.29, 0.00, 0.00, 0.00, 0.00, 0.00, 0.00, 0.00, 0.000, 0.000, 0.000, 14:05:09.300
153, -25612.80, 0.00, 0.00, 0.00, 0.00, 0.00, 0.00, 0.00, 0.000, 0.000, 0.000, 14:05:09.300
154, -25631.88, 0.00, 0.00, 0.00, 0.00, 0.00, 0.00, 0.00, 0.000, 0.000, 0.000, 14:05:09.300
155, -25612.48, 0.00, 0.00, 0.00, 0.00, 0.00, 0.00, 0.00, 0.000, 0.000, 0.000, 14:05:09.300
156, -25623.32, 0.00, 0.00, 0.00, 0.00, 0.00, 0.00, 0.00, 0.076, -0.436, -0.938, 14:05:09.301
157, -25628.84, 0.00, 0.00, 0.00, 0.00, 0.00, 0.00, 0.00, 0.000, 0.000, 0.000, 14:05:09.301
158, -25630.59, 0.00, 0.00, 0.00, 0.00, 0.00, 0.00, 0.00, 0.000, 0.000, 0.000, 14:05:09.301
159, -25621.96, 0.00, 0.00, 0.00, 0.00, 0.00, 0.00, 0.00, 0.000, 0.000, 0.000, 14:05:09.301
160, -25606.74, 0.00, 0.00, 0.00, 0.00, 0.00, 0.00, 0.00, 0.000, 0.000, 0.000, 14:05:09.302
161, -25629.49, 0.00, 0.00, 0.00, 0.00, 0.00, 0.00, 0.00, 0.000, 0.000, 0.000, 14:05:09.302
162, -25642.70, 0.00, 0.00, 0.00, 0.00, 0.00, 0.00, 0.00, 0.000, 0.000, 0.000, 14:05:09.302
163, -25597.62, 0.00, 0.00, 0.00, 0.00, 0.00, 0.00, 0.00, 0.000, 0.000, 0.000, 14:05:09.302
164, -25603.74, 0.00, 0.00, 0.00, 0.00, 0.00, 0.00, 0.00, 0.000, 0.000, 0.000, 14:05:09.302
165, -25626.43, 0.00, 0.00, 0.00, 0.00, 0.00, 0.00, 0.00, 0.000, 0.000, 0.000, 14:05:09.303
166, -25655.35, 0.00, 0.00, 0.00, 0.00, 0.00, 0.00, 0.00, 0.080, -0.436, -0.944, 14:05:09.304
167, -25641.23, 0.00, 0.00, 0.00, 0.00, 0.00, 0.00, 0.00, 0.000, 0.000, 0.000, 14:05:09.304
168, -25602.18, 0.00, 0.00, 0.00, 0.00, 0.00, 0.00, 0.00, 0.000, 0.000, 0.000, 14:05:09.304
169, -25611.41, 0.00, 0.00, 0.00, 0.00, 0.00, 0.00, 0.00, 0.000, 0.000, 0.000, 14:05:09.304
170, -25621.63, 0.00, 0.00, 0.00, 0.00, 0.00, 0.00, 0.00, 0.000, 0.000, 0.000, 14:05:09.305
171, -25621.85, 0.00, 0.00, 0.00, 0.00, 0.00, 0.00, 0.00, 0.000, 0.000, 0.000, 14:05:09.305
172, -25621.33, 0.00, 0.00, 0.00, 0.00, 0.00, 0.00, 0.00, 0.000, 0.000, 0.000, 14:05:09.305
173, -25619.50, 0.00, 0.00, 0.00, 0.00, 0.00, 0.00, 0.00, 0.000, 0.000, 0.000, 14:05:09.306
174, -25618.61, 0.00, 0.00, 0.00, 0.00, 0.00, 0.00, 0.00, 0.000, 0.000, 0.000, 14:05:09.306
175, -25627.64, 0.00, 0.00, 0.00, 0.00, 0.00, 0.00, 0.00, 0.000, 0.000, 0.000, 14:05:09.306
176, -25615.25, 0.00, 0.00, 0.00, 0.00, 0.00, 0.00, 0.00, 0.074, -0.436, -0.946, 14:05:09.306
177, -25626.01, 0.00, 0.00, 0.00, 0.00, 0.00, 0.00, 0.00, 0.000, 0.000, 0.000, 14:05:09.307
178, -25637.99, 0.00, 0.00, 0.00, 0.00, 0.00, 0.00, 0.00, 0.000, 0.000, 0.000, 14:05:09.307
179, -25624.31, 0.00, 0.00, 0.00, 0.00, 0.00, 0.00, 0.00, 0.000, 0.000, 0.000, 14:05:09.307
180, -25609.00, 0.00, 0.00, 0.00, 0.00, 0.00, 0.00, 0.00, 0.000, 0.000, 0.000, 14:05:09.307
181, -25612.55, 0.00, 0.00, 0.00, 0.00, 0.00, 0.00, 0.00, 0.000, 0.000, 0.000, 14:05:09.307
182, -25605.78, 0.00, 0.00, 0.00, 0.00, 0.00, 0.00, 0.00, 0.000, 0.000, 0.000, 14:05:09.308
183, -25631.35, 0.00, 0.00, 0.00, 0.00, 0.00, 0.00, 0.00, 0.000, 0.000, 0.000, 14:05:09.308
184, -25630.97, 0.00, 0.00, 0.00, 0.00, 0.00, 0.00, 0.00, 0.000, 0.000, 0.000, 14:05:09.308
185, -25607.54, 0.00, 0.00, 0.00, 0.00, 0.00, 0.00, 0.00, 0.000, 0.000, 0.000, 14:05:09.308
186, -25608.86, 0.00, 0.00, 0.00, 0.00, 0.00, 0.00, 0.00, 0.072, -0.432, -0.942, 14:05:09.309
187, -25618.47, 0.00, 0.00, 0.00, 0.00, 0.00, 0.00, 0.00, 0.000, 0.000, 0.000, 14:05:09.309
188, -25623.23, 0.00, 0.00, 0.00, 0.00, 0.00, 0.00, 0.00, 0.000, 0.000, 0.000, 14:05:09.309
189, -25610.87, 0.00, 0.00, 0.00, 0.00, 0.00, 0.00, 0.00, 0.000, 0.000, 0.000, 14:05:09.310
190, -25598.96, 0.00, 0.00, 0.00, 0.00, 0.00, 0.00, 0.00, 0.000, 0.000, 0.000, 14:05:09.310
191, -25619.17, 0.00, 0.00, 0.00, 0.00, 0.00, 0.00, 0.00, 0.000, 0.000, 0.000, 14:05:09.310
192, -25610.00, 0.00, 0.00, 0.00, 0.00, 0.00, 0.00, 0.00, 0.000, 0.000, 0.000, 14:05:09.311
193, -25601.44, 0.00, 0.00, 0.00, 0.00, 0.00, 0.00, 0.00, 0.000, 0.000, 0.000, 14:05:09.311
194, -25617.45, 0.00, 0.00, 0.00, 0.00, 0.00, 0.00, 0.00, 0.000, 0.000, 0.000, 14:05:09.311
195, -25633.90, 0.00, 0.00, 0.00, 0.00, 0.00, 0.00, 0.00, 0.000, 0.000, 0.000, 14:05:09.311
196, -25634.16, 0.00, 0.00, 0.00, 0.00, 0.00, 0.00, 0.00, 0.080, -0.434, -0.942, 14:05:09.312
197, -25608.37, 0.00, 0.00, 0.00, 0.00, 0.00, 0.00, 0.00, 0.000, 0.000, 0.000, 14:05:09.313
198, -25600.99, 0.00, 0.00, 0.00, 0.00, 0.00, 0.00, 0.00, 0.000, 0.000, 0.000, 14:05:09.313
199, -25618.59, 0.00, 0.00, 0.00, 0.00, 0.00, 0.00, 0.00, 0.000, 0.000, 0.000, 14:05:09.313
200, -25615.30, 0.00, 0.00, 0.00, 0.00, 0.00, 0.00, 0.00, 0.000, 0.000, 0.000, 14:05:09.313
201, -25610.52, 0.00, 0.00, 0.00, 0.00, 0.00, 0.00, 0.00, 0.000, 0.000, 0.000, 14:05:09.313
202, -25611.70, 0.00, 0.00, 0.00, 0.00, 0.00, 0.00, 0.00, 0.000, 0.000, 0.000, 14:05:09.313
203, -25621.71, 0.00, 0.00, 0.00, 0.00, 0.00, 0.00, 0.00, 0.000, 0.000, 0.000, 14:05:09.313
204, -25615.81, 0.00, 0.00, 0.00, 0.00, 0.00, 0.00, 0.00, 0.000, 0.000, 0.000, 14:05:09.313
205, -25596.46, 0.00, 0.00, 0.00, 0.00, 0.00, 0.00, 0.00, 0.000, 0.000, 0.000, 14:05:09.314
206, -25604.30, 0.00, 0.00, 0.00, 0.00, 0.00, 0.00, 0.00, 0.074, -0.438, -0.942, 14:05:09.314
207, -25597.48, 0.00, 0.00, 0.00, 0.00, 0.00, 0.00, 0.00, 0.000, 0.000, 0.000, 14:05:09.314
208, -25606.85, 0.00, 0.00, 0.00, 0.00, 0.00, 0.00, 0.00, 0.000, 0.000, 0.000, 14:05:09.314
209, -25602.11, 0.00, 0.00, 0.00, 0.00, 0.00, 0.00, 0.00, 0.000, 0.000, 0.000, 14:05:09.314
210, -25606.07, 0.00, 0.00, 0.00, 0.00, 0.00, 0.00, 0.00, 0.000, 0.000, 0.000, 14:05:09.314
211, -25614.67, 0.00, 0.00, 0.00, 0.00, 0.00, 0.00, 0.00, 0.000, 0.000, 0.000, 14:05:09.314
212, -25616.21, 0.00, 0.00, 0.00, 0.00, 0.00, 0.00, 0.00, 0.000, 0.000, 0.000, 14:05:09.314
213, -25621.89, 0.00, 0.00, 0.00, 0.00, 0.00, 0.00, 0.00, 0.000, 0.000, 0.000, 14:05:09.314
214, -25595.70, 0.00, 0.00, 0.00, 0.00, 0.00, 0.00, 0.00, 0.000, 0.000, 0.000, 14:05:09.314
215, -25609.44, 0.00, 0.00, 0.00, 0.00, 0.00, 0.00, 0.00, 0.000, 0.000, 0.000, 14:05:09.315
216, -25623.50, 0.00, 0.00, 0.00, 0.00, 0.00, 0.00, 0.00, 0.068, -0.436, -0.940, 14:05:09.315
217, -25615.48, 0.00, 0.00, 0.00, 0.00, 0.00, 0.00, 0.00, 0.000, 0.000, 0.000, 14:05:09.315
218, -25594.78, 0.00, 0.00, 0.00, 0.00, 0.00, 0.00, 0.00, 0.000, 0.000, 0.000, 14:05:09.315
219, -25610.00, 0.00, 0.00, 0.00, 0.00, 0.00, 0.00, 0.00, 0.000, 0.000, 0.000, 14:05:09.315
220, -25607.19, 0.00, 0.00, 0.00, 0.00, 0.00, 0.00, 0.00, 0.000, 0.000, 0.000, 14:05:09.315
221, -25614.27, 0.00, 0.00, 0.00, 0.00, 0.00, 0.00, 0.00, 0.000, 0.000, 0.000, 14:05:09.315
222, -25626.36, 0.00, 0.00, 0.00, 0.00, 0.00, 0.00, 0.00, 0.000, 0.000, 0.000, 14:05:09.315
223, -25607.86, 0.00, 0.00, 0.00, 0.00, 0.00, 0.00, 0.00, 0.000, 0.000, 0.000, 14:05:09.315
224, -25607.03, 0.00, 0.00, 0.00, 0.00, 0.00, 0.00, 0.00, 0.000, 0.000, 0.000, 14:05:09.315
225, -25623.73, 0.00, 0.00, 0.00, 0.00, 0.00, 0.00, 0.00, 0.000, 0.000, 0.000, 14:05:09.316
226, -25623.99, 0.00, 0.00, 0.00, 0.00, 0.00, 0.00, 0.00, 0.068, -0.438, -0.942, 14:05:09.763
227, -25590.78, 0.00, 0.00, 0.00, 0.00, 0.00, 0.00, 0.00, 0.000, 0.000, 0.000, 14:05:09.763
228, -25602.31, 0.00, 0.00, 0.00, 0.00, 0.00, 0.00, 0.00, 0.000, 0.000, 0.000, 14:05:09.763
229, -25619.50, 0.00, 0.00, 0.00, 0.00, 0.00, 0.00, 0.00, 0.000, 0.000, 0.000, 14:05:09.763
230, -25608.71, 0.00, 0.00, 0.00, 0.00, 0.00, 0.00, 0.00, 0.000, 0.000, 0.000, 14:05:09.763
231, -25601.84, 0.00, 0.00, 0.00, 0.00, 0.00, 0.00, 0.00, 0.000, 0.000, 0.000, 14:05:09.763
232, -25612.93, 0.00, 0.00, 0.00, 0.00, 0.00, 0.00, 0.00, 0.000, 0.000, 0.000, 14:05:09.763
233, -25617.49, 0.00, 0.00, 0.00, 0.00, 0.00, 0.00, 0.00, 0.000, 0.000, 0.000, 14:05:09.763
234, -25582.67, 0.00, 0.00, 0.00, 0.00, 0.00, 0.00, 0.00, 0.000, 0.000, 0.000, 14:05:09.763
235, -25585.75, 0.00, 0.00, 0.00, 0.00, 0.00, 0.00, 0.00, 0.070, -0.432, -0.944, 14:05:09.764
236, -25610.79, 0.00, 0.00, 0.00, 0.00, 0.00, 0.00, 0.00, 0.000, 0.000, 0.000, 14:05:09.764
237, -25633.81, 0.00, 0.00, 0.00, 0.00, 0.00, 0.00, 0.00, 0.000, 0.000, 0.000, 14:05:09.764
238, -25609.55, 0.00, 0.00, 0.00, 0.00, 0.00, 0.00, 0.00, 0.000, 0.000, 0.000, 14:05:09.764
239, -25600.14, 0.00, 0.00, 0.00, 0.00, 0.00, 0.00, 0.00, 0.000, 0.000, 0.000, 14:05:09.764
240, -25597.89, 0.00, 0.00, 0.00, 0.00, 0.00, 0.00, 0.00, 0.000, 0.000, 0.000, 14:05:09.764
241, -25607.41, 0.00, 0.00, 0.00, 0.00, 0.00, 0.00, 0.00, 0.000, 0.000, 0.000, 14:05:09.764
242, -25608.84, 0.00, 0.00, 0.00, 0.00, 0.00, 0.00, 0.00, 0.000, 0.000, 0.000, 14:05:09.764
243, -25603.52, 0.00, 0.00, 0.00, 0.00, 0.00, 0.00, 0.00, 0.000, 0.000, 0.000, 14:05:09.764
244, -25617.38, 0.00, 0.00, 0.00, 0.00, 0.00, 0.00, 0.00, 0.000, 0.000, 0.000, 14:05:09.764
245, -25613.58, 0.00, 0.00, 0.00, 0.00, 0.00, 0.00, 0.00, 0.070, -0.434, -0.940, 14:05:09.764
246, -25600.21, 0.00, 0.00, 0.00, 0.00, 0.00, 0.00, 0.00, 0.000, 0.000, 0.000, 14:05:09.764
247, -25598.07, 0.00, 0.00, 0.00, 0.00, 0.00, 0.00, 0.00, 0.000, 0.000, 0.000, 14:05:09.764
248, -25590.53, 0.00, 0.00, 0.00, 0.00, 0.00, 0.00, 0.00, 0.000, 0.000, 0.000, 14:05:09.764
249, -25604.46, 0.00, 0.00, 0.00, 0.00, 0.00, 0.00, 0.00, 0.000, 0.000, 0.000, 14:05:09.764
250, -25619.50, 0.00, 0.00, 0.00, 0.00, 0.00, 0.00, 0.00, 0.000, 0.000, 0.000, 14:05:09.765
251, -25592.68, 0.00, 0.00, 0.00, 0.00, 0.00, 0.00, 0.00, 0.000, 0.000, 0.000, 14:05:09.765
252, -25601.71, 0.00, 0.00, 0.00, 0.00, 0.00, 0.00, 0.00, 0.000, 0.000, 0.000, 14:05:09.765
253, -25637.63, 0.00, 0.00, 0.00, 0.00, 0.00, 0.00, 0.00, 0.000, 0.000, 0.000, 14:05:09.765
254, -25633.43, 0.00, 0.00, 0.00, 0.00, 0.00, 0.00, 0.00, 0.000, 0.000, 0.000, 14:05:09.765
255, -25596.72, 0.00, 0.00, 0.00, 0.00, 0.00, 0.00, 0.00, 0.072, -0.428, -0.944, 14:05:09.765
0, -25596.10, 0.00, 0.00, 0.00, 0.00, 0.00, 0.00, 0.00, 0.000, 0.000, 0.000, 14:05:09.767
1, -25621.07, 0.00, 0.00, 0.00, 0.00, 0.00, 0.00, 0.00, 0.000, 0.000, 0.000, 14:05:09.767
2, -25613.06, 0.00, 0.00, 0.00, 0.00, 0.00, 0.00, 0.00, 0.000, 0.000, 0.000, 14:05:09.767
3, -25605.89, 0.00, 0.00, 0.00, 0.00, 0.00, 0.00, 0.00, 0.000, 0.000, 0.000, 14:05:09.767
4, -25607.65, 0.00, 0.00, 0.00, 0.00, 0.00, 0.00, 0.00, 0.000, 0.000, 0.000, 14:05:09.767
5, -25611.32, 0.00, 0.00, 0.00, 0.00, 0.00, 0.00, 0.00, 0.000, 0.000, 0.000, 14:05:09.767
6, -25616.64, 0.00, 0.00, 0.00, 0.00, 0.00, 0.00, 0.00, 0.000, 0.000, 0.000, 14:05:09.767
7, -25615.08, 0.00, 0.00, 0.00, 0.00, 0.00, 0.00, 0.00, 0.000, 0.000, 0.000, 14:05:09.767
8, -25601.60, 0.00, 0.00, 0.00, 0.00, 0.00, 0.00, 0.00, 0.000, 0.000, 0.000, 14:05:09.767
9, -25595.76, 0.00, 0.00, 0.00, 0.00, 0.00, 0.00, 0.00, 0.074, -0.436, -0.946, 14:05:09.767
10, -25623.66, 0.00, 0.00, 0.00, 0.00, 0.00, 0.00, 0.00, 0.000, 0.000, 0.000, 14:05:09.767
11, -25623.68, 0.00, 0.00, 0.00, 0.00, 0.00, 0.00, 0.00, 0.000, 0.000, 0.000, 14:05:09.768
12, -25589.84, 0.00, 0.00, 0.00, 0.00, 0.00, 0.00, 0.00, 0.000, 0.000, 0.000, 14:05:09.768
13, -25607.81, 0.00, 0.00, 0.00, 0.00, 0.00, 0.00, 0.00, 0.000, 0.000, 0.000, 14:05:09.768
14, -25627.10, 0.00, 0.00, 0.00, 0.00, 0.00, 0.00, 0.00, 0.000, 0.000, 0.000, 14:05:09.768
15, -25625.02, 0.00, 0.00, 0.00, 0.00, 0.00, 0.00, 0.00, 0.000, 0.000, 0.000, 14:05:09.768
16, -25622.01, 0.00, 0.00, 0.00, 0.00, 0.00, 0.00, 0.00, 0.000, 0.000, 0.000, 14:05:09.768
17, -25614.25, 0.00, 0.00, 0.00, 0.00, 0.00, 0.00, 0.00, 0.000, 0.000, 0.000, 14:05:09.768
18, -25612.66, 0.00, 0.00, 0.00, 0.00, 0.00, 0.00, 0.00, 0.000, 0.000, 0.000, 14:05:09.768
19, -25632.94, 0.00, 0.00, 0.00, 0.00, 0.00, 0.00, 0.00, 0.076, -0.436, -0.942, 14:05:09.768
20, -25612.82, 0.00, 0.00, 0.00, 0.00, 0.00, 0.00, 0.00, 0.000, 0.000, 0.000, 14:05:09.768
21, -25608.06, 0.00, 0.00, 0.00, 0.00, 0.00, 0.00, 0.00, 0.000, 0.000, 0.000, 14:05:09.768
22, -25617.31, 0.00, 0.00, 0.00, 0.00, 0.00, 0.00, 0.00, 0.000, 0.000, 0.000, 14:05:09.768
23, -25648.69, 0.00, 0.00, 0.00, 0.00, 0.00, 0.00, 0.00, 0.000, 0.000, 0.000, 14:05:09.768
24, -25632.40, 0.00, 0.00, 0.00, 0.00, 0.00, 0.00, 0.00, 0.000, 0.000, 0.000, 14:05:09.768
25, -25580.36, 0.00, 0.00, 0.00, 0.00, 0.00, 0.00, 0.00, 0.000, 0.000, 0.000, 14:05:09.768
26, -25579.09, 0.00, 0.00, 0.00, 0.00, 0.00, 0.00, 0.00, 0.000, 0.000, 0.000, 14:05:09.768
27, -25599.77, 0.00, 0.00, 0.00, 0.00, 0.00, 0.00, 0.00, 0.000, 0.000, 0.000, 14:05:09.769
28, -25597.82, 0.00, 0.00, 0.00, 0.00, 0.00, 0.00, 0.00, 0.000, 0.000, 0.000, 14:05:09.769
29, -25594.67, 0.00, 0.00, 0.00, 0.00, 0.00, 0.00, 0.00, 0.076, -0.432, -0.940, 14:05:09.769
30, -25610.31, 0.00, 0.00, 0.00, 0.00, 0.00, 0.00, 0.00, 0.000, 0.000, 0.000, 14:05:09.769
31, -25613.69, 0.00, 0.00, 0.00, 0.00, 0.00, 0.00, 0.00, 0.000, 0.000, 0.000, 14:05:09.769
32, -25611.23, 0.00, 0.00, 0.00, 0.00, 0.00, 0.00, 0.00, 0.000, 0.000, 0.000, 14:05:09.769
33, -25629.31, 0.00, 0.00, 0.00, 0.00, 0.00, 0.00, 0.00, 0.000, 0.000, 0.000, 14:05:09.769
34, -25626.54, 0.00, 0.00, 0.00, 0.00, 0.00, 0.00, 0.00, 0.000, 0.000, 0.000, 14:05:09.769
35, -25595.59, 0.00, 0.00, 0.00, 0.00, 0.00, 0.00, 0.00, 0.000, 0.000, 0.000, 14:05:09.769
36, -25608.55, 0.00, 0.00, 0.00, 0.00, 0.00, 0.00, 0.00, 0.000, 0.000, 0.000, 14:05:09.770
37, -25617.15, 0.00, 0.00, 0.00, 0.00, 0.00, 0.00, 0.00, 0.000, 0.000, 0.000, 14:05:09.770
38, -25609.60, 0.00, 0.00, 0.00, 0.00, 0.00, 0.00, 0.00, 0.000, 0.000, 0.000, 14:05:09.770
39, -25616.91, 0.00, 0.00, 0.00, 0.00, 0.00, 0.00, 0.00, 0.076, -0.432, -0.946, 14:05:09.770
40, -25618.36, 0.00, 0.00, 0.00, 0.00, 0.00, 0.00, 0.00, 0.000, 0.000, 0.000, 14:05:09.770
41, -25605.04, 0.00, 0.00, 0.00, 0.00, 0.00, 0.00, 0.00, 0.000, 0.000, 0.000, 14:05:09.770
42, -25614.34, 0.00, 0.00, 0.00, 0.00, 0.00, 0.00, 0.00, 0.000, 0.000, 0.000, 14:05:09.771
43, -25623.05, 0.00, 0.00, 0.00, 0.00, 0.00, 0.00, 0.00, 0.000, 0.000, 0.000, 14:05:09.771
44, -25629.72, 0.00, 0.00, 0.00, 0.00, 0.00, 0.00, 0.00, 0.000, 0.000, 0.000, 14:05:09.771
45, -25619.26, 0.00, 0.00, 0.00, 0.00, 0.00, 0.00, 0.00, 0.000, 0.000, 0.000, 14:05:09.771
46, -25600.77, 0.00, 0.00, 0.00, 0.00, 0.00, 0.00, 0.00, 0.000, 0.000, 0.000, 14:05:09.771
47, -25596.28, 0.00, 0.00, 0.00, 0.00, 0.00, 0.00, 0.00, 0.000, 0.000, 0.000, 14:05:09.771
48, -25610.90, 0.00, 0.00, 0.00, 0.00, 0.00, 0.00, 0.00, 0.000, 0.000, 0.000, 14:05:09.771
49, -25611.05, 0.00, 0.00, 0.00, 0.00, 0.00, 0.00, 0.00, 0.070, -0.434, -0.946, 14:05:09.771
50, -25597.75, 0.00, 0.00, 0.00, 0.00, 0.00, 0.00, 0.00, 0.000, 0.000, 0.000, 14:05:09.771
51, -25598.60, 0.00, 0.00, 0.00, 0.00, 0.00, 0.00, 0.00, 0.000, 0.000, 0.000, 14:05:09.771
52, -25621.56, 0.00, 0.00, 0.00, 0.00, 0.00, 0.00, 0.00, 0.000, 0.000, 0.000, 14:05:09.771
53, -25609.29, 0.00, 0.00, 0.00, 0.00, 0.00, 0.00, 0.00, 0.000, 0.000, 0.000, 14:05:09.771
54, -25608.75, 0.00, 0.00, 0.00, 0.00, 0.00, 0.00, 0.00, 0.000, 0.000, 0.000, 14:05:09.771
55, -25617.51, 0.00, 0.00, 0.00, 0.00, 0.00, 0.00, 0.00, 0.000, 0.000, 0.000, 14:05:09.771
56, -25638.17, 0.00, 0.00, 0.00, 0.00, 0.00, 0.00, 0.00, 0.000, 0.000, 0.000, 14:05:09.772
57, -25637.61, 0.00, 0.00, 0.00, 0.00, 0.00, 0.00, 0.00, 0.000, 0.000, 0.000, 14:05:09.772
58, -25587.07, 0.00, 0.00, 0.00, 0.00, 0.00, 0.00, 0.00, 0.000, 0.000, 0.000, 14:05:09.772
59, -25592.32, 0.00, 0.00, 0.00, 0.00, 0.00, 0.00, 0.00, 0.074, -0.426, -0.940, 14:05:09.772
60, -25625.18, 0.00, 0.00, 0.00, 0.00, 0.00, 0.00, 0.00, 0.000, 0.000, 0.000, 14:05:09.772
61, -25616.93, 0.00, 0.00, 0.00, 0.00, 0.00, 0.00, 0.00, 0.000, 0.000, 0.000, 14:05:09.774
62, -25588.46, 0.00, 0.00, 0.00, 0.00, 0.00, 0.00, 0.00, 0.000, 0.000, 0.000, 14:05:09.774
63, -25598.40, 0.00, 0.00, 0.00, 0.00, 0.00, 0.00, 0.00, 0.000, 0.000, 0.000, 14:05:09.774
64, -25633.07, 0.00, 0.00, 0.00, 0.00, 0.00, 0.00, 0.00, 0.000, 0.000, 0.000, 14:05:09.774
65, -25635.55, 0.00, 0.00, 0.00, 0.00, 0.00, 0.00, 0.00, 0.000, 0.000, 0.000, 14:05:09.774
66, -25599.29, 0.00, 0.00, 0.00, 0.00, 0.00, 0.00, 0.00, 0.000, 0.000, 0.000, 14:05:09.774
67, -25605.89, 0.00, 0.00, 0.00, 0.00, 0.00, 0.00, 0.00, 0.000, 0.000, 0.000, 14:05:09.774
68, -25611.05, 0.00, 0.00, 0.00, 0.00, 0.00, 0.00, 0.00, 0.076, -0.434, -0.946, 14:05:09.774
69, -25609.38, 0.00, 0.00, 0.00, 0.00, 0.00, 0.00, 0.00, 0.000, 0.000, 0.000, 14:05:09.774
70, -25600.53, 0.00, 0.00, 0.00, 0.00, 0.00, 0.00, 0.00, 0.000, 0.000, 0.000, 14:05:09.774
71, -25603.01, 0.00, 0.00, 0.00, 0.00, 0.00, 0.00, 0.00, 0.000, 0.000, 0.000, 14:05:09.774
72, -25616.89, 0.00, 0.00, 0.00, 0.00, 0.00, 0.00, 0.00, 0.000, 0.000, 0.000, 14:05:09.774
73, -25623.32, 0.00, 0.00, 0.00, 0.00, 0.00, 0.00, 0.00, 0.000, 0.000, 0.000, 14:05:09.774
74, -25611.25, 0.00, 0.00, 0.00, 0.00, 0.00, 0.00, 0.00, 0.000, 0.000, 0.000, 14:05:09.774
75, -25601.38, 0.00, 0.00, 0.00, 0.00, 0.00, 0.00, 0.00, 0.000, 0.000, 0.000, 14:05:09.774
76, -25602.63, 0.00, 0.00, 0.00, 0.00, 0.00, 0.00, 0.00, 0.000, 0.000, 0.000, 14:05:09.774
77, -25617.38, 0.00, 0.00, 0.00, 0.00, 0.00, 0.00, 0.00, 0.000, 0.000, 0.000, 14:05:09.774
78, -25617.24, 0.00, 0.00, 0.00, 0.00, 0.00, 0.00, 0.00, 0.072, -0.430, -0.944, 14:05:09.774
79, -25600.55, 0.00, 0.00, 0.00, 0.00, 0.00, 0.00, 0.00, 0.000, 0.000, 0.000, 14:05:09.774
80, -25595.47, 0.00, 0.00, 0.00, 0.00, 0.00, 0.00, 0.00, 0.000, 0.000, 0.000, 14:05:09.774
81, -25624.84, 0.00, 0.00, 0.00, 0.00, 0.00, 0.00, 0.00, 0.000, 0.000, 0.000, 14:05:09.774
82, -25628.26, 0.00, 0.00, 0.00, 0.00, 0.00, 0.00, 0.00, 0.000, 0.000, 0.000, 14:05:09.775
83, -25586.40, 0.00, 0.00, 0.00, 0.00, 0.00, 0.00, 0.00, 0.000, 0.000, 0.000, 14:05:09.775
84, -25612.51, 0.00, 0.00, 0.00, 0.00, 0.00, 0.00, 0.00, 0.000, 0.000, 0.000, 14:05:09.775
85, -25632.71, 0.00, 0.00, 0.00, 0.00, 0.00, 0.00, 0.00, 0.000, 0.000, 0.000, 14:05:09.775
86, -25630.05, 0.00, 0.00, 0.00, 0.00, 0.00, 0.00, 0.00, 0.000, 0.000, 0.000, 14:05:09.775
87, -25595.79, 0.00, 0.00, 0.00, 0.00, 0.00, 0.00, 0.00, 0.000, 0.000, 0.000, 14:05:09.775
88, -25602.11, 0.00, 0.00, 0.00, 0.00, 0.00, 0.00, 0.00, 0.074, -0.434, -0.942, 14:05:09.775
89, -25612.28, 0.00, 0.00, 0.00, 0.00, 0.00, 0.00, 0.00, 0.000, 0.000, 0.000, 14:05:09.775
90, -25623.77, 0.00, 0.00, 0.00, 0.00, 0.00, 0.00, 0.00, 0.000, 0.000, 0.000, 14:05:10.244
91, -25626.05, 0.00, 0.00, 0.00, 0.00, 0.00, 0.00, 0.00, 0.000, 0.000, 0.000, 14:05:10.244
92, -25621.42, 0.00, 0.00, 0.00, 0.00, 0.00, 0.00, 0.00, 0.000, 0.000, 0.000, 14:05:10.244
93, -25596.75, 0.00, 0.00, 0.00, 0.00, 0.00, 0.00, 0.00, 0.000, 0.000, 0.000, 14:05:10.244
94, -25613.13, 0.00, 0.00, 0.00, 0.00, 0.00, 0.00, 0.00, 0.000, 0.000, 0.000, 14:05:10.244
95, -25612.04, 0.00, 0.00, 0.00, 0.00, 0.00, 0.00, 0.00, 0.000, 0.000, 0.000, 14:05:10.244
96, -25609.53, 0.00, 0.00, 0.00, 0.00, 0.00, 0.00, 0.00, 0.000, 0.000, 0.000, 14:05:10.244
97, -25613.29, 0.00, 0.00, 0.00, 0.00, 0.00, 0.00, 0.00, 0.000, 0.000, 0.000, 14:05:10.244
98, -25592.12, 0.00, 0.00, 0.00, 0.00, 0.00, 0.00, 0.00, 0.074, -0.434, -0.946, 14:05:10.244
99, -25601.80, 0.00, 0.00, 0.00, 0.00, 0.00, 0.00, 0.00, 0.000, 0.000, 0.000, 14:05:10.245
100, -25604.26, 0.00, 0.00, 0.00, 0.00, 0.00, 0.00, 0.00, 0.000, 0.000, 0.000, 14:05:10.245
101, -25607.16, 0.00, 0.00, 0.00, 0.00, 0.00, 0.00, 0.00, 0.000, 0.000, 0.000, 14:05:10.245
102, -25610.94, 0.00, 0.00, 0.00, 0.00, 0.00, 0.00, 0.00, 0.000, 0.000, 0.000, 14:05:10.245
103, -25612.75, 0.00, 0.00, 0.00, 0.00, 0.00, 0.00, 0.00, 0.000, 0.000, 0.000, 14:05:10.245
104, -25599.77, 0.00, 0.00, 0.00, 0.00, 0.00, 0.00, 0.00, 0.000, 0.000, 0.000, 14:05:10.245
105, -25614.70, 0.00, 0.00, 0.00, 0.00, 0.00, 0.00, 0.00, 0.000, 0.000, 0.000, 14:05:10.245
106, -25630.32, 0.00, 0.00, 0.00, 0.00, 0.00, 0.00, 0.00, 0.000, 0.000, 0.000, 14:05:10.245
107, -25628.46, 0.00, 0.00, 0.00, 0.00, 0.00, 0.00, 0.00, 0.000, 0.000, 0.000, 14:05:10.245
108, -25610.96, 0.00, 0.00, 0.00, 0.00, 0.00, 0.00, 0.00, 0.076, -0.434, -0.950, 14:05:10.246
109, -25607.65, 0.00, 0.00, 0.00, 0.00, 0.00, 0.00, 0.00, 0.000, 0.000, 0.000, 14:05:10.246
110, -25625.42, 0.00, 0.00, 0.00, 0.00, 0.00, 0.00, 0.00, 0.000, 0.000, 0.000, 14:05:10.246
111, -25617.94, 0.00, 0.00, 0.00, 0.00, 0.00, 0.00, 0.00, 0.000, 0.000, 0.000, 14:05:10.246
112, -25610.58, 0.00, 0.00, 0.00, 0.00, 0.00, 0.00, 0.00, 0.000, 0.000, 0.000, 14:05:10.246
113, -25617.33, 0.00, 0.00, 0.00, 0.00, 0.00, 0.00, 0.00, 0.000, 0.000, 0.000, 14:05:10.246
114, -25598.27, 0.00, 0.00, 0.00, 0.00, 0.00, 0.00, 0.00, 0.000, 0.000, 0.000, 14:05:10.246
115, -25597.98, 0.00, 0.00, 0.00, 0.00, 0.00, 0.00, 0.00, 0.000, 0.000, 0.000, 14:05:10.246
116, -25594.09, 0.00, 0.00, 0.00, 0.00, 0.00, 0.00, 0.00, 0.000, 0.000, 0.000, 14:05:10.246
117, -25598.80, 0.00, 0.00, 0.00, 0.00, 0.00, 0.00, 0.00, 0.000, 0.000, 0.000, 14:05:10.246
118, -25621.63, 0.00, 0.00, 0.00, 0.00, 0.00, 0.00, 0.00, 0.078, -0.432, -0.946, 14:05:10.246
119, -25639.10, 0.00, 0.00, 0.00, 0.00, 0.00, 0.00, 0.00, 0.000, 0.000, 0.000, 14:05:10.246
120, -25603.97, 0.00, 0.00, 0.00, 0.00, 0.00, 0.00, 0.00, 0.000, 0.000, 0.000, 14:05:10.246
121, -25602.74, 0.00, 0.00, 0.00, 0.00, 0.00, 0.00, 0.00, 0.000, 0.000, 0.000, 14:05:10.246
122, -25615.48, 0.00, 0.00, 0.00, 0.00, 0.00, 0.00, 0.00, 0.000, 0.000, 0.000, 14:05:10.247
123, -25627.71, 0.00, 0.00, 0.00, 0.00, 0.00, 0.00, 0.00, 0.000, 0.000, 0.000, 14:05:10.247
124, -25619.37, 0.00, 0.00, 0.00, 0.00, 0.00, 0.00, 0.00, 0.000, 0.000, 0.000, 14:05:10.247
125, -25618.81, 0.00, 0.00, 0.00, 0.00, 0.00, 0.00, 0.00, 0.000, 0.000, 0.000, 14:05:10.247
126, -25601.40, 0.00, 0.00, 0.00, 0.00, 0.00, 0.00, 0.00, 0.000, 0.000, 0.000, 14:05:10.247
127, -25608.33, 0.00, 0.00, 0.00, 0.00, 0.00, 0.00, 0.00, 0.000, 0.000, 0.000, 14:05:10.247
128, -25613.33, 0.00, 0.00, 0.00, 0.00, 0.00, 0.00, 0.00, 0.078, -0.428, -0.944, 14:05:10.247
129, -25595.56, 0.00, 0.00, 0.00, 0.00, 0.00, 0.00, 0.00, 0.000, 0.000, 0.000, 14:05:10.247
130, -25604.73, 0.00, 0.00, 0.00, 0.00, 0.00, 0.00, 0.00, 0.000, 0.000, 0.000, 14:05:10.247
131, -25620.28, 0.00, 0.00, 0.00, 0.00, 0.00, 0.00, 0.00, 0.000, 0.000, 0.000, 14:05:10.247
132, -25615.95, 0.00, 0.00, 0.00, 0.00, 0.00, 0.00, 0.00, 0.000, 0.000, 0.000, 14:05:10.249
133, -25603.50, 0.00, 0.00, 0.00, 0.00, 0.00, 0.00, 0.00, 0.000, 0.000, 0.000, 14:05:10.249
134, -25616.37, 0.00, 0.00, 0.00, 0.00, 0.00, 0.00, 0.00, 0.000, 0.000, 0.000, 14:05:10.250
135, -25622.77, 0.00, 0.00, 0.00, 0.00, 0.00, 0.00, 0.00, 0.000, 0.000, 0.000, 14:05:10.250
136, -25601.20, 0.00, 0.00, 0.00, 0.00, 0.00, 0.00, 0.00, 0.000, 0.000, 0.000, 14:05:10.250
137, -25585.13, 0.00, 0.00, 0.00, 0.00, 0.00, 0.00, 0.00, 0.000, 0.000, 0.000, 14:05:10.250
138, -25605.46, 0.00, 0.00, 0.00, 0.00, 0.00, 0.00, 0.00, 0.074, -0.430, -0.942, 14:05:10.250
139, -25634.63, 0.00, 0.00, 0.00, 0.00, 0.00, 0.00, 0.00, 0.000, 0.000, 0.000, 14:05:10.250
140, -25627.95, 0.00, 0.00, 0.00, 0.00, 0.00, 0.00, 0.00, 0.000, 0.000, 0.000, 14:05:10.250
141, -25594.91, 0.00, 0.00, 0.00, 0.00, 0.00, 0.00, 0.00, 0.000, 0.000, 0.000, 14:05:10.250
142, -25592.01, 0.00, 0.00, 0.00, 0.00, 0.00, 0.00, 0.00, 0.000, 0.000, 0.000, 14:05:10.250
143, -25605.84, 0.00, 0.00, 0.00, 0.00, 0.00, 0.00, 0.00, 0.000, 0.000, 0.000, 14:05:10.250
144, -25608.97, 0.00, 0.00, 0.00, 0.00, 0.00, 0.00, 0.00, 0.000, 0.000, 0.000, 14:05:10.250
145, -25610.92, 0.00, 0.00, 0.00, 0.00, 0.00, 0.00, 0.00, 0.000, 0.000, 0.000, 14:05:10.250
146, -25602.34, 0.00, 0.00, 0.00, 0.00, 0.00, 0.00, 0.00, 0.000, 0.000, 0.000, 14:05:10.250
147, -25601.75, 0.00, 0.00, 0.00, 0.00, 0.00, 0.00, 0.00, 0.000, 0.000, 0.000, 14:05:10.250
148, -25596.41, 0.00, 0.00, 0.00, 0.00, 0.00, 0.00, 0.00, 0.078, -0.430, -0.948, 14:05:10.251
149, -25609.00, 0.00, 0.00, 0.00, 0.00, 0.00, 0.00, 0.00, 0.000, 0.000, 0.000, 14:05:10.251
150, -25629.69, 0.00, 0.00, 0.00, 0.00, 0.00, 0.00, 0.00, 0.000, 0.000, 0.000, 14:05:10.251
151, -25611.70, 0.00, 0.00, 0.00, 0.00, 0.00, 0.00, 0.00, 0.000, 0.000, 0.000, 14:05:10.251
152, -25600.93, 0.00, 0.00, 0.00, 0.00, 0.00, 0.00, 0.00, 0.000, 0.000, 0.000, 14:05:10.251
153, -25615.75, 0.00, 0.00, 0.00, 0.00, 0.00, 0.00, 0.00, 0.000, 0.000, 0.000, 14:05:10.251
154, -25591.52, 0.00, 0.00, 0.00, 0.00, 0.00, 0.00, 0.00, 0.000, 0.000, 0.000, 14:05:10.251
155, -25603.70, 0.00, 0.00, 0.00, 0.00, 0.00, 0.00, 0.00, 0.000, 0.000, 0.000, 14:05:10.251
156, -25612.33, 0.00, 0.00, 0.00, 0.00, 0.00, 0.00, 0.00, 0.000, 0.000, 0.000, 14:05:10.251
157, -25612.04, 0.00, 0.00, 0.00, 0.00, 0.00, 0.00, 0.00, 0.000, 0.000, 0.000, 14:05:10.251
158, -25615.72, 0.00, 0.00, 0.00, 0.00, 0.00, 0.00, 0.00, 0.080, -0.430, -0.944, 14:05:10.251
159, -25605.87, 0.00, 0.00, 0.00, 0.00, 0.00, 0.00, 0.00, 0.000, 0.000, 0.000, 14:05:10.252
160, -25606.18, 0.00, 0.00, 0.00, 0.00, 0.00, 0.00, 0.00, 0.000, 0.000, 0.000, 14:05:10.252
161, -25605.51, 0.00, 0.00, 0.00, 0.00, 0.00, 0.00, 0.00, 0.000, 0.000, 0.000, 14:05:10.252
162, -25591.16, 0.00, 0.00, 0.00, 0.00, 0.00, 0.00, 0.00, 0.000, 0.000, 0.000, 14:05:10.252
163, -25597.04, 0.00, 0.00, 0.00, 0.00, 0.00, 0.00, 0.00, 0.000, 0.000, 0.000, 14:05:10.252
164, -25613.11, 0.00, 0.00, 0.00, 0.00, 0.00, 0.00, 0.00, 0.000, 0.000, 0.000, 14:05:10.252
165, -25623.08, 0.00, 0.00, 0.00, 0.00, 0.00, 0.00, 0.00, 0.000, 0.000, 0.000, 14:05:10.252
166, -25607.19, 0.00, 0.00, 0.00, 0.00, 0.00, 0.00, 0.00, 0.000, 0.000, 0.000, 14:05:10.252
167, -25604.97, 0.00, 0.00, 0.00, 0.00, 0.00, 0.00, 0.00, 0.080, -0.434, -0.948, 14:05:10.252
168, -25618.05, 0.00, 0.00, 0.00, 0.00, 0.00, 0.00, 0.00, 0.000, 0.000, 0.000, 14:05:10.252
169, -25618.76, 0.00, 0.00, 0.00, 0.00, 0.00, 0.00, 0.00, 0.000, 0.000, 0.000, 14:05:10.252
170, -25603.50, 0.00, 0.00, 0.00, 0.00, 0.00, 0.00, 0.00, 0.000, 0.000, 0.000, 14:05:10.252
171, -25593.39, 0.00, 0.00, 0.00, 0.00, 0.00, 0.00, 0.00, 0.000, 0.000, 0.000, 14:05:10.253
172, -25611.99, 0.00, 0.00, 0.00, 0.00, 0.00, 0.00, 0.00, 0.000, 0.000, 0.000, 14:05:10.253
173, -25623.70, 0.00, 0.00, 0.00, 0.00, 0.00, 0.00, 0.00, 0.000, 0.000, 0.000, 14:05:10.253
174, -25625.11, 0.00, 0.00, 0.00, 0.00, 0.00, 0.00, 0.00, 0.000, 0.000, 0.000, 14:05:10.253
175, -25615.86, 0.00, 0.00, 0.00, 0.00, 0.00, 0.00, 0.00, 0.000, 0.000, 0.000, 14:05:10.253
176, -25591.45, 0.00, 0.00, 0.00, 0.00, 0.00, 0.00, 0.00, 0.000, 0.000, 0.000, 14:05:10.253
177, -25596.88, 0.00, 0.00, 0.00, 0.00, 0.00, 0.00, 0.00, 0.074, -0.428, -0.946, 14:05:10.253
178, -25617.69, 0.00, 0.00, 0.00, 0.00, 0.00, 0.00, 0.00, 0.000, 0.000, 0.000, 14:05:10.253
179, -25602.71, 0.00, 0.00, 0.00, 0.00, 0.00, 0.00, 0.00, 0.000, 0.000, 0.000, 14:05:10.254
180, -25608.97, 0.00, 0.00, 0.00, 0.00, 0.00, 0.00, 0.00, 0.000, 0.000, 0.000, 14:05:10.254
181, -25628.26, 0.00, 0.00, 0.00, 0.00, 0.00, 0.00, 0.00, 0.000, 0.000, 0.000, 14:05:10.254
182, -25625.92, 0.00, 0.00, 0.00, 0.00, 0.00, 0.00, 0.00, 0.000, 0.000, 0.000, 14:05:10.254
183, -25584.79, 0.00, 0.00, 0.00, 0.00, 0.00, 0.00, 0.00, 0.000, 0.000, 0.000, 14:05:10.254
184, -25591.27, 0.00, 0.00, 0.00, 0.00, 0.00, 0.00, 0.00, 0.000, 0.000, 0.000, 14:05:10.254
185, -25634.30, 0.00, 0.00, 0.00, 0.00, 0.00, 0.00, 0.00, 0.000, 0.000, 0.000, 14:05:10.255
186, -25636.18, 0.00, 0.00, 0.00, 0.00, 0.00, 0.00, 0.00, 0.000, 0.000, 0.000, 14:05:10.255
187, -25614.92, 0.00, 0.00, 0.00, 0.00, 0.00, 0.00, 0.00, 0.078, -0.428, -0.948, 14:05:10.255
188, -25607.83, 0.00, 0.00, 0.00, 0.00, 0.00, 0.00, 0.00, 0.000, 0.000, 0.000, 14:05:10.255
189, -25610.47, 0.00, 0.00, 0.00, 0.00, 0.00, 0.00, 0.00, 0.000, 0.000, 0.000, 14:05:10.255
190, -25624.53, 0.00, 0.00, 0.00, 0.00, 0.00, 0.00, 0.00, 0.000, 0.000, 0.000, 14:05:10.255
191, -25603.59, 0.00, 0.00, 0.00, 0.00, 0.00, 0.00, 0.00, 0.000, 0.000, 0.000, 14:05:10.255
192, -25599.01, 0.00, 0.00, 0.00, 0.00, 0.00, 0.00, 0.00, 0.000, 0.000, 0.000, 14:05:10.255
193, -25620.15, 0.00, 0.00, 0.00, 0.00, 0.00, 0.00, 0.00, 0.000, 0.000, 0.000, 14:05:10.255
194, -25614.99, 0.00, 0.00, 0.00, 0.00, 0.00, 0.00, 0.00, 0.000, 0.000, 0.000, 14:05:10.256
195, -25605.22, 0.00, 0.00, 0.00, 0.00, 0.00, 0.00, 0.00, 0.000, 0.000, 0.000, 14:05:10.256
196, -25605.02, 0.00, 0.00, 0.00, 0.00, 0.00, 0.00, 0.00, 0.000, 0.000, 0.000, 14:05:10.256
197, -25615.50, 0.00, 0.00, 0.00, 0.00, 0.00, 0.00, 0.00, 0.080, -0.436, -0.944, 14:05:10.256
198, -25627.79, 0.00, 0.00, 0.00, 0.00, 0.00, 0.00, 0.00, 0.000, 0.000, 0.000, 14:05:10.256
199, -25618.25, 0.00, 0.00, 0.00, 0.00, 0.00, 0.00, 0.00, 0.000, 0.000, 0.000, 14:05:10.257
200, -25603.52, 0.00, 0.00, 0.00, 0.00, 0.00, 0.00, 0.00, 0.000, 0.000, 0.000, 14:05:10.257
201, -25604.77, 0.00, 0.00, 0.00, 0.00, 0.00, 0.00, 0.00, 0.000, 0.000, 0.000, 14:05:10.257
202, -25626.03, 0.00, 0.00, 0.00, 0.00, 0.00, 0.00, 0.00, 0.000, 0.000, 0.000, 14:05:10.257
203, -25636.29, 0.00, 0.00, 0.00, 0.00, 0.00, 0.00, 0.00, 0.000, 0.000, 0.000, 14:05:10.257
204, -25606.43, 0.00, 0.00, 0.00, 0.00, 0.00, 0.00, 0.00, 0.000, 0.000, 0.000, 14:05:10.257
205, -25606.00, 0.00, 0.00, 0.00, 0.00, 0.00, 0.00, 0.00, 0.000, 0.000, 0.000, 14:05:10.257
206, -25621.89, 0.00, 0.00, 0.00, 0.00, 0.00, 0.00, 0.00, 0.000, 0.000, 0.000, 14:05:10.257
207, -25624.06, 0.00, 0.00, 0.00, 0.00, 0.00, 0.00, 0.00, 0.076, -0.438, -0.950, 14:05:10.258
208, -25616.64, 0.00, 0.00, 0.00, 0.00, 0.00, 0.00, 0.00, 0.000, 0.000, 0.000, 14:05:10.258
209, -25618.65, 0.00, 0.00, 0.00, 0.00, 0.00, 0.00, 0.00, 0.000, 0.000, 0.000, 14:05:10.258
210, -25624.91, 0.00, 0.00, 0.00, 0.00, 0.00, 0.00, 0.00, 0.000, 0.000, 0.000, 14:05:10.725
211, -25616.30, 0.00, 0.00, 0.00, 0.00, 0.00, 0.00, 0.00, 0.000, 0.000, 0.000, 14:05:10.725
212, -25595.92, 0.00, 0.00, 0.00, 0.00, 0.00, 0.00, 0.00, 0.000, 0.000, 0.000, 14:05:10.725
213, -25599.88, 0.00, 0.00, 0.00, 0.00, 0.00, 0.00, 0.00, 0.000, 0.000, 0.000, 14:05:10.725
214, -25629.61, 0.00, 0.00, 0.00, 0.00, 0.00, 0.00, 0.00, 0.000, 0.000, 0.000, 14:05:10.725
215, -25652.09, 0.00, 0.00, 0.00, 0.00, 0.00, 0.00, 0.00, 0.000, 0.000, 0.000, 14:05:10.725
216, -25632.62, 0.00, 0.00, 0.00, 0.00, 0.00, 0.00, 0.00, 0.000, 0.000, 0.000, 14:05:10.725
217, -25615.41, 0.00, 0.00, 0.00, 0.00, 0.00, 0.00, 0.00, 0.080, -0.434, -0.946, 14:05:10.725
218, -25620.60, 0.00, 0.00, 0.00, 0.00, 0.00, 0.00, 0.00, 0.000, 0.000, 0.000, 14:05:10.725
219, -25628.24, 0.00, 0.00, 0.00, 0.00, 0.00, 0.00, 0.00, 0.000, 0.000, 0.000, 14:05:10.725
220, -25618.99, 0.00, 0.00, 0.00, 0.00, 0.00, 0.00, 0.00, 0.000, 0.000, 0.000, 14:05:10.725
221, -25604.30, 0.00, 0.00, 0.00, 0.00, 0.00, 0.00, 0.00, 0.000, 0.000, 0.000, 14:05:10.725
222, -25618.76, 0.00, 0.00, 0.00, 0.00, 0.00, 0.00, 0.00, 0.000, 0.000, 0.000, 14:05:10.725
223, -25612.13, 0.00, 0.00, 0.00, 0.00, 0.00, 0.00, 0.00, 0.000, 0.000, 0.000, 14:05:10.726
224, -25611.12, 0.00, 0.00, 0.00, 0.00, 0.00, 0.00, 0.00, 0.000, 0.000, 0.000, 14:05:10.726
225, -25602.56, 0.00, 0.00, 0.00, 0.00, 0.00, 0.00, 0.00, 0.000, 0.000, 0.000, 14:05:10.726
226, -25603.52, 0.00, 0.00, 0.00, 0.00, 0.00, 0.00, 0.00, 0.000, 0.000, 0.000, 14:05:10.726
227, -25645.65, 0.00, 0.00, 0.00, 0.00, 0.00, 0.00, 0.00, 0.072, -0.430, -0.934, 14:05:10.726
228, -25627.59, 0.00, 0.00, 0.00, 0.00, 0.00, 0.00, 0.00, 0.000, 0.000, 0.000, 14:05:10.726
229, -25590.22, 0.00, 0.00, 0.00, 0.00, 0.00, 0.00, 0.00, 0.000, 0.000, 0.000, 14:05:10.726
230, -25598.02, 0.00, 0.00, 0.00, 0.00, 0.00, 0.00, 0.00, 0.000, 0.000, 0.000, 14:05:10.726
231, -25611.28, 0.00, 0.00, 0.00, 0.00, 0.00, 0.00, 0.00, 0.000, 0.000, 0.000, 14:05:10.726
232, -25610.07, 0.00, 0.00, 0.00, 0.00, 0.00, 0.00, 0.00, 0.000, 0.000, 0.000, 14:05:10.726
233, -25622.27, 0.00, 0.00, 0.00, 0.00, 0.00, 0.00, 0.00, 0.000, 0.000, 0.000, 14:05:10.726
234, -25607.54, 0.00, 0.00, 0.00, 0.00, 0.00, 0.00, 0.00, 0.000, 0.000, 0.000, 14:05:10.726
235, -25610.65, 0.00, 0.00, 0.00, 0.00, 0.00, 0.00, 0.00, 0.000, 0.000, 0.000, 14:05:10.726
236, -25630.43, 0.00, 0.00, 0.00, 0.00, 0.00, 0.00, 0.00, 0.000, 0.000, 0.000, 14:05:10.726
237, -25602.98, 0.00, 0.00, 0.00, 0.00, 0.00, 0.00, 0.00, 0.074, -0.432, -0.936, 14:05:10.726
238, -25604.19, 0.00, 0.00, 0.00, 0.00, 0.00, 0.00, 0.00, 0.000, 0.000, 0.000, 14:05:10.726
239, -25616.01, 0.00, 0.00, 0.00, 0.00, 0.00, 0.00, 0.00, 0.000, 0.000, 0.000, 14:05:10.726
240, -25614.83, 0.00, 0.00, 0.00, 0.00, 0.00, 0.00, 0.00, 0.000, 0.000, 0.000, 14:05:10.726
241, -25595.74, 0.00, 0.00, 0.00, 0.00, 0.00, 0.00, 0.00, 0.000, 0.000, 0.000, 14:05:10.726
242, -25591.99, 0.00, 0.00, 0.00, 0.00, 0.00, 0.00, 0.00, 0.000, 0.000, 0.000, 14:05:10.726
243, -25627.53, 0.00, 0.00, 0.00, 0.00, 0.00, 0.00, 0.00, 0.000, 0.000, 0.000, 14:05:10.727
244, -25637.45, 0.00, 0.00, 0.00, 0.00, 0.00, 0.00, 0.00, 0.000, 0.000, 0.000, 14:05:10.727
245, -25605.31, 0.00, 0.00, 0.00, 0.00, 0.00, 0.00, 0.00, 0.000, 0.000, 0.000, 14:05:10.727
246, -25599.88, 0.00, 0.00, 0.00, 0.00, 0.00, 0.00, 0.00, 0.000, 0.000, 0.000, 14:05:10.727
247, -25617.29, 0.00, 0.00, 0.00, 0.00, 0.00, 0.00, 0.00, 0.072, -0.432, -0.942, 14:05:10.727
248, -25642.28, 0.00, 0.00, 0.00, 0.00, 0.00, 0.00, 0.00, 0.000, 0.000, 0.000, 14:05:10.727
249, -25615.34, 0.00, 0.00, 0.00, 0.00, 0.00, 0.00, 0.00, 0.000, 0.000, 0.000, 14:05:10.727
250, -25598.20, 0.00, 0.00, 0.00, 0.00, 0.00, 0.00, 0.00, 0.000, 0.000, 0.000, 14:05:10.727
251, -25599.50, 0.00, 0.00, 0.00, 0.00, 0.00, 0.00, 0.00, 0.000, 0.000, 0.000, 14:05:10.727
252, -25612.46, 0.00, 0.00, 0.00, 0.00, 0.00, 0.00, 0.00, 0.000, 0.000, 0.000, 14:05:10.727
253, -25613.11, 0.00, 0.00, 0.00, 0.00, 0.00, 0.00, 0.00, 0.000, 0.000, 0.000, 14:05:10.727
254, -25608.08, 0.00, 0.00, 0.00, 0.00, 0.00, 0.00, 0.00, 0.000, 0.000, 0.000, 14:05:10.727
255, -25613.18, 0.00, 0.00, 0.00, 0.00, 0.00, 0.00, 0.00, 0.000, 0.000, 0.000, 14:05:10.727
0, -25628.82, 0.00, 0.00, 0.00, 0.00, 0.00, 0.00, 0.00, 0.074, -0.436, -0.948, 14:05:10.727
1, -25624.46, 0.00, 0.00, 0.00, 0.00, 0.00, 0.00, 0.00, 0.000, 0.000, 0.000, 14:05:10.727
2, -25602.38, 0.00, 0.00, 0.00, 0.00, 0.00, 0.00, 0.00, 0.000, 0.000, 0.000, 14:05:10.727
3, -25605.58, 0.00, 0.00, 0.00, 0.00, 0.00, 0.00, 0.00, 0.000, 0.000, 0.000, 14:05:10.727
4, -25617.11, 0.00, 0.00, 0.00, 0.00, 0.00, 0.00, 0.00, 0.000, 0.000, 0.000, 14:05:10.727
5, -25634.01, 0.00, 0.00, 0.00, 0.00, 0.00, 0.00, 0.00, 0.000, 0.000, 0.000, 14:05:10.727
6, -25620.37, 0.00, 0.00, 0.00, 0.00, 0.00, 0.00, 0.00, 0.000, 0.000, 0.000, 14:05:10.727
7, -25592.10, 0.00, 0.00, 0.00, 0.00, 0.00, 0.00, 0.00, 0.000, 0.000, 0.000, 14:05:10.727
8, -25601.22, 0.00, 0.00, 0.00, 0.00, 0.00, 0.00, 0.00, 0.000, 0.000, 0.000, 14:05:10.727
9, -25617.87, 0.00, 0.00, 0.00, 0.00, 0.00, 0.00, 0.00, 0.000, 0.000, 0.000, 14:05:10.727
10, -25606.81, 0.00, 0.00, 0.00, 0.00, 0.00, 0.00, 0.00, 0.076, -0.430, -0.944, 14:05:10.728
11, -25608.77, 0.00, 0.00, 0.00, 0.00, 0.00, 0.00, 0.00, 0.000, 0.000, 0.000, 14:05:10.729
12, -25610.79, 0.00, 0.00, 0.00, 0.00, 0.00, 0.00, 0.00, 0.000, 0.000, 0.000, 14:05:10.729
13, -25623.75, 0.00, 0.00, 0.00, 0.00, 0.00, 0.00, 0.00, 0.000, 0.000, 0.000, 14:05:10.729
14, -25626.05, 0.00, 0.00, 0.00, 0.00, 0.00, 0.00, 0.00, 0.000, 0.000, 0.000, 14:05:10.729
15, -25606.87, 0.00, 0.00, 0.00, 0.00, 0.00, 0.00, 0.00, 0.000, 0.000, 0.000, 14:05:10.729
16, -25611.28, 0.00, 0.00, 0.00, 0.00, 0.00, 0.00, 0.00, 0.000, 0.000, 0.000, 14:05:10.729
17, -25606.36, 0.00, 0.00, 0.00, 0.00, 0.00, 0.00, 0.00, 0.000, 0.000, 0.000, 14:05:10.729
18, -25605.64, 0.00, 0.00, 0.00, 0.00, 0.00, 0.00, 0.00, 0.000, 0.000, 0.000, 14:05:10.730
19, -25607.30, 0.00, 0.00, 0.00, 0.00, 0.00, 0.00, 0.00, 0.000, 0.000, 0.000, 14:05:10.730
20, -25620.28, 0.00, 0.00, 0.00, 0.00, 0.00, 0.00, 0.00, 0.070, -0.434, -0.940, 14:05:10.730
21, -25634.83, 0.00, 0.00, 0.00, 0.00, 0.00, 0.00, 0.00, 0.000, 0.000, 0.000, 14:05:10.730
22, -25629.78, 0.00, 0.00, 0.00, 0.00, 0.00, 0.00, 0.00, 0.000, 0.000, 0.000, 14:05:10.730
23, -25594.22, 0.00, 0.00, 0.00, 0.00, 0.00, 0.00, 0.00, 0.000, 0.000, 0.000, 14:05:10.730
24, -25594.91, 0.00, 0.00, 0.00, 0.00, 0.00, 0.00, 0.00, 0.000, 0.000, 0.000, 14:05:10.730
25, -25622.56, 0.00, 0.00, 0.00, 0.00, 0.00, 0.00, 0.00, 0.000, 0.000, 0.000, 14:05:10.730
26, -25623.26, 0.00, 0.00, 0.00, 0.00, 0.00, 0.00, 0.00, 0.000, 0.000, 0.000, 14:05:10.730
27, -25604.28, 0.00, 0.00, 0.00, 0.00, 0.00, 0.00, 0.00, 0.000, 0.000, 0.000, 14:05:10.730
28, -25609.53, 0.00, 0.00, 0.00, 0.00, 0.00, 0.00, 0.00, 0.000, 0.000, 0.000, 14:05:10.730
29, -25630.34, 0.00, 0.00, 0.00, 0.00, 0.00, 0.00, 0.00, 0.000, 0.000, 0.000, 14:05:10.730
30, -25628.00, 0.00, 0.00, 0.00, 0.00, 0.00, 0.00, 0.00, 0.068, -0.436, -0.942, 14:05:10.730
31, -25604.95, 0.00, 0.00, 0.00, 0.00, 0.00, 0.00, 0.00, 0.000, 0.000, 0.000, 14:05:10.730
32, -25615.03, 0.00, 0.00, 0.00, 0.00, 0.00, 0.00, 0.00, 0.000, 0.000, 0.000, 14:05:10.730
33, -25622.79, 0.00, 0.00, 0.00, 0.00, 0.00, 0.00, 0.00, 0.000, 0.000, 0.000, 14:05:10.730
34, -25628.29, 0.00, 0.00, 0.00, 0.00, 0.00, 0.00, 0.00, 0.000, 0.000, 0.000, 14:05:10.730
35, -25620.75, 0.00, 0.00, 0.00, 0.00, 0.00, 0.00, 0.00, 0.000, 0.000, 0.000, 14:05:10.730
36, -25621.22, 0.00, 0.00, 0.00, 0.00, 0.00, 0.00, 0.00, 0.000, 0.000, 0.000, 14:05:10.730
37, -25601.93, 0.00, 0.00, 0.00, 0.00, 0.00, 0.00, 0.00, 0.000, 0.000, 0.000, 14:05:10.730
38, -25616.86, 0.00, 0.00, 0.00, 0.00, 0.00, 0.00, 0.00, 0.000, 0.000, 0.000, 14:05:10.730
39, -25620.48, 0.00, 0.00, 0.00, 0.00, 0.00, 0.00, 0.00, 0.000, 0.000, 0.000, 14:05:10.730
40, -25603.12, 0.00, 0.00, 0.00, 0.00, 0.00, 0.00, 0.00, 0.066, -0.438, -0.944, 14:05:10.731
41, -25599.27, 0.00, 0.00, 0.00, 0.00, 0.00, 0.00, 0.00, 0.000, 0.000, 0.000, 14:05:10.731
42, -25623.48, 0.00, 0.00, 0.00, 0.00, 0.00, 0.00, 0.00, 0.000, 0.000, 0.000, 14:05:10.731
43, -25625.87, 0.00, 0.00, 0.00, 0.00, 0.00, 0.00, 0.00, 0.000, 0.000, 0.000, 14:05:10.731
44, -25613.13, 0.00, 0.00, 0.00, 0.00, 0.00, 0.00, 0.00, 0.000, 0.000, 0.000, 14:05:10.731
45, -25614.16, 0.00, 0.00, 0.00, 0.00, 0.00, 0.00, 0.00, 0.000, 0.000, 0.000, 14:05:10.732
46, -25619.93, 0.00, 0.00, 0.00, 0.00, 0.00, 0.00, 0.00, 0.000, 0.000, 0.000, 14:05:10.732
47, -25621.00, 0.00, 0.00, 0.00, 0.00, 0.00, 0.00, 0.00, 0.000, 0.000, 0.000, 14:05:10.732
48, -25614.23, 0.00, 0.00, 0.00, 0.00, 0.00, 0.00, 0.00, 0.000, 0.000, 0.000, 14:05:10.732
49, -25625.96, 0.00, 0.00, 0.00, 0.00, 0.00, 0.00, 0.00, 0.000, 0.000, 0.000, 14:05:10.732
50, -25621.83, 0.00, 0.00, 0.00, 0.00, 0.00, 0.00, 0.00, 0.070, -0.434, -0.942, 14:05:10.732
51, -25604.79, 0.00, 0.00, 0.00, 0.00, 0.00, 0.00, 0.00, 0.000, 0.000, 0.000, 14:05:10.732
52, -25599.65, 0.00, 0.00, 0.00, 0.00, 0.00, 0.00, 0.00, 0.000, 0.000, 0.000, 14:05:10.732
53, -25600.99, 0.00, 0.00, 0.00, 0.00, 0.00, 0.00, 0.00, 0.000, 0.000, 0.000, 14:05:10.732
54, -25599.79, 0.00, 0.00, 0.00, 0.00, 0.00, 0.00, 0.00, 0.000, 0.000, 0.000, 14:05:10.732
55, -25631.53, 0.00, 0.00, 0.00, 0.00, 0.00, 0.00, 0.00, 0.000, 0.000, 0.000, 14:05:10.732
56, -25619.14, 0.00, 0.00, 0.00, 0.00, 0.00, 0.00, 0.00, 0.000, 0.000, 0.000, 14:05:10.732
57, -25585.01, 0.00, 0.00, 0.00, 0.00, 0.00, 0.00, 0.00, 0.000, 0.000, 0.000, 14:05:10.732
58, -25622.50, 0.00, 0.00, 0.00, 0.00, 0.00, 0.00, 0.00, 0.000, 0.000, 0.000, 14:05:10.733
59, -25631.79, 0.00, 0.00, 0.00, 0.00, 0.00, 0.00, 0.00, 0.000, 0.000, 0.000, 14:05:10.733
60, -25607.99, 0.00, 0.00, 0.00, 0.00, 0.00, 0.00, 0.00, 0.070, -0.430, -0.948, 14:05:10.733
61, -25595.12, 0.00, 0.00, 0.00, 0.00, 0.00, 0.00, 0.00, 0.000, 0.000, 0.000, 14:05:10.733
62, -25606.72, 0.00, 0.00, 0.00, 0.00, 0.00, 0.00, 0.00, 0.000, 0.000, 0.000, 14:05:10.733
63, -25611.39, 0.00, 0.00, 0.00, 0.00, 0.00, 0.00, 0.00, 0.000, 0.000, 0.000, 14:05:10.733
64, -25608.50, 0.00, 0.00, 0.00, 0.00, 0.00, 0.00, 0.00, 0.000, 0.000, 0.000, 14:05:10.733
65, -25606.31, 0.00, 0.00, 0.00, 0.00, 0.00, 0.00, 0.00, 0.000, 0.000, 0.000, 14:05:10.733
66, -25615.46, 0.00, 0.00, 0.00, 0.00, 0.00, 0.00, 0.00, 0.000, 0.000, 0.000, 14:05:10.733
67, -25621.56, 0.00, 0.00, 0.00, 0.00, 0.00, 0.00, 0.00, 0.000, 0.000, 0.000, 14:05:10.733
68, -25636.82, 0.00, 0.00, 0.00, 0.00, 0.00, 0.00, 0.00, 0.000, 0.000, 0.000, 14:05:10.733
69, -25621.85, 0.00, 0.00, 0.00, 0.00, 0.00, 0.00, 0.00, 0.000, 0.000, 0.000, 14:05:10.733
70, -25617.27, 0.00, 0.00, 0.00, 0.00, 0.00, 0.00, 0.00, 0.072, -0.432, -0.944, 14:05:10.733
71, -25628.69, 0.00, 0.00, 0.00, 0.00, 0.00, 0.00, 0.00, 0.000, 0.000, 0.000, 14:05:10.733
72, -25612.24, 0.00, 0.00, 0.00, 0.00, 0.00, 0.00, 0.00, 0.000, 0.000, 0.000, 14:05:10.733
73, -25597.87, 0.00, 0.00, 0.00, 0.00, 0.00, 0.00, 0.00, 0.000, 0.000, 0.000, 14:05:10.733
74, -25617.96, 0.00, 0.00, 0.00, 0.00, 0.00, 0.00, 0.00, 0.000, 0.000, 0.000, 14:05:10.733
75, -25634.95, 0.00, 0.00, 0.00, 0.00, 0.00, 0.00, 0.00, 0.000, 0.000, 0.000, 14:05:11.208
76, -25628.15, 0.00, 0.00, 0.00, 0.00, 0.00, 0.00, 0.00, 0.000, 0.000, 0.000, 14:05:11.208
77, -25617.02, 0.00, 0.00, 0.00, 0.00, 0.00, 0.00, 0.00, 0.000, 0.000, 0.000, 14:05:11.208
78, -25607.41, 0.00, 0.00, 0.00, 0.00, 0.00, 0.00, 0.00, 0.000, 0.000, 0.000, 14:05:11.208
79, -25611.28, 0.00, 0.00, 0.00, 0.00, 0.00, 0.00, 0.00, 0.000, 0.000, 0.000, 14:05:11.208
80, -25611.59, 0.00, 0.00, 0.00, 0.00, 0.00, 0.00, 0.00, 0.074, -0.430, -0.950, 14:05:11.208
81, -25612.17, 0.00, 0.00, 0.00, 0.00, 0.00, 0.00, 0.00, 0.000, 0.000, 0.000, 14:05:11.208
82, -25616.82, 0.00, 0.00, 0.00, 0.00, 0.00, 0.00, 0.00, 0.000, 0.000, 0.000, 14:05:11.208
83, -25608.44, 0.00, 0.00, 0.00, 0.00, 0.00, 0.00, 0.00, 0.000, 0.000, 0.000, 14:05:11.208
84, -25612.80, 0.00, 0.00, 0.00, 0.00, 0.00, 0.00, 0.00, 0.000, 0.000, 0.000, 14:05:11.208
85, -25621.63, 0.00, 0.00, 0.00, 0.00, 0.00, 0.00, 0.00, 0.000, 0.000, 0.000, 14:05:11.208
86, -25611.46, 0.00, 0.00, 0.00, 0.00, 0.00, 0.00, 0.00, 0.000, 0.000, 0.000, 14:05:11.208
87, -25619.57, 0.00, 0.00, 0.00, 0.00, 0.00, 0.00, 0.00, 0.000, 0.000, 0.000, 14:05:11.209
88, -25627.30, 0.00, 0.00, 0.00, 0.00, 0.00, 0.00, 0.00, 0.000, 0.000, 0.000, 14:05:11.209
89, -25625.49, 0.00, 0.00, 0.00, 0.00, 0.00, 0.00, 0.00, 0.078, -0.430, -0.948, 14:05:11.209
90, -25629.36, 0.00, 0.00, 0.00, 0.00, 0.00, 0.00, 0.00, 0.000, 0.000, 0.000, 14:05:11.209
91, -25617.87, 0.00, 0.00, 0.00, 0.00, 0.00, 0.00, 0.00, 0.000, 0.000, 0.000, 14:05:11.209
92, -25623.70, 0.00, 0.00, 0.00, 0.00, 0.00, 0.00, 0.00, 0.000, 0.000, 0.000, 14:05:11.209
93, -25614.88, 0.00, 0.00, 0.00, 0.00, 0.00, 0.00, 0.00, 0.000, 0.000, 0.000, 14:05:11.209
94, -25605.67, 0.00, 0.00, 0.00, 0.00, 0.00, 0.00, 0.00, 0.000, 0.000, 0.000, 14:05:11.209
95, -25613.94, 0.00, 0.00, 0.00, 0.00, 0.00, 0.00, 0.00, 0.000, 0.000, 0.000, 14:05:11.209
96, -25631.79, 0.00, 0.00, 0.00, 0.00, 0.00, 0.00, 0.00, 0.000, 0.000, 0.000, 14:05:11.209
97, -25624.87, 0.00, 0.00, 0.00, 0.00, 0.00, 0.00, 0.00, 0.000, 0.000, 0.000, 14:05:11.209
98, -25602.71, 0.00, 0.00, 0.00, 0.00, 0.00, 0.00, 0.00, 0.000, 0.000, 0.000, 14:05:11.209
99, -25618.70, 0.00, 0.00, 0.00, 0.00, 0.00, 0.00, 0.00, 0.082, -0.434, -0.952, 14:05:11.209
100, -25631.35, 0.00, 0.00, 0.00, 0.00, 0.00, 0.00, 0.00, 0.000, 0.000, 0.000, 14:05:11.210
101, -25622.79, 0.00, 0.00, 0.00, 0.00, 0.00, 0.00, 0.00, 0.000, 0.000, 0.000, 14:05:11.210
102, -25609.15, 0.00, 0.00, 0.00, 0.00, 0.00, 0.00, 0.00, 0.000, 0.000, 0.000, 14:05:11.210
103, -25605.89, 0.00, 0.00, 0.00, 0.00, 0.00, 0.00, 0.00, 0.000, 0.000, 0.000, 14:05:11.210
104, -25614.94, 0.00, 0.00, 0.00, 0.00, 0.00, 0.00, 0.00, 0.000, 0.000, 0.000, 14:05:11.210
105, -25616.64, 0.00, 0.00, 0.00, 0.00, 0.00, 0.00, 0.00, 0.000, 0.000, 0.000, 14:05:11.210
106, -25611.72, 0.00, 0.00, 0.00, 0.00, 0.00, 0.00, 0.00, 0.000, 0.000, 0.000, 14:05:11.210
107, -25615.10, 0.00, 0.00, 0.00, 0.00, 0.00, 0.00, 0.00, 0.000, 0.000, 0.000, 14:05:11.210
108, -25628.42, 0.00, 0.00, 0.00, 0.00, 0.00, 0.00, 0.00, 0.000, 0.000, 0.000, 14:05:11.210
109, -25623.64, 0.00, 0.00, 0.00, 0.00, 0.00, 0.00, 0.00, 0.078, -0.432, -0.946, 14:05:11.210
110, -25624.38, 0.00, 0.00, 0.00, 0.00, 0.00, 0.00, 0.00, 0.000, 0.000, 0.000, 14:05:11.210
111, -25621.74, 0.00, 0.00, 0.00, 0.00, 0.00, 0.00, 0.00, 0.000, 0.000, 0.000, 14:05:11.210
112, -25630.95, 0.00, 0.00, 0.00, 0.00, 0.00, 0.00, 0.00, 0.000, 0.000, 0.000, 14:05:11.210
113, -25647.82, 0.00, 0.00, 0.00, 0.00, 0.00, 0.00, 0.00, 0.000, 0.000, 0.000, 14:05:11.210
114, -25629.34, 0.00, 0.00, 0.00, 0.00, 0.00, 0.00, 0.00, 0.000, 0.000, 0.000, 14:05:11.211
115, -25619.46, 0.00, 0.00, 0.00, 0.00, 0.00, 0.00, 0.00, 0.000, 0.000, 0.000, 14:05:11.211
116, -25622.85, 0.00, 0.00, 0.00, 0.00, 0.00, 0.00, 0.00, 0.000, 0.000, 0.000, 14:05:11.211
117, -25618.63, 0.00, 0.00, 0.00, 0.00, 0.00, 0.00, 0.00, 0.000, 0.000, 0.000, 14:05:11.211
118, -25605.53, 0.00, 0.00, 0.00, 0.00, 0.00, 0.00, 0.00, 0.000, 0.000, 0.000, 14:05:11.211
119, -25602.27, 0.00, 0.00, 0.00, 0.00, 0.00, 0.00, 0.00, 0.080, -0.432, -0.944, 14:05:11.211
120, -25613.73, 0.00, 0.00, 0.00, 0.00, 0.00, 0.00, 0.00, 0.000, 0.000, 0.000, 14:05:11.211
121, -25632.33, 0.00, 0.00, 0.00, 0.00, 0.00, 0.00, 0.00, 0.000, 0.000, 0.000, 14:05:11.211
122, -25622.90, 0.00, 0.00, 0.00, 0.00, 0.00, 0.00, 0.00, 0.000, 0.000, 0.000, 14:05:11.211
123, -25595.90, 0.00, 0.00, 0.00, 0.00, 0.00, 0.00, 0.00, 0.000, 0.000, 0.000, 14:05:11.211
124, -25607.65, 0.00, 0.00, 0.00, 0.00, 0.00, 0.00, 0.00, 0.000, 0.000, 0.000, 14:05:11.211
125, -25633.96, 0.00, 0.00, 0.00, 0.00, 0.00, 0.00, 0.00, 0.000, 0.000, 0.000, 14:05:11.211
126, -25632.44, 0.00, 0.00, 0.00, 0.00, 0.00, 0.00, 0.00, 0.000, 0.000, 0.000, 14:05:11.212
127, -25604.95, 0.00, 0.00, 0.00, 0.00, 0.00, 0.00, 0.00, 0.000, 0.000, 0.000, 14:05:11.212
128, -25604.95, 0.00, 0.00, 0.00, 0.00, 0.00, 0.00, 0.00, 0.000, 0.000, 0.000, 14:05:11.212
129, -25627.37, 0.00, 0.00, 0.00, 0.00, 0.00, 0.00, 0.00, 0.076, -0.438, -0.940, 14:05:11.212
130, -25631.82, 0.00, 0.00, 0.00, 0.00, 0.00, 0.00, 0.00, 0.000, 0.000, 0.000, 14:05:11.212
131, -25610.85, 0.00, 0.00, 0.00, 0.00, 0.00, 0.00, 0.00, 0.000, 0.000, 0.000, 14:05:11.212
132, -25614.70, 0.00, 0.00, 0.00, 0.00, 0.00, 0.00, 0.00, 0.000, 0.000, 0.000, 14:05:11.212
133, -25628.67, 0.00, 0.00, 0.00, 0.00, 0.00, 0.00, 0.00, 0.000, 0.000, 0.000, 14:05:11.212
134, -25636.36, 0.00, 0.00, 0.00, 0.00, 0.00, 0.00, 0.00, 0.000, 0.000, 0.000, 14:05:11.212
135, -25631.88, 0.00, 0.00, 0.00, 0.00, 0.00, 0.00, 0.00, 0.000, 0.000, 0.000, 14:05:11.212
136, -25608.75, 0.00, 0.00, 0.00, 0.00, 0.00, 0.00, 0.00, 0.000, 0.000, 0.000, 14:05:11.212
137, -25615.23, 0.00, 0.00, 0.00, 0.00, 0.00, 0.00, 0.00, 0.000, 0.000, 0.000, 14:05:11.212
138, -25627.03, 0.00, 0.00, 0.00, 0.00, 0.00, 0.00, 0.00, 0.000, 0.000, 0.000, 14:05:11.212
139, -25615.23, 0.00, 0.00, 0.00, 0.00, 0.00, 0.00, 0.00, 0.080, -0.436, -0.944, 14:05:11.212
140, -25605.64, 0.00, 0.00, 0.00, 0.00, 0.00, 0.00, 0.00, 0.000, 0.000, 0.000, 14:05:11.213
141, -25618.92, 0.00, 0.00, 0.00, 0.00, 0.00, 0.00, 0.00, 0.000, 0.000, 0.000, 14:05:11.213
142, -25641.61, 0.00, 0.00, 0.00, 0.00, 0.00, 0.00, 0.00, 0.000, 0.000, 0.000, 14:05:11.213
143, -25629.72, 0.00, 0.00, 0.00, 0.00, 0.00, 0.00, 0.00, 0.000, 0.000, 0.000, 14:05:11.214
144, -25601.46, 0.00, 0.00, 0.00, 0.00, 0.00, 0.00, 0.00, 0.000, 0.000, 0.000, 14:05:11.214
145, -25607.72, 0.00, 0.00, 0.00, 0.00, 0.00, 0.00, 0.00, 0.000, 0.000, 0.000, 14:05:11.214
146, -25628.82, 0.00, 0.00, 0.00, 0.00, 0.00, 0.00, 0.00, 0.000, 0.000, 0.000, 14:05:11.214
147, -25615.17, 0.00, 0.00, 0.00, 0.00, 0.00, 0.00, 0.00, 0.000, 0.000, 0.000, 14:05:11.214
148, -25610.90, 0.00, 0.00, 0.00, 0.00, 0.00, 0.00, 0.00, 0.000, 0.000, 0.000, 14:05:11.214
149, -25614.67, 0.00, 0.00, 0.00, 0.00, 0.00, 0.00, 0.00, 0.078, -0.436, -0.950, 14:05:11.215
150, -25622.97, 0.00, 0.00, 0.00, 0.00, 0.00, 0.00, 0.00, 0.000, 0.000, 0.000, 14:05:11.215
151, -25630.12, 0.00, 0.00, 0.00, 0.00, 0.00, 0.00, 0.00, 0.000, 0.000, 0.000, 14:05:11.215
152, -25616.04, 0.00, 0.00, 0.00, 0.00, 0.00, 0.00, 0.00, 0.000, 0.000, 0.000, 14:05:11.215
153, -25611.79, 0.00, 0.00, 0.00, 0.00, 0.00, 0.00, 0.00, 0.000, 0.000, 0.000, 14:05:11.215
154, -25624.64, 0.00, 0.00, 0.00, 0.00, 0.00, 0.00, 0.00, 0.000, 0.000, 0.000, 14:05:11.215
155, -25623.28, 0.00, 0.00, 0.00, 0.00, 0.00, 0.00, 0.00, 0.000, 0.000, 0.000, 14:05:11.215
156, -25632.89, 0.00, 0.00, 0.00, 0.00, 0.00, 0.00, 0.00, 0.000, 0.000, 0.000, 14:05:11.215
157, -25611.54, 0.00, 0.00, 0.00, 0.00, 0.00, 0.00, 0.00, 0.000, 0.000, 0.000, 14:05:11.215
158, -25614.41, 0.00, 0.00, 0.00, 0.00, 0.00, 0.00, 0.00, 0.000, 0.000, 0.000, 14:05:11.215
159, -25621.38, 0.00, 0.00, 0.00, 0.00, 0.00, 0.00, 0.00, 0.080, -0.438, -0.940, 14:05:11.215
160, -25618.72, 0.00, 0.00, 0.00, 0.00, 0.00, 0.00, 0.00, 0.000, 0.000, 0.000, 14:05:11.215
161, -25619.26, 0.00, 0.00, 0.00, 0.00, 0.00, 0.00, 0.00, 0.000, 0.000, 0.000, 14:05:11.215
162, -25628.82, 0.00, 0.00, 0.00, 0.00, 0.00, 0.00, 0.00, 0.000, 0.000, 0.000, 14:05:11.215
163, -25634.07, 0.00, 0.00, 0.00, 0.00, 0.00, 0.00, 0.00, 0.000, 0.000, 0.000, 14:05:11.216
164, -25636.87, 0.00, 0.00, 0.00, 0.00, 0.00, 0.00, 0.00, 0.000, 0.000, 0.000, 14:05:11.216
165, -25617.80, 0.00, 0.00, 0.00, 0.00, 0.00, 0.00, 0.00, 0.000, 0.000, 0.000, 14:05:11.216
166, -25610.99, 0.00, 0.00, 0.00, 0.00, 0.00, 0.00, 0.00, 0.000, 0.000, 0.000, 14:05:11.217
167, -25606.54, 0.00, 0.00, 0.00, 0.00, 0.00, 0.00, 0.00, 0.000, 0.000, 0.000, 14:05:11.217
168, -25611.01, 0.00, 0.00, 0.00, 0.00, 0.00, 0.00, 0.00, 0.000, 0.000, 0.000, 14:05:11.217
169, -25629.09, 0.00, 0.00, 0.00, 0.00, 0.00, 0.00, 0.00, 0.078, -0.432, -0.944, 14:05:11.217
170, -25613.89, 0.00, 0.00, 0.00, 0.00, 0.00, 0.00, 0.00, 0.000, 0.000, 0.000, 14:05:11.217
171, -25604.95, 0.00, 0.00, 0.00, 0.00, 0.00, 0.00, 0.00, 0.000, 0.000, 0.000, 14:05:11.217
172, -25609.46, 0.00, 0.00, 0.00, 0.00, 0.00, 0.00, 0.00, 0.000, 0.000, 0.000, 14:05:11.218
173, -25608.44, 0.00, 0.00, 0.00, 0.00, 0.00, 0.00, 0.00, 0.000, 0.000, 0.000, 14:05:11.218
174, -25609.29, 0.00, 0.00, 0.00, 0.00, 0.00, 0.00, 0.00, 0.000, 0.000, 0.000, 14:05:11.218
175, -25614.47, 0.00, 0.00, 0.00, 0.00, 0.00, 0.00, 0.00, 0.000, 0.000, 0.000, 14:05:11.218
176, -25623.70, 0.00, 0.00, 0.00, 0.00, 0.00, 0.00, 0.00, 0.000, 0.000, 0.000, 14:05:11.218
177, -25619.79, 0.00, 0.00, 0.00, 0.00, 0.00, 0.00, 0.00, 0.000, 0.000, 0.000, 14:05:11.218
178, -25625.85, 0.00, 0.00, 0.00, 0.00, 0.00, 0.00, 0.00, 0.074, -0.436, -0.946, 14:05:11.218
179, -25636.80, 0.00, 0.00, 0.00, 0.00, 0.00, 0.00, 0.00, 0.000, 0.000, 0.000, 14:05:11.218
180, -25628.04, 0.00, 0.00, 0.00, 0.00, 0.00, 0.00, 0.00, 0.000, 0.000, 0.000, 14:05:11.218
181, -25605.38, 0.00, 0.00, 0.00, 0.00, 0.00, 0.00, 0.00, 0.000, 0.000, 0.000, 14:05:11.218
182, -25602.42, 0.00, 0.00, 0.00, 0.00, 0.00, 0.00, 0.00, 0.000, 0.000, 0.000, 14:05:11.218
183, -25604.17, 0.00, 0.00, 0.00, 0.00, 0.00, 0.00, 0.00, 0.000, 0.000, 0.000, 14:05:11.219
184, -25621.89, 0.00, 0.00, 0.00, 0.00, 0.00, 0.00, 0.00, 0.000, 0.000, 0.000, 14:05:11.219
185, -25616.86, 0.00, 0.00, 0.00, 0.00, 0.00, 0.00, 0.00, 0.000, 0.000, 0.000, 14:05:11.219
186, -25600.70, 0.00, 0.00, 0.00, 0.00, 0.00, 0.00, 0.00, 0.000, 0.000, 0.000, 14:05:11.219
187, -25616.57, 0.00, 0.00, 0.00, 0.00, 0.00, 0.00, 0.00, 0.000, 0.000, 0.000, 14:05:11.219
188, -25616.80, 0.00, 0.00, 0.00, 0.00, 0.00, 0.00, 0.00, 0.078, -0.440, -0.944, 14:05:11.219
189, -25621.63, 0.00, 0.00, 0.00, 0.00, 0.00, 0.00, 0.00, 0.000, 0.000, 0.000, 14:05:11.219
190, -25617.45, 0.00, 0.00, 0.00, 0.00, 0.00, 0.00, 0.00, 0.000, 0.000, 0.000, 14:05:11.219
191, -25603.86, 0.00, 0.00, 0.00, 0.00, 0.00, 0.00, 0.00, 0.000, 0.000, 0.000, 14:05:11.220
192, -25624.29, 0.00, 0.00, 0.00, 0.00, 0.00, 0.00, 0.00, 0.000, 0.000, 0.000, 14:05:11.220
193, -25628.64, 0.00, 0.00, 0.00, 0.00, 0.00, 0.00, 0.00, 0.000, 0.000, 0.000, 14:05:11.220
194, -25615.77, 0.00, 0.00, 0.00, 0.00, 0.00, 0.00, 0.00, 0.000, 0.000, 0.000, 14:05:11.220
195, -25639.37, 0.00, 0.00, 0.00, 0.00, 0.00, 0.00, 0.00, 0.000, 0.000, 0.000, 14:05:11.684
196, -25647.62, 0.00, 0.00, 0.00, 0.00, 0.00, 0.00, 0.00, 0.000, 0.000, 0.000, 14:05:11.684
197, -25616.82, 0.00, 0.00, 0.00, 0.00, 0.00, 0.00, 0.00, 0.000, 0.000, 0.000, 14:05:11.685
198, -25600.23, 0.00, 0.00, 0.00, 0.00, 0.00, 0.00, 0.00, 0.080, -0.432, -0.956, 14:05:11.685
199, -25591.32, 0.00, 0.00, 0.00, 0.00, 0.00, 0.00, 0.00, 0.000, 0.000, 0.000, 14:05:11.685
200, -25614.79, 0.00, 0.00, 0.00, 0.00, 0.00, 0.00, 0.00, 0.000, 0.000, 0.000, 14:05:11.685
201, -25638.19, 0.00, 0.00, 0.00, 0.00, 0.00, 0.00, 0.00, 0.000, 0.000, 0.000, 14:05:11.685
202, -25615.21, 0.00, 0.00, 0.00, 0.00, 0.00, 0.00, 0.00, 0.000, 0.000, 0.000, 14:05:11.685
203, -25602.45, 0.00, 0.00, 0.00, 0.00, 0.00, 0.00, 0.00, 0.000, 0.000, 0.000, 14:05:11.685
204, -25611.43, 0.00, 0.00, 0.00, 0.00, 0.00, 0.00, 0.00, 0.000, 0.000, 0.000, 14:05:11.686
205, -25638.17, 0.00, 0.00, 0.00, 0.00, 0.00, 0.00, 0.00, 0.000, 0.000, 0.000, 14:05:11.686
206, -25614.41, 0.00, 0.00, 0.00, 0.00, 0.00, 0.00, 0.00, 0.000, 0.000, 0.000, 14:05:11.686
207, -25602.51, 0.00, 0.00, 0.00, 0.00, 0.00, 0.00, 0.00, 0.000, 0.000, 0.000, 14:05:11.686
208, -25618.83, 0.00, 0.00, 0.00, 0.00, 0.00, 0.00, 0.00, 0.076, -0.436, -0.944, 14:05:11.686
209, -25630.14, 0.00, 0.00, 0.00, 0.00, 0.00, 0.00, 0.00, 0.000, 0.000, 0.000, 14:05:11.686
210, -25611.68, 0.00, 0.00, 0.00, 0.00, 0.00, 0.00, 0.00, 0.000, 0.000, 0.000, 14:05:11.686
211, -25595.23, 0.00, 0.00, 0.00, 0.00, 0.00, 0.00, 0.00, 0.000, 0.000, 0.000, 14:05:11.687
212, -25614.76, 0.00, 0.00, 0.00, 0.00, 0.00, 0.00, 0.00, 0.000, 0.000, 0.000, 14:05:11.687
213, -25637.47, 0.00, 0.00, 0.00, 0.00, 0.00, 0.00, 0.00, 0.000, 0.000, 0.000, 14:05:11.687
214, -25618.47, 0.00, 0.00, 0.00, 0.00, 0.00, 0.00, 0.00, 0.000, 0.000, 0.000, 14:05:11.687
215, -25599.25, 0.00, 0.00, 0.00, 0.00, 0.00, 0.00, 0.00, 0.000, 0.000, 0.000, 14:05:11.687
216, -25624.02, 0.00, 0.00, 0.00, 0.00, 0.00, 0.00, 0.00, 0.000, 0.000, 0.000, 14:05:11.687
217, -25629.09, 0.00, 0.00, 0.00, 0.00, 0.00, 0.00, 0.00, 0.000, 0.000, 0.000, 14:05:11.688
218, -25623.95, 0.00, 0.00, 0.00, 0.00, 0.00, 0.00, 0.00, 0.076, -0.436, -0.946, 14:05:11.688
219, -25611.25, 0.00, 0.00, 0.00, 0.00, 0.00, 0.00, 0.00, 0.000, 0.000, 0.000, 14:05:11.688
220, -25612.66, 0.00, 0.00, 0.00, 0.00, 0.00, 0.00, 0.00, 0.000, 0.000, 0.000, 14:05:11.688
221, -25621.51, 0.00, 0.00, 0.00, 0.00, 0.00, 0.00, 0.00, 0.000, 0.000, 0.000, 14:05:11.688
222, -25612.51, 0.00, 0.00, 0.00, 0.00, 0.00, 0.00, 0.00, 0.000, 0.000, 0.000, 14:05:11.688
223, -25618.18, 0.00, 0.00, 0.00, 0.00, 0.00, 0.00, 0.00, 0.000, 0.000, 0.000, 14:05:11.688
224, -25616.71, 0.00, 0.00, 0.00, 0.00, 0.00, 0.00, 0.00, 0.000, 0.000, 0.000, 14:05:11.688
225, -25618.81, 0.00, 0.00, 0.00, 0.00, 0.00, 0.00, 0.00, 0.000, 0.000, 0.000, 14:05:11.689
226, -25622.25, 0.00, 0.00, 0.00, 0.00, 0.00, 0.00, 0.00, 0.000, 0.000, 0.000, 14:05:11.689
227, -25605.40, 0.00, 0.00, 0.00, 0.00, 0.00, 0.00, 0.00, 0.000, 0.000, 0.000, 14:05:11.689
228, -25607.70, 0.00, 0.00, 0.00, 0.00, 0.00, 0.00, 0.00, 0.070, -0.434, -0.950, 14:05:11.689
229, -25622.16, 0.00, 0.00, 0.00, 0.00, 0.00, 0.00, 0.00, 0.000, 0.000, 0.000, 14:05:11.689
230, -25625.22, 0.00, 0.00, 0.00, 0.00, 0.00, 0.00, 0.00, 0.000, 0.000, 0.000, 14:05:11.689
231, -25607.50, 0.00, 0.00, 0.00, 0.00, 0.00, 0.00, 0.00, 0.000, 0.000, 0.000, 14:05:11.690
232, -25603.52, 0.00, 0.00, 0.00, 0.00, 0.00, 0.00, 0.00, 0.000, 0.000, 0.000, 14:05:11.690
233, -25611.43, 0.00, 0.00, 0.00, 0.00, 0.00, 0.00, 0.00, 0.000, 0.000, 0.000, 14:05:11.690
234, -25622.03, 0.00, 0.00, 0.00, 0.00, 0.00, 0.00, 0.00, 0.000, 0.000, 0.000, 14:05:11.690
235, -25607.41, 0.00, 0.00, 0.00, 0.00, 0.00, 0.00, 0.00, 0.000, 0.000, 0.000, 14:05:11.690
236, -25597.91, 0.00, 0.00, 0.00, 0.00, 0.00, 0.00, 0.00, 0.000, 0.000, 0.000, 14:05:11.690
237, -25603.61, 0.00, 0.00, 0.00, 0.00, 0.00, 0.00, 0.00, 0.000, 0.000, 0.000, 14:05:11.690
238, -25624.13, 0.00, 0.00, 0.00, 0.00, 0.00, 0.00, 0.00, 0.076, -0.434, -0.948, 14:05:11.690
239, -25632.09, 0.00, 0.00, 0.00, 0.00, 0.00, 0.00, 0.00, 0.000, 0.000, 0.000, 14:05:11.690
240, -25608.64, 0.00, 0.00, 0.00, 0.00, 0.00, 0.00, 0.00, 0.000, 0.000, 0.000, 14:05:11.691
241, -25611.77, 0.00, 0.00, 0.00, 0.00, 0.00, 0.00, 0.00, 0.000, 0.000, 0.000, 14:05:11.691
242, -25634.14, 0.00, 0.00, 0.00, 0.00, 0.00, 0.00, 0.00, 0.000, 0.000, 0.000, 14:05:11.691
243, -25643.06, 0.00, 0.00, 0.00, 0.00, 0.00, 0.00, 0.00, 0.000, 0.000, 0.000, 14:05:11.691
244, -25620.04, 0.00, 0.00, 0.00, 0.00, 0.00, 0.00, 0.00, 0.000, 0.000, 0.000, 14:05:11.691
245, -25614.67, 0.00, 0.00, 0.00, 0.00, 0.00, 0.00, 0.00, 0.000, 0.000, 0.000, 14:05:11.691
246, -25609.82, 0.00, 0.00, 0.00, 0.00, 0.00, 0.00, 0.00, 0.000, 0.000, 0.000, 14:05:11.691
247, -25623.08, 0.00, 0.00, 0.00, 0.00, 0.00, 0.00, 0.00, 0.000, 0.000, 0.000, 14:05:11.691
248, -25629.31, 0.00, 0.00, 0.00, 0.00, 0.00, 0.00, 0.00, 0.072, -0.432, -0.942, 14:05:11.691
249, -25614.21, 0.00, 0.00, 0.00, 0.00, 0.00, 0.00, 0.00, 0.000, 0.000, 0.000, 14:05:11.692
250, -25624.58, 0.00, 0.00, 0.00, 0.00, 0.00, 0.00, 0.00, 0.000, 0.000, 0.000, 14:05:11.692
251, -25636.91, 0.00, 0.00, 0.00, 0.00, 0.00, 0.00, 0.00, 0.000, 0.000, 0.000, 14:05:11.692
252, -25616.60, 0.00, 0.00, 0.00, 0.00, 0.00, 0.00, 0.00, 0.000, 0.000, 0.000, 14:05:11.692
253, -25604.39, 0.00, 0.00, 0.00, 0.00, 0.00, 0.00, 0.00, 0.000, 0.000, 0.000, 14:05:11.692
254, -25611.99, 0.00, 0.00, 0.00, 0.00, 0.00, 0.00, 0.00, 0.000, 0.000, 0.000, 14:05:11.692
255, -25613.94, 0.00, 0.00, 0.00, 0.00, 0.00, 0.00, 0.00, 0.000, 0.000, 0.000, 14:05:11.693
0, -25617.22, 0.00, 0.00, 0.00, 0.00, 0.00, 0.00, 0.00, 0.000, 0.000, 0.000, 14:05:11.693
1, -25617.71, 0.00, 0.00, 0.00, 0.00, 0.00, 0.00, 0.00, 0.000, 0.000, 0.000, 14:05:11.693
2, -25618.54, 0.00, 0.00, 0.00, 0.00, 0.00, 0.00, 0.00, 0.078, -0.426, -0.944, 14:05:11.694
3, -25617.27, 0.00, 0.00, 0.00, 0.00, 0.00, 0.00, 0.00, 0.000, 0.000, 0.000, 14:05:11.694
4, -25625.76, 0.00, 0.00, 0.00, 0.00, 0.00, 0.00, 0.00, 0.000, 0.000, 0.000, 14:05:11.694
5, -25618.74, 0.00, 0.00, 0.00, 0.00, 0.00, 0.00, 0.00, 0.000, 0.000, 0.000, 14:05:11.694
6, -25622.83, 0.00, 0.00, 0.00, 0.00, 0.00, 0.00, 0.00, 0.000, 0.000, 0.000, 14:05:11.694
7, -25636.82, 0.00, 0.00, 0.00, 0.00, 0.00, 0.00, 0.00, 0.000, 0.000, 0.000, 14:05:11.694
8, -25640.02, 0.00, 0.00, 0.00, 0.00, 0.00, 0.00, 0.00, 0.000, 0.000, 0.000, 14:05:11.694
9, -25632.09, 0.00, 0.00, 0.00, 0.00, 0.00, 0.00, 0.00, 0.000, 0.000, 0.000, 14:05:11.694
10, -25607.54, 0.00, 0.00, 0.00, 0.00, 0.00, 0.00, 0.00, 0.000, 0.000, 0.000, 14:05:11.694
11, -25629.31, 0.00, 0.00, 0.00, 0.00, 0.00, 0.00, 0.00, 0.000, 0.000, 0.000, 14:05:11.695
12, -25645.74, 0.00, 0.00, 0.00, 0.00, 0.00, 0.00, 0.00, 0.072, -0.424, -0.938, 14:05:11.695
13, -25632.64, 0.00, 0.00, 0.00, 0.00, 0.00, 0.00, 0.00, 0.000, 0.000, 0.000, 14:05:11.695
14, -25627.39, 0.00, 0.00, 0.00, 0.00, 0.00, 0.00, 0.00, 0.000, 0.000, 0.000, 14:05:11.695
15, -25634.86, 0.00, 0.00, 0.00, 0.00, 0.00, 0.00, 0.00, 0.000, 0.000, 0.000, 14:05:11.695
16, -25622.56, 0.00, 0.00, 0.00, 0.00, 0.00, 0.00, 0.00, 0.000, 0.000, 0.000, 14:05:11.695
17, -25617.69, 0.00, 0.00, 0.00, 0.00, 0.00, 0.00, 0.00, 0.000, 0.000, 0.000, 14:05:11.695
18, -25628.33, 0.00, 0.00, 0.00, 0.00, 0.00, 0.00, 0.00, 0.000, 0.000, 0.000, 14:05:11.696
19, -25628.73, 0.00, 0.00, 0.00, 0.00, 0.00, 0.00, 0.00, 0.000, 0.000, 0.000, 14:05:11.696
20, -25619.14, 0.00, 0.00, 0.00, 0.00, 0.00, 0.00, 0.00, 0.000, 0.000, 0.000, 14:05:11.696
21, -25612.10, 0.00, 0.00, 0.00, 0.00, 0.00, 0.00, 0.00, 0.072, -0.434, -0.938, 14:05:11.696
22, -25604.75, 0.00, 0.00, 0.00, 0.00, 0.00, 0.00, 0.00, 0.000, 0.000, 0.000, 14:05:11.700
23, -25609.85, 0.00, 0.00, 0.00, 0.00, 0.00, 0.00, 0.00, 0.000, 0.000, 0.000, 14:05:11.700
24, -25630.14, 0.00, 0.00, 0.00, 0.00, 0.00, 0.00, 0.00, 0.000, 0.000, 0.000, 14:05:11.700
25, -25622.14, 0.00, 0.00, 0.00, 0.00, 0.00, 0.00, 0.00, 0.000, 0.000, 0.000, 14:05:11.700
26, -25596.43, 0.00, 0.00, 0.00, 0.00, 0.00, 0.00, 0.00, 0.000, 0.000, 0.000, 14:05:11.700
27, -25621.60, 0.00, 0.00, 0.00, 0.00, 0.00, 0.00, 0.00, 0.000, 0.000, 0.000, 14:05:11.700
28, -25626.81, 0.00, 0.00, 0.00, 0.00, 0.00, 0.00, 0.00, 0.000, 0.000, 0.000, 14:05:11.701
29, -25625.11, 0.00, 0.00, 0.00, 0.00, 0.00, 0.00, 0.00, 0.000, 0.000, 0.000, 14:05:11.701
30, -25624.62, 0.00, 0.00, 0.00, 0.00, 0.00, 0.00, 0.00, 0.000, 0.000, 0.000, 14:05:11.702
31, -25617.45, 0.00, 0.00, 0.00, 0.00, 0.00, 0.00, 0.00, 0.074, -0.438, -0.942, 14:05:11.702
32, -25638.41, 0.00, 0.00, 0.00, 0.00, 0.00, 0.00, 0.00, 0.000, 0.000, 0.000, 14:05:11.702
33, -25627.28, 0.00, 0.00, 0.00, 0.00, 0.00, 0.00, 0.00, 0.000, 0.000, 0.000, 14:05:11.702
34, -25604.21, 0.00, 0.00, 0.00, 0.00, 0.00, 0.00, 0.00, 0.000, 0.000, 0.000, 14:05:11.703
35, -25630.77, 0.00, 0.00, 0.00, 0.00, 0.00, 0.00, 0.00, 0.000, 0.000, 0.000, 14:05:11.703
36, -25636.42, 0.00, 0.00, 0.00, 0.00, 0.00, 0.00, 0.00, 0.000, 0.000, 0.000, 14:05:11.703
37, -25607.01, 0.00, 0.00, 0.00, 0.00, 0.00, 0.00, 0.00, 0.000, 0.000, 0.000, 14:05:11.703
38, -25600.75, 0.00, 0.00, 0.00, 0.00, 0.00, 0.00, 0.00, 0.000, 0.000, 0.000, 14:05:11.703
39, -25616.26, 0.00, 0.00, 0.00, 0.00, 0.00, 0.00, 0.00, 0.000, 0.000, 0.000, 14:05:11.703
40, -25629.16, 0.00, 0.00, 0.00, 0.00, 0.00, 0.00, 0.00, 0.000, 0.000, 0.000, 14:05:11.703
41, -25628.26, 0.00, 0.00, 0.00, 0.00, 0.00, 0.00, 0.00, 0.070, -0.440, -0.946, 14:05:11.704
42, -25628.76, 0.00, 0.00, 0.00, 0.00, 0.00, 0.00, 0.00, 0.000, 0.000, 0.000, 14:05:11.704
43, -25630.95, 0.00, 0.00, 0.00, 0.00, 0.00, 0.00, 0.00, 0.000, 0.000, 0.000, 14:05:11.704
44, -25618.38, 0.00, 0.00, 0.00, 0.00, 0.00, 0.00, 0.00, 0.000, 0.000, 0.000, 14:05:11.704
45, -25618.14, 0.00, 0.00, 0.00, 0.00, 0.00, 0.00, 0.00, 0.000, 0.000, 0.000, 14:05:11.704
46, -25616.42, 0.00, 0.00, 0.00, 0.00, 0.00, 0.00, 0.00, 0.000, 0.000, 0.000, 14:05:11.704
47, -25608.33, 0.00, 0.00, 0.00, 0.00, 0.00, 0.00, 0.00, 0.000, 0.000, 0.000, 14:05:11.704
48, -25613.40, 0.00, 0.00, 0.00, 0.00, 0.00, 0.00, 0.00, 0.000, 0.000, 0.000, 14:05:11.705
49, -25646.10, 0.00, 0.00, 0.00, 0.00, 0.00, 0.00, 0.00, 0.000, 0.000, 0.000, 14:05:11.705
50, -25613.69, 0.00, 0.00, 0.00, 0.00, 0.00, 0.00, 0.00, 0.000, 0.000, 0.000, 14:05:11.705
51, -25595.99, 0.00, 0.00, 0.00, 0.00, 0.00, 0.00, 0.00, 0.072, -0.436, -0.948, 14:05:11.705
52, -25615.68, 0.00, 0.00, 0.00, 0.00, 0.00, 0.00, 0.00, 0.000, 0.000, 0.000, 14:05:11.705
53, -25640.71, 0.00, 0.00, 0.00, 0.00, 0.00, 0.00, 0.00, 0.000, 0.000, 0.000, 14:05:11.705
54, -25643.57, 0.00, 0.00, 0.00, 0.00, 0.00, 0.00, 0.00, 0.000, 0.000, 0.000, 14:05:11.705
55, -25613.80, 0.00, 0.00, 0.00, 0.00, 0.00, 0.00, 0.00, 0.000, 0.000, 0.000, 14:05:11.705
56, -25615.37, 0.00, 0.00, 0.00, 0.00, 0.00, 0.00, 0.00, 0.000, 0.000, 0.000, 14:05:11.705
57, -25613.96, 0.00, 0.00, 0.00, 0.00, 0.00, 0.00, 0.00, 0.000, 0.000, 0.000, 14:05:11.705
58, -25624.62, 0.00, 0.00, 0.00, 0.00, 0.00, 0.00, 0.00, 0.000, 0.000, 0.000, 14:05:11.706
59, -25613.47, 0.00, 0.00, 0.00, 0.00, 0.00, 0.00, 0.00, 0.000, 0.000, 0.000, 14:05:12.164
60, -25608.95, 0.00, 0.00, 0.00, 0.00, 0.00, 0.00, 0.00, 0.000, 0.000, 0.000, 14:05:12.164
61, -25639.19, 0.00, 0.00, 0.00, 0.00, 0.00, 0.00, 0.00, 0.076, -0.440, -0.952, 14:05:12.165
62, -25644.56, 0.00, 0.00, 0.00, 0.00, 0.00, 0.00, 0.00, 0.000, 0.000, 0.000, 14:05:12.165
63, -25610.72, 0.00, 0.00, 0.00, 0.00, 0.00, 0.00, 0.00, 0.000, 0.000, 0.000, 14:05:12.165
64, -25590.20, 0.00, 0.00, 0.00, 0.00, 0.00, 0.00, 0.00, 0.000, 0.000, 0.000, 14:05:12.165
65, -25616.66, 0.00, 0.00, 0.00, 0.00, 0.00, 0.00, 0.00, 0.000, 0.000, 0.000, 14:05:12.165
66, -25614.58, 0.00, 0.00, 0.00, 0.00, 0.00, 0.00, 0.00, 0.000, 0.000, 0.000, 14:05:12.165
67, -25619.59, 0.00, 0.00, 0.00, 0.00, 0.00, 0.00, 0.00, 0.000, 0.000, 0.000, 14:05:12.166
68, -25615.14, 0.00, 0.00, 0.00, 0.00, 0.00, 0.00, 0.00, 0.000, 0.000, 0.000, 14:05:12.166
69, -25614.70, 0.00, 0.00, 0.00, 0.00, 0.00, 0.00, 0.00, 0.000, 0.000, 0.000, 14:05:12.166
70, -25618.47, 0.00, 0.00, 0.00, 0.00, 0.00, 0.00, 0.00, 0.000, 0.000, 0.000, 14:05:12.166
71, -25611.01, 0.00, 0.00, 0.00, 0.00, 0.00, 0.00, 0.00, 0.078, -0.436, -0.948, 14:05:12.166
72, -25620.84, 0.00, 0.00, 0.00, 0.00, 0.00, 0.00, 0.00, 0.000, 0.000, 0.000, 14:05:12.166
73, -25634.48, 0.00, 0.00, 0.00, 0.00, 0.00, 0.00, 0.00, 0.000, 0.000, 0.000, 14:05:12.166
74, -25641.00, 0.00, 0.00, 0.00, 0.00, 0.00, 0.00, 0.00, 0.000, 0.000, 0.000, 14:05:12.166
75, -25630.92, 0.00, 0.00, 0.00, 0.00, 0.00, 0.00, 0.00, 0.000, 0.000, 0.000, 14:05:12.167
76, -25601.60, 0.00, 0.00, 0.00, 0.00, 0.00, 0.00, 0.00, 0.000, 0.000, 0.000, 14:05:12.167
77, -25606.85, 0.00, 0.00, 0.00, 0.00, 0.00, 0.00, 0.00, 0.000, 0.000, 0.000, 14:05:12.167
78, -25617.94, 0.00, 0.00, 0.00, 0.00, 0.00, 0.00, 0.00, 0.000, 0.000, 0.000, 14:05:12.167
79, -25618.94, 0.00, 0.00, 0.00, 0.00, 0.00, 0.00, 0.00, 0.000, 0.000, 0.000, 14:05:12.167
80, -25629.76, 0.00, 0.00, 0.00, 0.00, 0.00, 0.00, 0.00, 0.000, 0.000, 0.000, 14:05:12.167
81, -25608.95, 0.00, 0.00, 0.00, 0.00, 0.00, 0.00, 0.00, 0.074, -0.434, -0.946, 14:05:12.167
82, -25624.82, 0.00, 0.00, 0.00, 0.00, 0.00, 0.00, 0.00, 0.000, 0.000, 0.000, 14:05:12.167
83, -25619.70, 0.00, 0.00, 0.00, 0.00, 0.00, 0.00, 0.00, 0.000, 0.000, 0.000, 14:05:12.168
84, -25601.33, 0.00, 0.00, 0.00, 0.00, 0.00, 0.00, 0.00, 0.000, 0.000, 0.000, 14:05:12.168
85, -25617.36, 0.00, 0.00, 0.00, 0.00, 0.00, 0.00, 0.00, 0.000, 0.000, 0.000, 14:05:12.168
86, -25610.05, 0.00, 0.00, 0.00, 0.00, 0.00, 0.00, 0.00, 0.000, 0.000, 0.000, 14:05:12.168
87, -25608.68, 0.00, 0.00, 0.00, 0.00, 0.00, 0.00, 0.00, 0.000, 0.000, 0.000, 14:05:12.168
88, -25598.07, 0.00, 0.00, 0.00, 0.00, 0.00, 0.00, 0.00, 0.000, 0.000, 0.000, 14:05:12.168
89, -25613.18, 0.00, 0.00, 0.00, 0.00, 0.00, 0.00, 0.00, 0.000, 0.000, 0.000, 14:05:12.170
90, -25624.53, 0.00, 0.00, 0.00, 0.00, 0.00, 0.00, 0.00, 0.000, 0.000, 0.000, 14:05:12.170
91, -25615.14, 0.00, 0.00, 0.00, 0.00, 0.00, 0.00, 0.00, 0.076, -0.434, -0.940, 14:05:12.170
92, -25611.23, 0.00, 0.00, 0.00, 0.00, 0.00, 0.00, 0.00, 0.000, 0.000, 0.000, 14:05:12.170
93, -25614.27, 0.00, 0.00, 0.00, 0.00, 0.00, 0.00, 0.00, 0.000, 0.000, 0.000, 14:05:12.170
94, -25614.43, 0.00, 0.00, 0.00, 0.00, 0.00, 0.00, 0.00, 0.000, 0.000, 0.000, 14:05:12.170
95, -25623.28, 0.00, 0.00, 0.00, 0.00, 0.00, 0.00, 0.00, 0.000, 0.000, 0.000, 14:05:12.170
96, -25601.60, 0.00, 0.00, 0.00, 0.00, 0.00, 0.00, 0.00, 0.000, 0.000, 0.000, 14:05:12.170
97, -25592.72, 0.00, 0.00, 0.00, 0.00, 0.00, 0.00, 0.00, 0.000, 0.000, 0.000, 14:05:12.171
98, -25610.22, 0.00, 0.00, 0.00, 0.00, 0.00, 0.00, 0.00, 0.000, 0.000, 0.000, 14:05:12.171
99, -25636.00, 0.00, 0.00, 0.00, 0.00, 0.00, 0.00, 0.00, 0.000, 0.000, 0.000, 14:05:12.171
100, -25624.84, 0.00, 0.00, 0.00, 0.00, 0.00, 0.00, 0.00, 0.000, 0.000, 0.000, 14:05:12.172
101, -25605.42, 0.00, 0.00, 0.00, 0.00, 0.00, 0.00, 0.00, 0.074, -0.434, -0.942, 14:05:12.172
102, -25606.36, 0.00, 0.00, 0.00, 0.00, 0.00, 0.00, 0.00, 0.000, 0.000, 0.000, 14:05:12.172
103, -25598.45, 0.00, 0.00, 0.00, 0.00, 0.00, 0.00, 0.00, 0.000, 0.000, 0.000, 14:05:12.172
104, -25606.76, 0.00, 0.00, 0.00, 0.00, 0.00, 0.00, 0.00, 0.000, 0.000, 0.000, 14:05:12.172
105, -25595.74, 0.00, 0.00, 0.00, 0.00, 0.00, 0.00, 0.00, 0.000, 0.000, 0.000, 14:05:12.172
106, -25612.77, 0.00, 0.00, 0.00, 0.00, 0.00, 0.00, 0.00, 0.000, 0.000, 0.000, 14:05:12.172
107, -25607.95, 0.00, 0.00, 0.00, 0.00, 0.00, 0.00, 0.00, 0.000, 0.000, 0.000, 14:05:12.173
108, -25610.11, 0.00, 0.00, 0.00, 0.00, 0.00, 0.00, 0.00, 0.000, 0.000, 0.000, 14:05:12.173
109, -25596.86, 0.00, 0.00, 0.00, 0.00, 0.00, 0.00, 0.00, 0.000, 0.000, 0.000, 14:05:12.173
110, -25608.19, 0.00, 0.00, 0.00, 0.00, 0.00, 0.00, 0.00, 0.076, -0.432, -0.940, 14:05:12.173
111, -25622.52, 0.00, 0.00, 0.00, 0.00, 0.00, 0.00, 0.00, 0.000, 0.000, 0.000, 14:05:12.173
112, -25622.99, 0.00, 0.00, 0.00, 0.00, 0.00, 0.00, 0.00, 0.000, 0.000, 0.000, 14:05:12.174
113, -25612.51, 0.00, 0.00, 0.00, 0.00, 0.00, 0.00, 0.00, 0.000, 0.000, 0.000, 14:05:12.174
114, -25604.17, 0.00, 0.00, 0.00, 0.00, 0.00, 0.00, 0.00, 0.000, 0.000, 0.000, 14:05:12.174
115, -25618.90, 0.00, 0.00, 0.00, 0.00, 0.00, 0.00, 0.00, 0.000, 0.000, 0.000, 14:05:12.174
116, -25619.84, 0.00, 0.00, 0.00, 0.00, 0.00, 0.00, 0.00, 0.000, 0.000, 0.000, 14:05:12.174
117, -25603.88, 0.00, 0.00, 0.00, 0.00, 0.00, 0.00, 0.00, 0.000, 0.000, 0.000, 14:05:12.174
118, -25593.10, 0.00, 0.00, 0.00, 0.00, 0.00, 0.00, 0.00, 0.000, 0.000, 0.000, 14:05:12.174
119, -25590.60, 0.00, 0.00, 0.00, 0.00, 0.00, 0.00, 0.00, 0.000, 0.000, 0.000, 14:05:12.174
120, -25618.70, 0.00, 0.00, 0.00, 0.00, 0.00, 0.00, 0.00, 0.074, -0.440, -0.944, 14:05:12.175
121, -25620.20, 0.00, 0.00, 0.00, 0.00, 0.00, 0.00, 0.00, 0.000, 0.000, 0.000, 14:05:12.175
122, -25593.42, 0.00, 0.00, 0.00, 0.00, 0.00, 0.00, 0.00, 0.000, 0.000, 0.000, 14:05:12.175
123, -25589.04, 0.00, 0.00, 0.00, 0.00, 0.00, 0.00, 0.00, 0.000, 0.000, 0.000, 14:05:12.175
124, -25611.70, 0.00, 0.00, 0.00, 0.00, 0.00, 0.00, 0.00, 0.000, 0.000, 0.000, 14:05:12.176
125, -25633.29, 0.00, 0.00, 0.00, 0.00, 0.00, 0.00, 0.00, 0.000, 0.000, 0.000, 14:05:12.176
126, -25599.56, 0.00, 0.00, 0.00, 0.00, 0.00, 0.00, 0.00, 0.000, 0.000, 0.000, 14:05:12.176
127, -25602.51, 0.00, 0.00, 0.00, 0.00, 0.00, 0.00, 0.00, 0.000, 0.000, 0.000, 14:05:12.176
128, -25614.90, 0.00, 0.00, 0.00, 0.00, 0.00, 0.00, 0.00, 0.000, 0.000, 0.000, 14:05:12.176
129, -25613.44, 0.00, 0.00, 0.00, 0.00, 0.00, 0.00, 0.00, 0.000, 0.000, 0.000, 14:05:12.176
130, -25607.25, 0.00, 0.00, 0.00, 0.00, 0.00, 0.00, 0.00, 0.076, -0.438, -0.942, 14:05:12.176
131, -25621.20, 0.00, 0.00, 0.00, 0.00, 0.00, 0.00, 0.00, 0.000, 0.000, 0.000, 14:05:12.177
132, -25632.80, 0.00, 0.00, 0.00, 0.00, 0.00, 0.00, 0.00, 0.000, 0.000, 0.000, 14:05:12.177
133, -25623.95, 0.00, 0.00, 0.00, 0.00, 0.00, 0.00, 0.00, 0.000, 0.000, 0.000, 14:05:12.177
134, -25622.27, 0.00, 0.00, 0.00, 0.00, 0.00, 0.00, 0.00, 0.000, 0.000, 0.000, 14:05:12.177
135, -25608.44, 0.00, 0.00, 0.00, 0.00, 0.00, 0.00, 0.00, 0.000, 0.000, 0.000, 14:05:12.177
136, -25632.06, 0.00, 0.00, 0.00, 0.00, 0.00, 0.00, 0.00, 0.000, 0.000, 0.000, 14:05:12.177
137, -25638.93, 0.00, 0.00, 0.00, 0.00, 0.00, 0.00, 0.00, 0.000, 0.000, 0.000, 14:05:12.177
138, -25616.48, 0.00, 0.00, 0.00, 0.00, 0.00, 0.00, 0.00, 0.000, 0.000, 0.000, 14:05:12.177
139, -25621.13, 0.00, 0.00, 0.00, 0.00, 0.00, 0.00, 0.00, 0.000, 0.000, 0.000, 14:05:12.178
140, -25644.04, 0.00, 0.00, 0.00, 0.00, 0.00, 0.00, 0.00, 0.072, -0.438, -0.942, 14:05:12.178
141, -25619.21, 0.00, 0.00, 0.00, 0.00, 0.00, 0.00, 0.00, 0.000, 0.000, 0.000, 14:05:12.178
142, -25584.95, 0.00, 0.00, 0.00, 0.00, 0.00, 0.00, 0.00, 0.000, 0.000, 0.000, 14:05:12.178
143, -25591.07, 0.00, 0.00, 0.00, 0.00, 0.00, 0.00, 0.00, 0.000, 0.000, 0.000, 14:05:12.178
144, -25611.57, 0.00, 0.00, 0.00, 0.00, 0.00, 0.00, 0.00, 0.000, 0.000, 0.000, 14:05:12.178
145, -25618.32, 0.00, 0.00, 0.00, 0.00, 0.00, 0.00, 0.00, 0.000, 0.000, 0.000, 14:05:12.178
146, -25610.43, 0.00, 0.00, 0.00, 0.00, 0.00, 0.00, 0.00, 0.000, 0.000, 0.000, 14:05:12.178
147, -25606.25, 0.00, 0.00, 0.00, 0.00, 0.00, 0.00, 0.00, 0.000, 0.000, 0.000, 14:05:12.179
148, -25606.09, 0.00, 0.00, 0.00, 0.00, 0.00, 0.00, 0.00, 0.000, 0.000, 0.000, 14:05:12.179
149, -25616.60, 0.00, 0.00, 0.00, 0.00, 0.00, 0.00, 0.00, 0.000, 0.000, 0.000, 14:05:12.179
150, -25613.22, 0.00, 0.00, 0.00, 0.00, 0.00, 0.00, 0.00, 0.074, -0.440, -0.942, 14:05:12.181
151, -25602.09, 0.00, 0.00, 0.00, 0.00, 0.00, 0.00, 0.00, 0.000, 0.000, 0.000, 14:05:12.181
152, -25620.26, 0.00, 0.00, 0.00, 0.00, 0.00, 0.00, 0.00, 0.000, 0.000, 0.000, 14:05:12.182
153, -25623.01, 0.00, 0.00, 0.00, 0.00, 0.00, 0.00, 0.00, 0.000, 0.000, 0.000, 14:05:12.182
154, -25618.16, 0.00, 0.00, 0.00, 0.00, 0.00, 0.00, 0.00, 0.000, 0.000, 0.000, 14:05:12.184
155, -25627.10, 0.00, 0.00, 0.00, 0.00, 0.00, 0.00, 0.00, 0.000, 0.000, 0.000, 14:05:12.184
156, -25619.23, 0.00, 0.00, 0.00, 0.00, 0.00, 0.00, 0.00, 0.000, 0.000, 0.000, 14:05:12.184
157, -25610.90, 0.00, 0.00, 0.00, 0.00, 0.00, 0.00, 0.00, 0.000, 0.000, 0.000, 14:05:12.184
158, -25627.64, 0.00, 0.00, 0.00, 0.00, 0.00, 0.00, 0.00, 0.000, 0.000, 0.000, 14:05:12.188
159, -25617.69, 0.00, 0.00, 0.00, 0.00, 0.00, 0.00, 0.00, 0.000, 0.000, 0.000, 14:05:12.188
160, -25624.29, 0.00, 0.00, 0.00, 0.00, 0.00, 0.00, 0.00, 0.074, -0.442, -0.942, 14:05:12.188
161, -25635.53, 0.00, 0.00, 0.00, 0.00, 0.00, 0.00, 0.00, 0.000, 0.000, 0.000, 14:05:12.188
162, -25626.19, 0.00, 0.00, 0.00, 0.00, 0.00, 0.00, 0.00, 0.000, 0.000, 0.000, 14:05:12.188
163, -25631.01, 0.00, 0.00, 0.00, 0.00, 0.00, 0.00, 0.00, 0.000, 0.000, 0.000, 14:05:12.188
164, -25628.78, 0.00, 0.00, 0.00, 0.00, 0.00, 0.00, 0.00, 0.000, 0.000, 0.000, 14:05:12.188
165, -25629.07, 0.00, 0.00, 0.00, 0.00, 0.00, 0.00, 0.00, 0.000, 0.000, 0.000, 14:05:12.188
166, -25635.04, 0.00, 0.00, 0.00, 0.00, 0.00, 0.00, 0.00, 0.000, 0.000, 0.000, 14:05:12.188
167, -25634.81, 0.00, 0.00, 0.00, 0.00, 0.00, 0.00, 0.00, 0.000, 0.000, 0.000, 14:05:12.188
168, -25600.66, 0.00, 0.00, 0.00, 0.00, 0.00, 0.00, 0.00, 0.000, 0.000, 0.000, 14:05:12.190
169, -25616.80, 0.00, 0.00, 0.00, 0.00, 0.00, 0.00, 0.00, 0.000, 0.000, 0.000, 14:05:12.190
170, -25626.59, 0.00, 0.00, 0.00, 0.00, 0.00, 0.00, 0.00, 0.076, -0.440, -0.942, 14:05:12.190
171, -25596.43, 0.00, 0.00, 0.00, 0.00, 0.00, 0.00, 0.00, 0.000, 0.000, 0.000, 14:05:12.190
172, -25601.73, 0.00, 0.00, 0.00, 0.00, 0.00, 0.00, 0.00, 0.000, 0.000, 0.000, 14:05:12.190
173, -25612.80, 0.00, 0.00, 0.00, 0.00, 0.00, 0.00, 0.00, 0.000, 0.000, 0.000, 14:05:12.190
174, -25608.88, 0.00, 0.00, 0.00, 0.00, 0.00, 0.00, 0.00, 0.000, 0.000, 0.000, 14:05:12.190
175, -25614.99, 0.00, 0.00, 0.00, 0.00, 0.00, 0.00, 0.00, 0.000, 0.000, 0.000, 14:05:12.191
176, -25610.90, 0.00, 0.00, 0.00, 0.00, 0.00, 0.00, 0.00, 0.000, 0.000, 0.000, 14:05:12.191
177, -25615.84, 0.00, 0.00, 0.00, 0.00, 0.00, 0.00, 0.00, 0.000, 0.000, 0.000, 14:05:12.191
178, -25636.53, 0.00, 0.00, 0.00, 0.00, 0.00, 0.00, 0.00, 0.000, 0.000, 0.000, 14:05:12.191
179, -25643.51, 0.00, 0.00, 0.00, 0.00, 0.00, 0.00, 0.00, 0.000, 0.000, 0.000, 14:05:12.778
180, -25607.25, 0.00, 0.00, 0.00, 0.00, 0.00, 0.00, 0.00, 0.078, -0.438, -0.940, 14:05:12.778
181, -25607.61, 0.00, 0.00, 0.00, 0.00, 0.00, 0.00, 0.00, 0.000, 0.000, 0.000, 14:05:12.778
182, -25616.80, 0.00, 0.00, 0.00, 0.00, 0.00, 0.00, 0.00, 0.000, 0.000, 0.000, 14:05:12.778
183, -25624.13, 0.00, 0.00, 0.00, 0.00, 0.00, 0.00, 0.00, 0.000, 0.000, 0.000, 14:05:12.778
184, -25608.75, 0.00, 0.00, 0.00, 0.00, 0.00, 0.00, 0.00, 0.000, 0.000, 0.000, 14:05:12.779
185, -25621.78, 0.00, 0.00, 0.00, 0.00, 0.00, 0.00, 0.00, 0.000, 0.000, 0.000, 14:05:12.779
186, -25635.93, 0.00, 0.00, 0.00, 0.00, 0.00, 0.00, 0.00, 0.000, 0.000, 0.000, 14:05:12.779
187, -25619.28, 0.00, 0.00, 0.00, 0.00, 0.00, 0.00, 0.00, 0.000, 0.000, 0.000, 14:05:12.779
188, -25614.65, 0.00, 0.00, 0.00, 0.00, 0.00, 0.00, 0.00, 0.000, 0.000, 0.000, 14:05:12.779
189, -25612.66, 0.00, 0.00, 0.00, 0.00, 0.00, 0.00, 0.00, 0.000, 0.000, 0.000, 14:05:12.779
190, -25606.74, 0.00, 0.00, 0.00, 0.00, 0.00, 0.00, 0.00, 0.072, -0.432, -0.940, 14:05:12.779
191, -25625.04, 0.00, 0.00, 0.00, 0.00, 0.00, 0.00, 0.00, 0.000, 0.000, 0.000, 14:05:12.779
192, -25609.33, 0.00, 0.00, 0.00, 0.00, 0.00, 0.00, 0.00, 0.000, 0.000, 0.000, 14:05:12.779
193, -25604.50, 0.00, 0.00, 0.00, 0.00, 0.00, 0.00, 0.00, 0.000, 0.000, 0.000, 14:05:12.779
194, -25615.77, 0.00, 0.00, 0.00, 0.00, 0.00, 0.00, 0.00, 0.000, 0.000, 0.000, 14:05:12.779
195, -25619.19, 0.00, 0.00, 0.00, 0.00, 0.00, 0.00, 0.00, 0.000, 0.000, 0.000, 14:05:12.780
196, -25596.23, 0.00, 0.00, 0.00, 0.00, 0.00, 0.00, 0.00, 0.000, 0.000, 0.000, 14:05:12.780
197, -25597.26, 0.00, 0.00, 0.00, 0.00, 0.00, 0.00, 0.00, 0.000, 0.000, 0.000, 14:05:12.780
198, -25600.75, 0.00, 0.00, 0.00, 0.00, 0.00, 0.00, 0.00, 0.000, 0.000, 0.000, 14:05:12.780
199, -25611.05, 0.00, 0.00, 0.00, 0.00, 0.00, 0.00, 0.00, 0.076, -0.434, -0.944, 14:05:12.780
200, -25622.16, 0.00, 0.00, 0.00, 0.00, 0.00, 0.00, 0.00, 0.000, 0.000, 0.000, 14:05:12.780
201, -25596.03, 0.00, 0.00, 0.00, 0.00, 0.00, 0.00, 0.00, 0.000, 0.000, 0.000, 14:05:12.780
202, -25603.59, 0.00, 0.00, 0.00, 0.00, 0.00, 0.00, 0.00, 0.000, 0.000, 0.000, 14:05:12.780
203, -25623.64, 0.00, 0.00, 0.00, 0.00, 0.00, 0.00, 0.00, 0.000, 0.000, 0.000, 14:05:12.780
204, -25624.22, 0.00, 0.00, 0.00, 0.00, 0.00, 0.00, 0.00, 0.000, 0.000, 0.000, 14:05:12.780
205, -25609.55, 0.00, 0.00, 0.00, 0.00, 0.00, 0.00, 0.00, 0.000, 0.000, 0.000, 14:05:12.780
206, -25614.32, 0.00, 0.00, 0.00, 0.00, 0.00, 0.00, 0.00, 0.000, 0.000, 0.000, 14:05:12.780
207, -25615.23, 0.00, 0.00, 0.00, 0.00, 0.00, 0.00, 0.00, 0.000, 0.000, 0.000, 14:05:12.780
208, -25627.37, 0.00, 0.00, 0.00, 0.00, 0.00, 0.00, 0.00, 0.000, 0.000, 0.000, 14:05:12.781
209, -25616.13, 0.00, 0.00, 0.00, 0.00, 0.00, 0.00, 0.00, 0.074, -0.434, -0.946, 14:05:12.781
210, -25615.97, 0.00, 0.00, 0.00, 0.00, 0.00, 0.00, 0.00, 0.000, 0.000, 0.000, 14:05:12.781
211, -25625.34, 0.00, 0.00, 0.00, 0.00, 0.00, 0.00, 0.00, 0.000, 0.000, 0.000, 14:05:12.781
212, -25636.91, 0.00, 0.00, 0.00, 0.00, 0.00, 0.00, 0.00, 0.000, 0.000, 0.000, 14:05:12.781
213, -25621.67, 0.00, 0.00, 0.00, 0.00, 0.00, 0.00, 0.00, 0.000, 0.000, 0.000, 14:05:12.781
214, -25637.25, 0.00, 0.00, 0.00, 0.00, 0.00, 0.00, 0.00, 0.000, 0.000, 0.000, 14:05:12.781
215, -25644.69, 0.00, 0.00, 0.00, 0.00, 0.00, 0.00, 0.00, 0.000, 0.000, 0.000, 14:05:12.781
216, -25637.25, 0.00, 0.00, 0.00, 0.00, 0.00, 0.00, 0.00, 0.000, 0.000, 0.000, 14:05:12.781
217, -25628.29, 0.00, 0.00, 0.00, 0.00, 0.00, 0.00, 0.00, 0.000, 0.000, 0.000, 14:05:12.782
218, -25610.36, 0.00, 0.00, 0.00, 0.00, 0.00, 0.00, 0.00, 0.000, 0.000, 0.000, 14:05:12.782
219, -25598.71, 0.00, 0.00, 0.00, 0.00, 0.00, 0.00, 0.00, 0.074, -0.436, -0.944, 14:05:12.782
220, -25596.55, 0.00, 0.00, 0.00, 0.00, 0.00, 0.00, 0.00, 0.000, 0.000, 0.000, 14:05:12.782
221, -25600.30, 0.00, 0.00, 0.00, 0.00, 0.00, 0.00, 0.00, 0.000, 0.000, 0.000, 14:05:12.782
222, -25596.88, 0.00, 0.00, 0.00, 0.00, 0.00, 0.00, 0.00, 0.000, 0.000, 0.000, 14:05:12.782
223, -25607.37, 0.00, 0.00, 0.00, 0.00, 0.00, 0.00, 0.00, 0.000, 0.000, 0.000, 14:05:12.782
224, -25620.53, 0.00, 0.00, 0.00, 0.00, 0.00, 0.00, 0.00, 0.000, 0.000, 0.000, 14:05:12.782
225, -25623.84, 0.00, 0.00, 0.00, 0.00, 0.00, 0.00, 0.00, 0.000, 0.000, 0.000, 14:05:12.782
226, -25614.65, 0.00, 0.00, 0.00, 0.00, 0.00, 0.00, 0.00, 0.000, 0.000, 0.000, 14:05:12.782
227, -25613.82, 0.00, 0.00, 0.00, 0.00, 0.00, 0.00, 0.00, 0.000, 0.000, 0.000, 14:05:12.782
228, -25629.27, 0.00, 0.00, 0.00, 0.00, 0.00, 0.00, 0.00, 0.000, 0.000, 0.000, 14:05:12.782
229, -25633.14, 0.00, 0.00, 0.00, 0.00, 0.00, 0.00, 0.00, 0.074, -0.432, -0.942, 14:05:12.783
230, -25620.78, 0.00, 0.00, 0.00, 0.00, 0.00, 0.00, 0.00, 0.000, 0.000, 0.000, 14:05:12.783
231, -25615.97, 0.00, 0.00, 0.00, 0.00, 0.00, 0.00, 0.00, 0.000, 0.000, 0.000, 14:05:12.783
232, -25617.38, 0.00, 0.00, 0.00, 0.00, 0.00, 0.00, 0.00, 0.000, 0.000, 0.000, 14:05:12.783
233, -25623.97, 0.00, 0.00, 0.00, 0.00, 0.00, 0.00, 0.00, 0.000, 0.000, 0.000, 14:05:12.783
234, -25620.20, 0.00, 0.00, 0.00, 0.00, 0.00, 0.00, 0.00, 0.000, 0.000, 0.000, 14:05:12.783
235, -25629.52, 0.00, 0.00, 0.00, 0.00, 0.00, 0.00, 0.00, 0.000, 0.000, 0.000, 14:05:12.783
236, -25636.64, 0.00, 0.00, 0.00, 0.00, 0.00, 0.00, 0.00, 0.000, 0.000, 0.000, 14:05:12.783
237, -25628.42, 0.00, 0.00, 0.00, 0.00, 0.00, 0.00, 0.00, 0.000, 0.000, 0.000, 14:05:12.783
238, -25630.21, 0.00, 0.00, 0.00, 0.00, 0.00, 0.00, 0.00, 0.000, 0.000, 0.000, 14:05:12.783
239, -25623.95, 0.00, 0.00, 0.00, 0.00, 0.00, 0.00, 0.00, 0.072, -0.434, -0.952, 14:05:12.783
240, -25624.20, 0.00, 0.00, 0.00, 0.00, 0.00, 0.00, 0.00, 0.000, 0.000, 0.000, 14:05:12.783
241, -25632.55, 0.00, 0.00, 0.00, 0.00, 0.00, 0.00, 0.00, 0.000, 0.000, 0.000, 14:05:12.783
242, -25609.76, 0.00, 0.00, 0.00, 0.00, 0.00, 0.00, 0.00, 0.000, 0.000, 0.000, 14:05:12.784
243, -25613.13, 0.00, 0.00, 0.00, 0.00, 0.00, 0.00, 0.00, 0.000, 0.000, 0.000, 14:05:12.784
244, -25619.19, 0.00, 0.00, 0.00, 0.00, 0.00, 0.00, 0.00, 0.000, 0.000, 0.000, 14:05:12.784
245, -25633.85, 0.00, 0.00, 0.00, 0.00, 0.00, 0.00, 0.00, 0.000, 0.000, 0.000, 14:05:12.784
246, -25627.84, 0.00, 0.00, 0.00, 0.00, 0.00, 0.00, 0.00, 0.000, 0.000, 0.000, 14:05:12.784
247, -25614.88, 0.00, 0.00, 0.00, 0.00, 0.00, 0.00, 0.00, 0.000, 0.000, 0.000, 14:05:12.784
248, -25618.03, 0.00, 0.00, 0.00, 0.00, 0.00, 0.00, 0.00, 0.000, 0.000, 0.000, 14:05:12.784
249, -25624.08, 0.00, 0.00, 0.00, 0.00, 0.00, 0.00, 0.00, 0.074, -0.436, -0.948, 14:05:12.784
250, -25628.93, 0.00, 0.00, 0.00, 0.00, 0.00, 0.00, 0.00, 0.000, 0.000, 0.000, 14:05:12.784
251, -25617.29, 0.00, 0.00, 0.00, 0.00, 0.00, 0.00, 0.00, 0.000, 0.000, 0.000, 14:05:12.784
252, -25626.86, 0.00, 0.00, 0.00, 0.00, 0.00, 0.00, 0.00, 0.000, 0.000, 0.000, 14:05:12.784
253, -25642.63, 0.00, 0.00, 0.00, 0.00, 0.00, 0.00, 0.00, 0.000, 0.000, 0.000, 14:05:12.784
254, -25636.71, 0.00, 0.00, 0.00, 0.00, 0.00, 0.00, 0.00, 0.000, 0.000, 0.000, 14:05:12.785
255, -25607.63, 0.00, 0.00, 0.00, 0.00, 0.00, 0.00, 0.00, 0.000, 0.000, 0.000, 14:05:12.785
0, -25600.62, 0.00, 0.00, 0.00, 0.00, 0.00, 0.00, 0.00, 0.000, 0.000, 0.000, 14:05:12.785
1, -25613.78, 0.00, 0.00, 0.00, 0.00, 0.00, 0.00, 0.00, 0.000, 0.000, 0.000, 14:05:12.785
2, -25626.45, 0.00, 0.00, 0.00, 0.00, 0.00, 0.00, 0.00, 0.000, 0.000, 0.000, 14:05:12.785
3, -25617.62, 0.00, 0.00, 0.00, 0.00, 0.00, 0.00, 0.00, 0.074, -0.438, -0.946, 14:05:12.785
4, -25618.65, 0.00, 0.00, 0.00, 0.00, 0.00, 0.00, 0.00, 0.000, 0.000, 0.000, 14:05:12.785
5, -25617.27, 0.00, 0.00, 0.00, 0.00, 0.00, 0.00, 0.00, 0.000, 0.000, 0.000, 14:05:12.785
6, -25610.31, 0.00, 0.00, 0.00, 0.00, 0.00, 0.00, 0.00, 0.000, 0.000, 0.000, 14:05:12.785
7, -25605.08, 0.00, 0.00, 0.00, 0.00, 0.00, 0.00, 0.00, 0.000, 0.000, 0.000, 14:05:12.785
8, -25605.46, 0.00, 0.00, 0.00, 0.00, 0.00, 0.00, 0.00, 0.000, 0.000, 0.000, 14:05:12.785
9, -25613.53, 0.00, 0.00, 0.00, 0.00, 0.00, 0.00, 0.00, 0.000, 0.000, 0.000, 14:05:12.785
10, -25621.78, 0.00, 0.00, 0.00, 0.00, 0.00, 0.00, 0.00, 0.000, 0.000, 0.000, 14:05:12.786
11, -25623.14, 0.00, 0.00, 0.00, 0.00, 0.00, 0.00, 0.00, 0.000, 0.000, 0.000, 14:05:12.786
12, -25621.92, 0.00, 0.00, 0.00, 0.00, 0.00, 0.00, 0.00, 0.000, 0.000, 0.000, 14:05:12.786
13, -25616.04, 0.00, 0.00, 0.00, 0.00, 0.00, 0.00, 0.00, 0.072, -0.442, -0.944, 14:05:12.786
14, -25632.67, 0.00, 0.00, 0.00, 0.00, 0.00, 0.00, 0.00, 0.000, 0.000, 0.000, 14:05:12.787
15, -25628.06, 0.00, 0.00, 0.00, 0.00, 0.00, 0.00, 0.00, 0.000, 0.000, 0.000, 14:05:12.787
16, -25618.67, 0.00, 0.00, 0.00, 0.00, 0.00, 0.00, 0.00, 0.000, 0.000, 0.000, 14:05:12.788
17, -25620.55, 0.00, 0.00, 0.00, 0.00, 0.00, 0.00, 0.00, 0.000, 0.000, 0.000, 14:05:12.788
18, -25598.83, 0.00, 0.00, 0.00, 0.00, 0.00, 0.00, 0.00, 0.000, 0.000, 0.000, 14:05:12.788
19, -25605.84, 0.00, 0.00, 0.00, 0.00, 0.00, 0.00, 0.00, 0.000, 0.000, 0.000, 14:05:12.788
20, -25594.49, 0.00, 0.00, 0.00, 0.00, 0.00, 0.00, 0.00, 0.000, 0.000, 0.000, 14:05:12.788
21, -25610.87, 0.00, 0.00, 0.00, 0.00, 0.00, 0.00, 0.00, 0.000, 0.000, 0.000, 14:05:12.788
22, -25618.18, 0.00, 0.00, 0.00, 0.00, 0.00, 0.00, 0.00, 0.000, 0.000, 0.000, 14:05:12.788
23, -25615.41, 0.00, 0.00, 0.00, 0.00, 0.00, 0.00, 0.00, 0.068, -0.434, -0.942, 14:05:12.788
24, -25615.37, 0.00, 0.00, 0.00, 0.00, 0.00, 0.00, 0.00, 0.000, 0.000, 0.000, 14:05:12.788
