%OpenBCI Raw EEG Data
%
%Sample Rate = 250.0 Hz
%First Column = SampleIndex
%Last Column = Timestamp 
%Other Columns = EEG data in microvolts followed by Accel Data (in G) interleaved with Aux Data
0, 0.00, 0.00, 0.00, 0.00, 0.00, 0.00, 0.00, 0.00, 0.096, 1.008, -0.058, 22:45:29.697
1, 9165.76, 16790.59, 187500.00, 187500.00, 187500.00, -187500.02, -187500.02, -187500.02, 0.000, 0.000, 0.000, 22:45:30.181
2, 9726.43, 17076.89, 187500.00, 187500.00, 187500.00, -187500.02, -187500.02, -187500.02, 0.000, 0.000, 0.000, 22:45:30.181
3, 8905.72, 16721.03, 187500.00, 187500.00, 187500.00, -187500.02, -187500.02, -187500.02, 0.000, 0.000, 0.000, 22:45:30.181
4, 8299.92, 16388.32, 187500.00, 187500.00, 187500.00, -187500.02, -187500.02, -187500.02, 0.000, 0.000, 0.000, 22:45:30.182
5, 8978.38, 16687.99, 187500.00, 187500.00, 187500.00, -187500.02, -187500.02, -187500.02, 0.000, 0.000, 0.000, 22:45:30.182
6, 9717.15, 17101.50, 187500.00, 187500.00, 187500.00, -187500.02, -187500.02, -187500.02, 0.000, 0.000, 0.000, 22:45:30.182
7, 9109.48, 16841.12, 187500.00, 187500.00, 187500.00, -187500.02, -187500.02, -187500.02, 0.102, 1.002, -0.072, 22:45:30.182
8, 8285.19, 16385.75, 187500.00, 187500.00, 187500.00, -187500.02, -187500.02, -187500.02, 0.000, 0.000, 0.000, 22:45:30.182
9, 8793.87, 16605.87, 187500.00, 187500.00, 187500.00, -187500.02, -187500.02, -187500.02, 0.000, 0.000, 0.000, 22:45:30.183
10, 9649.29, 17082.63, 187500.00, 187500.00, 187500.00, -187500.02, -187500.02, -187500.02, 0.000, 0.000, 0.000, 22:45:30.183
11, 9320.41, 16989.76, 187500.00, 187500.00, 187500.00, -187500.02, -187500.02, -187500.02, 0.000, 0.000, 0.000, 22:45:30.183
12, 8330.58, 16426.90, 187500.00, 187500.00, 187500.00, -187500.02, -187500.02, -187500.02, 0.000, 0.000, 0.000, 22:45:30.183
13, 8613.74, 16506.63, 187500.00, 187500.00, 187500.00, -187500.02, -187500.02, -187500.02, 0.000, 0.000, 0.000, 22:45:30.183
14, 9572.11, 17074.68, 187500.00, 187500.00, 187500.00, -187500.02, -187500.02, -187500.02, 0.000, 0.000, 0.000, 22:45:30.183
15, 9528.10, 17153.09, 187500.00, 187500.00, 187500.00, -187500.02, -187500.02, -187500.02, 0.000, 0.000, 0.000, 22:45:30.184
16, 8425.51, 16470.82, 187500.00, 187500.00, 187500.00, -187500.02, -187500.02, -187500.02, 0.000, 0.000, 0.000, 22:45:30.184
17, 8442.54, 16371.27, 187500.00, 187500.00, 187500.00, -187500.02, -187500.02, -187500.02, 0.106, 1.008, -0.072, 22:45:30.184
18, 9441.29, 16998.93, 187500.00, 187500.00, 187500.00, -187500.02, -187500.02, -187500.02, 0.000, 0.000, 0.000, 22:45:30.184
19, 9696.66, 17306.22, 187500.00, 187500.00, 187500.00, -187500.02, -187500.02, -187500.02, 0.000, 0.000, 0.000, 22:45:30.184
20, 8525.22, 16518.36, 187500.00, 187500.00, 187500.00, -187500.02, -187500.02, -187500.02, 0.000, 0.000, 0.000, 22:45:30.185
21, 8288.54, 16142.38, 187500.00, 187500.00, 187500.00, -187500.02, -187500.02, -187500.02, 0.000, 0.000, 0.000, 22:45:30.185
22, 9300.58, 16846.51, 187500.00, 187500.00, 187500.00, -187500.02, -187500.02, -187500.02, 0.000, 0.000, 0.000, 22:45:30.185
23, 9845.85, 17477.92, 187500.00, 187500.00, 187500.00, -187500.02, -187500.02, -187500.02, 0.000, 0.000, 0.000, 22:45:30.185
24, 8706.07, 16656.83, 187500.00, 187500.00, 187500.00, -187500.02, -187500.02, -187500.02, 0.000, 0.000, 0.000, 22:45:30.185
25, 8106.15, 15902.39, 187500.00, 187500.00, 187500.00, -187500.02, -187500.02, -187500.02, 0.000, 0.000, 0.000, 22:45:30.186
26, 9095.55, 16622.28, 187500.00, 187500.00, 187500.00, -187500.02, -187500.02, -187500.02, 0.000, 0.000, 0.000, 22:45:30.186
27, 9975.02, 17676.00, 187500.00, 187500.00, 187500.00, -187500.02, -187500.02, -187500.02, 0.106, 1.000, -0.076, 22:45:30.186
28, 8961.22, 16953.33, 187500.00, 187500.00, 187500.00, -187500.02, -187500.02, -187500.02, 0.000, 0.000, 0.000, 22:45:30.186
29, 7992.51, 15779.15, 187500.00, 187500.00, 187500.00, -187500.02, -187500.02, -187500.02, 0.000, 0.000, 0.000, 22:45:30.186
30, 8844.54, 16390.40, 187500.00, 187500.00, 187500.00, -187500.02, -187500.02, -187500.02, 0.000, 0.000, 0.000, 22:45:30.186
31, 10029.23, 17765.70, 187500.00, 187500.00, 187500.00, -187500.02, -187500.02, -187500.02, 0.000, 0.000, 0.000, 22:45:30.187
32, 9307.00, 17327.34, 187500.00, 187500.00, 187500.00, -187500.02, -187500.02, -187500.02, 0.000, 0.000, 0.000, 22:45:30.187
33, 7945.02, 15757.17, 187500.00, 187500.00, 187500.00, -187500.02, -187500.02, -187500.02, 0.000, 0.000, 0.000, 22:45:30.187
34, 8589.60, 16107.76, 187500.00, 187500.00, 187500.00, -187500.02, -187500.02, -187500.02, 0.000, 0.000, 0.000, 22:45:30.187
35, 10035.33, 17722.50, 187500.00, 187500.00, 187500.00, -187500.02, -187500.02, -187500.02, 0.000, 0.000, 0.000, 22:45:30.187
36, 9703.43, 17739.19, 187500.00, 187500.00, 187500.00, -187500.02, -187500.02, -187500.02, 0.000, 0.000, 0.000, 22:45:30.188
37, 8043.63, 15917.33, 187500.00, 187500.00, 187500.00, -187500.02, -187500.02, -187500.02, 0.110, 1.006, -0.088, 22:45:30.188
38, 8346.61, 15856.91, 187500.00, 187500.00, 187500.00, -187500.02, -187500.02, -187500.02, 0.000, 0.000, 0.000, 22:45:30.188
39, 9937.99, 17523.52, 187500.00, 187500.00, 187500.00, -187500.02, -187500.02, -187500.02, 0.000, 0.000, 0.000, 22:45:30.188
40, 10051.94, 18041.05, 187500.00, 187500.00, 187500.00, -187500.02, -187500.02, -187500.02, 0.000, 0.000, 0.000, 22:45:30.188
41, 8206.53, 16148.35, 187500.00, 187500.00, 187500.00, -187500.02, -187500.02, -187500.02, 0.000, 0.000, 0.000, 22:45:30.189
42, 8109.08, 15659.61, 187500.00, 187500.00, 187500.00, -187500.02, -187500.02, -187500.02, 0.000, 0.000, 0.000, 22:45:30.189
43, 9744.29, 17288.25, 187500.00, 187500.00, 187500.00, -187500.02, -187500.02, -187500.02, 0.000, 0.000, 0.000, 22:45:30.189
44, 10316.96, 18285.25, 187500.00, 187500.00, 187500.00, -187500.02, -187500.02, -187500.02, 0.000, 0.000, 0.000, 22:45:30.189
45, 8448.62, 16522.48, 187500.00, 187500.00, 187500.00, -187500.02, -187500.02, -187500.02, 0.000, 0.000, 0.000, 22:45:30.190
46, 7896.49, 15568.01, 187500.00, 187500.00, 187500.00, -187500.02, -187500.02, -187500.02, 0.000, 0.000, 0.000, 22:45:30.190
47, 9477.45, 17040.79, 187500.00, 187500.00, 187500.00, -187500.02, -187500.02, -187500.02, 0.106, 1.006, -0.094, 22:45:30.190
48, 10478.23, 18465.63, 187500.00, 187500.00, 187500.00, -187500.02, -187500.02, -187500.02, 0.000, 0.000, 0.000, 22:45:30.190
49, 8783.23, 17000.09, 187500.00, 187500.00, 187500.00, -187500.02, -187500.02, -187500.02, 0.000, 0.000, 0.000, 22:45:30.191
50, 7723.78, 15590.88, 187500.00, 187500.00, 187500.00, -187500.02, -187500.02, -187500.02, 0.000, 0.000, 0.000, 22:45:30.191
51, 9133.77, 16796.51, 187500.00, 187500.00, 187500.00, -187500.02, -187500.02, -187500.02, 0.000, 0.000, 0.000, 22:45:30.191
52, 10533.33, 18463.55, 187500.00, 187500.00, 187500.00, -187500.02, -187500.02, -187500.02, 0.000, 0.000, 0.000, 22:45:30.191
53, 9154.60, 17343.57, 187500.00, 187500.00, 187500.00, -187500.02, -187500.02, -187500.02, 0.000, 0.000, 0.000, 22:45:30.191
54, 7602.66, 15502.63, 187500.00, 187500.00, 187500.00, -187500.02, -187500.02, -187500.02, 0.000, 0.000, 0.000, 22:45:30.191
55, 8784.97, 16359.87, 187500.00, 187500.00, 187500.00, -187500.02, -187500.02, -187500.02, 0.000, 0.000, 0.000, 22:45:30.193
56, 10558.83, 18311.42, 187500.00, 187500.00, 187500.00, -187500.02, -187500.02, -187500.02, 0.000, 0.000, 0.000, 22:45:30.193
57, 9609.95, 17783.81, 187500.00, 187500.00, 187500.00, -187500.02, -187500.02, -187500.02, 0.112, 1.006, -0.090, 22:45:30.193
58, 7573.91, 15634.64, 187500.00, 187500.00, 187500.00, -187500.02, -187500.02, -187500.02, 0.000, 0.000, 0.000, 22:45:30.194
59, 8372.36, 16044.33, 187500.00, 187500.00, 187500.00, -187500.02, -187500.02, -187500.02, 0.000, 0.000, 0.000, 22:45:30.194
60, 10440.30, 18120.85, 187500.00, 187500.00, 187500.00, -187500.02, -187500.02, -187500.02, 0.000, 0.000, 0.000, 22:45:30.194
61, 10079.25, 18175.30, 187500.00, 187500.00, 187500.00, -187500.02, -187500.02, -187500.02, 0.000, 0.000, 0.000, 22:45:30.195
62, 7649.64, 15798.48, 187500.00, 187500.00, 187500.00, -187500.02, -187500.02, -187500.02, 0.000, 0.000, 0.000, 22:45:30.195
63, 7992.34, 15702.01, 187500.00, 187500.00, 187500.00, -187500.02, -187500.02, -187500.02, 0.000, 0.000, 0.000, 22:45:30.195
64, 10241.88, 17862.26, 187500.00, 187500.00, 187500.00, -187500.02, -187500.02, -187500.02, 0.000, 0.000, 0.000, 22:45:30.196
65, 10531.23, 18570.90, 187500.00, 187500.00, 187500.00, -187500.02, -187500.02, -187500.02, 0.000, 0.000, 0.000, 22:45:30.198
66, 7864.04, 16104.03, 187500.00, 187500.00, 187500.00, -187500.02, -187500.02, -187500.02, 0.000, 0.000, 0.000, 22:45:30.199
67, 7554.80, 15365.17, 187500.00, 187500.00, 187500.00, -187500.02, -187500.02, -187500.02, 0.112, 1.002, -0.090, 22:45:30.199
68, 9880.12, 17452.49, 187500.00, 187500.00, 187500.00, -187500.02, -187500.02, -187500.02, 0.000, 0.000, 0.000, 22:45:30.199
69, 10894.31, 18859.91, 187500.00, 187500.00, 187500.00, -187500.02, -187500.02, -187500.02, 0.000, 0.000, 0.000, 22:45:30.199
70, 8243.50, 16571.25, 187500.00, 187500.00, 187500.00, -187500.02, -187500.02, -187500.02, 0.000, 0.000, 0.000, 22:45:30.199
71, 7208.01, 15125.47, 187500.00, 187500.00, 187500.00, -187500.02, -187500.02, -187500.02, 0.000, 0.000, 0.000, 22:45:30.199
72, 9423.88, 17011.15, 187500.00, 187500.00, 187500.00, -187500.02, -187500.02, -187500.02, 0.000, 0.000, 0.000, 22:45:30.200
73, 11082.53, 19014.14, 187500.00, 187500.00, 187500.00, -187500.02, -187500.02, -187500.02, 0.000, 0.000, 0.000, 22:45:30.200
74, 8764.97, 17083.06, 187500.00, 187500.00, 187500.00, -187500.02, -187500.02, -187500.02, 0.000, 0.000, 0.000, 22:45:30.200
75, 7001.97, 14929.27, 187500.00, 187500.00, 187500.00, -187500.02, -187500.02, -187500.02, 0.000, 0.000, 0.000, 22:45:30.200
76, 8935.80, 16495.01, 187500.00, 187500.00, 187500.00, -187500.02, -187500.02, -187500.02, 0.102, 1.012, -0.086, 22:45:30.200
77, 11160.87, 19085.80, 187500.00, 187500.00, 187500.00, -187500.02, -187500.02, -187500.02, 0.000, 0.000, 0.000, 22:45:30.200
78, 9350.00, 17748.04, 187500.00, 187500.00, 187500.00, -187500.02, -187500.02, -187500.02, 0.000, 0.000, 0.000, 22:45:30.201
79, 6879.22, 14860.56, 187500.00, 187500.00, 187500.00, -187500.02, -187500.02, -187500.02, 0.000, 0.000, 0.000, 22:45:30.201
80, 8402.38, 15909.37, 187500.00, 187500.00, 187500.00, -187500.02, -187500.02, -187500.02, 0.000, 0.000, 0.000, 22:45:30.201
81, 11095.07, 18988.16, 187500.00, 187500.00, 187500.00, -187500.02, -187500.02, -187500.02, 0.000, 0.000, 0.000, 22:45:30.201
82, 10009.92, 18476.55, 187500.00, 187500.00, 187500.00, -187500.02, -187500.02, -187500.02, 0.000, 0.000, 0.000, 22:45:30.201
83, 6954.52, 14928.24, 187500.00, 187500.00, 187500.00, -187500.02, -187500.02, -187500.02, 0.000, 0.000, 0.000, 22:45:30.202
84, 7895.84, 15304.06, 187500.00, 187500.00, 187500.00, -187500.02, -187500.02, -187500.02, 0.000, 0.000, 0.000, 22:45:30.202
85, 10868.83, 18751.24, 187500.00, 187500.00, 187500.00, -187500.02, -187500.02, -187500.02, 0.000, 0.000, 0.000, 22:45:30.202
86, 10667.48, 19295.70, 187500.00, 187500.00, 187500.00, -187500.02, -187500.02, -187500.02, 0.096, 1.028, -0.090, 22:45:30.202
87, 7238.61, 15294.78, 187500.00, 187500.00, 187500.00, -187500.02, -187500.02, -187500.02, 0.000, 0.000, 0.000, 22:45:30.202
88, 7448.90, 14715.05, 187500.00, 187500.00, 187500.00, -187500.02, -187500.02, -187500.02, 0.000, 0.000, 0.000, 22:45:30.202
89, 10492.22, 18252.97, 187500.00, 187500.00, 187500.00, -187500.02, -187500.02, -187500.02, 0.000, 0.000, 0.000, 22:45:30.203
90, 11178.69, 19866.36, 187500.00, 187500.00, 187500.00, -187500.02, -187500.02, -187500.02, 0.000, 0.000, 0.000, 22:45:30.203
91, 7702.99, 15764.86, 187500.00, 187500.00, 187500.00, -187500.02, -187500.02, -187500.02, 0.000, 0.000, 0.000, 22:45:30.203
92, 7053.03, 14075.94, 187500.00, 187500.00, 187500.00, -187500.02, -187500.02, -187500.02, 0.000, 0.000, 0.000, 22:45:30.203
93, 10014.45, 17512.84, 187500.00, 187500.00, 187500.00, -187500.02, -187500.02, -187500.02, 0.000, 0.000, 0.000, 22:45:30.203
94, 11555.83, 20309.26, 187500.00, 187500.00, 187500.00, -187500.02, -187500.02, -187500.02, 0.000, 0.000, 0.000, 22:45:30.204
95, 8307.83, 16575.34, 187500.00, 187500.00, 187500.00, -187500.02, -187500.02, -187500.02, 0.000, 0.000, 0.000, 22:45:30.204
96, 6783.55, 13636.89, 187500.00, 187500.00, 187500.00, -187500.02, -187500.02, -187500.02, 0.092, 1.024, -0.086, 22:45:30.204
97, 9459.91, 16647.22, 187500.00, 187500.00, 187500.00, -187500.02, -187500.02, -187500.02, 0.000, 0.000, 0.000, 22:45:30.204
98, 11698.72, 20442.61, 187500.00, 187500.00, 187500.00, -187500.02, -187500.02, -187500.02, 0.000, 0.000, 0.000, 22:45:30.204
99, 8984.95, 17511.70, 187500.00, 187500.00, 187500.00, -187500.02, -187500.02, -187500.02, 0.000, 0.000, 0.000, 22:45:30.204
100, 6607.62, 13383.44, 187500.00, 187500.00, 187500.00, -187500.02, -187500.02, -187500.02, 0.000, 0.000, 0.000, 22:45:30.205
101, 8810.28, 15696.58, 187500.00, 187500.00, 187500.00, -187500.02, -187500.02, -187500.02, 0.000, 0.000, 0.000, 22:45:30.205
102, 11602.52, 20307.41, 187500.00, 187500.00, 187500.00, -187500.02, -187500.02, -187500.02, 0.000, 0.000, 0.000, 22:45:30.205
103, 9698.22, 18603.18, 187500.00, 187500.00, 187500.00, -187500.02, -187500.02, -187500.02, 0.000, 0.000, 0.000, 22:45:30.205
104, 6626.24, 13534.90, 187500.00, 187500.00, 187500.00, -187500.02, -187500.02, -187500.02, 0.000, 0.000, 0.000, 22:45:30.205
105, 8207.02, 14833.76, 187500.00, 187500.00, 187500.00, -187500.02, -187500.02, -187500.02, 0.000, 0.000, 0.000, 22:45:30.206
106, 11337.81, 19853.45, 187500.00, 187500.00, 187500.00, -187500.02, -187500.02, -187500.02, 0.094, 1.020, -0.088, 22:45:30.206
107, 10360.06, 19603.26, 187500.00, 187500.00, 187500.00, -187500.02, -187500.02, -187500.02, 0.000, 0.000, 0.000, 22:45:30.206
108, 6777.63, 13969.53, 187500.00, 187500.00, 187500.00, -187500.02, -187500.02, -187500.02, 0.000, 0.000, 0.000, 22:45:30.206
109, 7617.68, 14044.00, 187500.00, 187500.00, 187500.00, -187500.02, -187500.02, -187500.02, 0.000, 0.000, 0.000, 22:45:30.206
110, 10945.85, 19133.85, 187500.00, 187500.00, 187500.00, -187500.02, -187500.02, -187500.02, 0.000, 0.000, 0.000, 22:45:30.207
111, 10934.72, 20407.28, 187500.00, 187500.00, 187500.00, -187500.02, -187500.02, -187500.02, 0.000, 0.000, 0.000, 22:45:30.207
112, 7151.33, 14680.42, 187500.00, 187500.00, 187500.00, -187500.02, -187500.02, -187500.02, 0.000, 0.000, 0.000, 22:45:30.207
113, 7170.42, 13410.51, 187500.00, 187500.00, 187500.00, -187500.02, -187500.02, -187500.02, 0.000, 0.000, 0.000, 22:45:30.207
114, 10447.65, 18284.46, 187500.00, 187500.00, 187500.00, -187500.02, -187500.02, -187500.02, 0.000, 0.000, 0.000, 22:45:30.207
115, 11378.76, 20994.34, 187500.00, 187500.00, 187500.00, -187500.02, -187500.02, -187500.02, 0.000, 0.000, 0.000, 22:45:30.208
116, 7700.20, 15682.43, 187500.00, 187500.00, 187500.00, -187500.02, -187500.02, -187500.02, 0.084, 1.012, -0.090, 22:45:30.208
117, 6794.57, 12984.28, 187500.00, 187500.00, 187500.00, -187500.02, -187500.02, -187500.02, 0.000, 0.000, 0.000, 22:45:30.208
118, 9839.93, 17257.69, 187500.00, 187500.00, 187500.00, -187500.02, -187500.02, -187500.02, 0.000, 0.000, 0.000, 22:45:30.208
119, 11619.69, 21197.14, 187500.00, 187500.00, 187500.00, -187500.02, -187500.02, -187500.02, 0.000, 0.000, 0.000, 22:45:30.208
120, 8338.61, 16806.79, 187500.00, 187500.00, 187500.00, -187500.02, -187500.02, -187500.02, 0.000, 0.000, 0.000, 22:45:30.208
121, 6526.08, 12785.00, 187500.00, 187500.00, 187500.00, -187500.02, -187500.02, -187500.02, 0.000, 0.000, 0.000, 22:45:30.662
122, 9199.17, 16240.17, 187500.00, 187500.00, 187500.00, -187500.02, -187500.02, -187500.02, 0.000, 0.000, 0.000, 22:45:30.663
123, 11667.59, 21075.15, 187500.00, 187500.00, 187500.00, -187500.02, -187500.02, -187500.02, 0.000, 0.000, 0.000, 22:45:30.663
124, 9051.00, 17994.09, 187500.00, 187500.00, 187500.00, -187500.02, -187500.02, -187500.02, 0.000, 0.000, 0.000, 22:45:30.663
125, 6417.99, 12892.91, 187500.00, 187500.00, 187500.00, -187500.02, -187500.02, -187500.02, 0.000, 0.000, 0.000, 22:45:30.663
126, 8551.42, 15260.16, 187500.00, 187500.00, 187500.00, -187500.02, -187500.02, -187500.02, 0.094, 1.004, -0.090, 22:45:30.664
127, 11533.10, 20621.27, 187500.00, 187500.00, 187500.00, -187500.02, -187500.02, -187500.02, 0.000, 0.000, 0.000, 22:45:30.664
128, 9792.14, 19128.98, 187500.00, 187500.00, 187500.00, -187500.02, -187500.02, -187500.02, 0.000, 0.000, 0.000, 22:45:30.664
129, 6486.10, 13299.58, 187500.00, 187500.00, 187500.00, -187500.02, -187500.02, -187500.02, 0.000, 0.000, 0.000, 22:45:30.665
130, 7947.32, 14415.67, 187500.00, 187500.00, 187500.00, -187500.02, -187500.02, -187500.02, 0.000, 0.000, 0.000, 22:45:30.665
131, 11227.26, 19944.75, 187500.00, 187500.00, 187500.00, -187500.02, -187500.02, -187500.02, 0.000, 0.000, 0.000, 22:45:30.666
132, 10461.55, 20064.40, 187500.00, 187500.00, 187500.00, -187500.02, -187500.02, -187500.02, 0.000, 0.000, 0.000, 22:45:30.666
133, 6773.63, 13951.24, 187500.00, 187500.00, 187500.00, -187500.02, -187500.02, -187500.02, 0.000, 0.000, 0.000, 22:45:30.666
134, 7421.63, 13662.08, 187500.00, 187500.00, 187500.00, -187500.02, -187500.02, -187500.02, 0.000, 0.000, 0.000, 22:45:30.666
135, 10814.85, 19008.86, 187500.00, 187500.00, 187500.00, -187500.02, -187500.02, -187500.02, 0.102, 1.006, -0.102, 22:45:30.666
136, 11052.89, 20707.97, 187500.00, 187500.00, 187500.00, -187500.02, -187500.02, -187500.02, 0.000, 0.000, 0.000, 22:45:30.667
137, 7215.32, 14794.08, 187500.00, 187500.00, 187500.00, -187500.02, -187500.02, -187500.02, 0.000, 0.000, 0.000, 22:45:30.667
138, 7018.58, 13094.57, 187500.00, 187500.00, 187500.00, -187500.02, -187500.02, -187500.02, 0.000, 0.000, 0.000, 22:45:30.667
139, 10304.69, 17952.79, 187500.00, 187500.00, 187500.00, -187500.02, -187500.02, -187500.02, 0.000, 0.000, 0.000, 22:45:30.667
140, 11496.75, 21063.23, 187500.00, 187500.00, 187500.00, -187500.02, -187500.02, -187500.02, 0.000, 0.000, 0.000, 22:45:30.667
141, 7826.82, 15858.54, 187500.00, 187500.00, 187500.00, -187500.02, -187500.02, -187500.02, 0.000, 0.000, 0.000, 22:45:30.667
142, 6669.54, 12789.18, 187500.00, 187500.00, 187500.00, -187500.02, -187500.02, -187500.02, 0.000, 0.000, 0.000, 22:45:30.668
143, 9703.99, 16959.56, 187500.00, 187500.00, 187500.00, -187500.02, -187500.02, -187500.02, 0.000, 0.000, 0.000, 22:45:30.668
144, 11731.60, 21185.07, 187500.00, 187500.00, 187500.00, -187500.02, -187500.02, -187500.02, 0.000, 0.000, 0.000, 22:45:30.668
145, 8525.58, 17052.90, 187500.00, 187500.00, 187500.00, -187500.02, -187500.02, -187500.02, 0.108, 0.998, -0.106, 22:45:30.668
146, 6455.12, 12744.43, 187500.00, 187500.00, 187500.00, -187500.02, -187500.02, -187500.02, 0.000, 0.000, 0.000, 22:45:30.668
147, 9058.40, 15954.70, 187500.00, 187500.00, 187500.00, -187500.02, -187500.02, -187500.02, 0.000, 0.000, 0.000, 22:45:30.668
148, 11748.43, 20952.50, 187500.00, 187500.00, 187500.00, -187500.02, -187500.02, -187500.02, 0.000, 0.000, 0.000, 22:45:30.668
149, 9303.26, 18304.02, 187500.00, 187500.00, 187500.00, -187500.02, -187500.02, -187500.02, 0.000, 0.000, 0.000, 22:45:30.668
150, 6419.17, 13013.61, 187500.00, 187500.00, 187500.00, -187500.02, -187500.02, -187500.02, 0.000, 0.000, 0.000, 22:45:30.669
151, 8451.48, 15090.29, 187500.00, 187500.00, 187500.00, -187500.02, -187500.02, -187500.02, 0.000, 0.000, 0.000, 22:45:30.669
152, 11593.87, 20505.15, 187500.00, 187500.00, 187500.00, -187500.02, -187500.02, -187500.02, 0.000, 0.000, 0.000, 22:45:30.669
153, 10047.42, 19350.44, 187500.00, 187500.00, 187500.00, -187500.02, -187500.02, -187500.02, 0.000, 0.000, 0.000, 22:45:30.669
154, 6540.75, 13390.17, 187500.00, 187500.00, 187500.00, -187500.02, -187500.02, -187500.02, 0.000, 0.000, 0.000, 22:45:30.669
155, 7836.25, 14143.33, 187500.00, 187500.00, 187500.00, -187500.02, -187500.02, -187500.02, 0.102, 1.014, -0.102, 22:45:30.669
156, 11261.03, 19624.70, 187500.00, 187500.00, 187500.00, -187500.02, -187500.02, -187500.02, 0.000, 0.000, 0.000, 22:45:30.669
157, 10729.60, 20143.46, 187500.00, 187500.00, 187500.00, -187500.02, -187500.02, -187500.02, 0.000, 0.000, 0.000, 22:45:30.669
158, 6895.49, 14054.84, 187500.00, 187500.00, 187500.00, -187500.02, -187500.02, -187500.02, 0.000, 0.000, 0.000, 22:45:30.670
159, 7377.86, 13489.08, 187500.00, 187500.00, 187500.00, -187500.02, -187500.02, -187500.02, 0.000, 0.000, 0.000, 22:45:30.670
160, 10802.02, 18773.07, 187500.00, 187500.00, 187500.00, -187500.02, -187500.02, -187500.02, 0.000, 0.000, 0.000, 22:45:30.670
161, 11284.10, 20818.73, 187500.00, 187500.00, 187500.00, -187500.02, -187500.02, -187500.02, 0.000, 0.000, 0.000, 22:45:30.670
162, 7385.87, 15055.75, 187500.00, 187500.00, 187500.00, -187500.02, -187500.02, -187500.02, 0.000, 0.000, 0.000, 22:45:30.670
163, 6942.05, 13052.90, 187500.00, 187500.00, 187500.00, -187500.02, -187500.02, -187500.02, 0.000, 0.000, 0.000, 22:45:30.670
164, 10220.13, 17730.72, 187500.00, 187500.00, 187500.00, -187500.02, -187500.02, -187500.02, 0.000, 0.000, 0.000, 22:45:30.670
165, 11628.14, 21080.31, 187500.00, 187500.00, 187500.00, -187500.02, -187500.02, -187500.02, 0.098, 1.008, -0.088, 22:45:30.671
166, 7982.23, 16119.65, 187500.00, 187500.00, 187500.00, -187500.02, -187500.02, -187500.02, 0.000, 0.000, 0.000, 22:45:30.671
167, 6598.21, 12782.60, 187500.00, 187500.00, 187500.00, -187500.02, -187500.02, -187500.02, 0.000, 0.000, 0.000, 22:45:30.671
168, 9570.66, 16720.31, 187500.00, 187500.00, 187500.00, -187500.02, -187500.02, -187500.02, 0.000, 0.000, 0.000, 22:45:30.671
169, 11799.93, 21102.68, 187500.00, 187500.00, 187500.00, -187500.02, -187500.02, -187500.02, 0.000, 0.000, 0.000, 22:45:30.671
170, 8728.65, 17320.05, 187500.00, 187500.00, 187500.00, -187500.02, -187500.02, -187500.02, 0.000, 0.000, 0.000, 22:45:30.671
171, 6440.50, 12803.73, 187500.00, 187500.00, 187500.00, -187500.02, -187500.02, -187500.02, 0.000, 0.000, 0.000, 22:45:30.671
172, 8928.16, 15719.91, 187500.00, 187500.00, 187500.00, -187500.02, -187500.02, -187500.02, 0.000, 0.000, 0.000, 22:45:30.671
173, 11734.29, 20747.49, 187500.00, 187500.00, 187500.00, -187500.02, -187500.02, -187500.02, 0.000, 0.000, 0.000, 22:45:30.672
174, 9477.77, 18425.62, 187500.00, 187500.00, 187500.00, -187500.02, -187500.02, -187500.02, 0.000, 0.000, 0.000, 22:45:30.672
175, 6420.74, 13013.41, 187500.00, 187500.00, 187500.00, -187500.02, -187500.02, -187500.02, 0.094, 1.000, -0.098, 22:45:30.672
176, 8273.34, 14780.78, 187500.00, 187500.00, 187500.00, -187500.02, -187500.02, -187500.02, 0.000, 0.000, 0.000, 22:45:30.672
177, 11480.50, 20166.95, 187500.00, 187500.00, 187500.00, -187500.02, -187500.02, -187500.02, 0.000, 0.000, 0.000, 22:45:30.673
178, 10183.07, 19461.30, 187500.00, 187500.00, 187500.00, -187500.02, -187500.02, -187500.02, 0.000, 0.000, 0.000, 22:45:30.673
179, 6573.89, 13502.46, 187500.00, 187500.00, 187500.00, -187500.02, -187500.02, -187500.02, 0.000, 0.000, 0.000, 22:45:30.673
180, 7684.82, 13947.51, 187500.00, 187500.00, 187500.00, -187500.02, -187500.02, -187500.02, 0.000, 0.000, 0.000, 22:45:30.674
181, 11102.96, 19369.26, 187500.00, 187500.00, 187500.00, -187500.02, -187500.02, -187500.02, 0.000, 0.000, 0.000, 22:45:30.674
182, 10788.11, 20241.92, 187500.00, 187500.00, 187500.00, -187500.02, -187500.02, -187500.02, 0.000, 0.000, 0.000, 22:45:30.675
183, 6891.31, 14189.11, 187500.00, 187500.00, 187500.00, -187500.02, -187500.02, -187500.02, 0.000, 0.000, 0.000, 22:45:30.675
184, 7139.01, 13233.13, 187500.00, 187500.00, 187500.00, -187500.02, -187500.02, -187500.02, 0.000, 0.000, 0.000, 22:45:30.675
185, 10557.89, 18415.06, 187500.00, 187500.00, 187500.00, -187500.02, -187500.02, -187500.02, 0.106, 1.000, -0.104, 22:45:30.675
186, 11311.39, 20857.02, 187500.00, 187500.00, 187500.00, -187500.02, -187500.02, -187500.02, 0.000, 0.000, 0.000, 22:45:30.676
187, 7426.19, 15222.86, 187500.00, 187500.00, 187500.00, -187500.02, -187500.02, -187500.02, 0.000, 0.000, 0.000, 22:45:30.676
188, 6696.69, 12851.13, 187500.00, 187500.00, 187500.00, -187500.02, -187500.02, -187500.02, 0.000, 0.000, 0.000, 22:45:30.676
189, 9985.22, 17426.40, 187500.00, 187500.00, 187500.00, -187500.02, -187500.02, -187500.02, 0.000, 0.000, 0.000, 22:45:30.677
190, 11647.43, 21133.44, 187500.00, 187500.00, 187500.00, -187500.02, -187500.02, -187500.02, 0.000, 0.000, 0.000, 22:45:30.677
191, 8098.69, 16388.70, 187500.00, 187500.00, 187500.00, -187500.02, -187500.02, -187500.02, 0.000, 0.000, 0.000, 22:45:30.678
192, 6473.44, 12692.50, 187500.00, 187500.00, 187500.00, -187500.02, -187500.02, -187500.02, 0.000, 0.000, 0.000, 22:45:30.678
193, 9380.71, 16460.88, 187500.00, 187500.00, 187500.00, -187500.02, -187500.02, -187500.02, 0.000, 0.000, 0.000, 22:45:30.678
194, 11811.76, 21166.16, 187500.00, 187500.00, 187500.00, -187500.02, -187500.02, -187500.02, 0.110, 1.004, -0.118, 22:45:30.678
195, 8893.49, 17672.92, 187500.00, 187500.00, 187500.00, -187500.02, -187500.02, -187500.02, 0.000, 0.000, 0.000, 22:45:30.678
196, 6377.96, 12788.73, 187500.00, 187500.00, 187500.00, -187500.02, -187500.02, -187500.02, 0.000, 0.000, 0.000, 22:45:30.678
197, 8764.88, 15489.07, 187500.00, 187500.00, 187500.00, -187500.02, -187500.02, -187500.02, 0.000, 0.000, 0.000, 22:45:30.679
198, 11770.50, 20790.29, 187500.00, 187500.00, 187500.00, -187500.02, -187500.02, -187500.02, 0.000, 0.000, 0.000, 22:45:30.679
199, 9725.45, 18826.49, 187500.00, 187500.00, 187500.00, -187500.02, -187500.02, -187500.02, 0.000, 0.000, 0.000, 22:45:30.679
200, 6468.73, 13136.52, 187500.00, 187500.00, 187500.00, -187500.02, -187500.02, -187500.02, 0.000, 0.000, 0.000, 22:45:30.679
201, 8158.07, 14615.83, 187500.00, 187500.00, 187500.00, -187500.02, -187500.02, -187500.02, 0.000, 0.000, 0.000, 22:45:30.679
202, 11498.61, 20196.19, 187500.00, 187500.00, 187500.00, -187500.02, -187500.02, -187500.02, 0.000, 0.000, 0.000, 22:45:30.679
203, 10480.71, 19900.43, 187500.00, 187500.00, 187500.00, -187500.02, -187500.02, -187500.02, 0.000, 0.000, 0.000, 22:45:30.679
204, 6730.02, 13763.58, 187500.00, 187500.00, 187500.00, -187500.02, -187500.02, -187500.02, 0.116, 1.002, -0.118, 22:45:30.680
205, 7604.35, 13868.56, 187500.00, 187500.00, 187500.00, -187500.02, -187500.02, -187500.02, 0.000, 0.000, 0.000, 22:45:30.680
206, 11086.82, 19363.81, 187500.00, 187500.00, 187500.00, -187500.02, -187500.02, -187500.02, 0.000, 0.000, 0.000, 22:45:30.680
207, 11096.30, 20694.45, 187500.00, 187500.00, 187500.00, -187500.02, -187500.02, -187500.02, 0.000, 0.000, 0.000, 22:45:30.680
208, 7114.63, 14630.69, 187500.00, 187500.00, 187500.00, -187500.02, -187500.02, -187500.02, 0.000, 0.000, 0.000, 22:45:30.680
209, 7132.24, 13295.60, 187500.00, 187500.00, 187500.00, -187500.02, -187500.02, -187500.02, 0.000, 0.000, 0.000, 22:45:30.680
210, 10581.90, 18383.48, 187500.00, 187500.00, 187500.00, -187500.02, -187500.02, -187500.02, 0.000, 0.000, 0.000, 22:45:30.680
211, 11593.29, 21190.41, 187500.00, 187500.00, 187500.00, -187500.02, -187500.02, -187500.02, 0.000, 0.000, 0.000, 22:45:30.680
212, 7685.49, 15658.31, 187500.00, 187500.00, 187500.00, -187500.02, -187500.02, -187500.02, 0.000, 0.000, 0.000, 22:45:30.680
213, 6715.49, 12901.67, 187500.00, 187500.00, 187500.00, -187500.02, -187500.02, -187500.02, 0.000, 0.000, 0.000, 22:45:30.681
214, 9969.08, 17354.65, 187500.00, 187500.00, 187500.00, -187500.02, -187500.02, -187500.02, 0.116, 1.010, -0.112, 22:45:30.681
215, 11841.48, 21380.74, 187500.00, 187500.00, 187500.00, -187500.02, -187500.02, -187500.02, 0.000, 0.000, 0.000, 22:45:30.681
216, 8354.25, 16852.01, 187500.00, 187500.00, 187500.00, -187500.02, -187500.02, -187500.02, 0.000, 0.000, 0.000, 22:45:30.681
217, 6475.77, 12804.22, 187500.00, 187500.00, 187500.00, -187500.02, -187500.02, -187500.02, 0.000, 0.000, 0.000, 22:45:30.681
218, 9283.15, 16376.47, 187500.00, 187500.00, 187500.00, -187500.02, -187500.02, -187500.02, 0.000, 0.000, 0.000, 22:45:30.681
219, 11894.97, 21286.48, 187500.00, 187500.00, 187500.00, -187500.02, -187500.02, -187500.02, 0.000, 0.000, 0.000, 22:45:30.681
220, 9141.62, 18102.32, 187500.00, 187500.00, 187500.00, -187500.02, -187500.02, -187500.02, 0.000, 0.000, 0.000, 22:45:30.681
221, 6352.99, 12933.93, 187500.00, 187500.00, 187500.00, -187500.02, -187500.02, -187500.02, 0.000, 0.000, 0.000, 22:45:30.681
222, 8622.05, 15387.34, 187500.00, 187500.00, 187500.00, -187500.02, -187500.02, -187500.02, 0.000, 0.000, 0.000, 22:45:30.681
223, 11817.61, 20848.12, 187500.00, 187500.00, 187500.00, -187500.02, -187500.02, -187500.02, 0.000, 0.000, 0.000, 22:45:30.682
224, 10009.09, 19283.12, 187500.00, 187500.00, 187500.00, -187500.02, -187500.02, -187500.02, 0.118, 1.008, -0.118, 22:45:30.682
225, 6532.65, 13366.61, 187500.00, 187500.00, 187500.00, -187500.02, -187500.02, -187500.02, 0.000, 0.000, 0.000, 22:45:30.682
226, 8058.41, 14512.67, 187500.00, 187500.00, 187500.00, -187500.02, -187500.02, -187500.02, 0.000, 0.000, 0.000, 22:45:30.682
227, 11534.77, 20125.20, 187500.00, 187500.00, 187500.00, -187500.02, -187500.02, -187500.02, 0.000, 0.000, 0.000, 22:45:30.682
228, 10732.53, 20224.21, 187500.00, 187500.00, 187500.00, -187500.02, -187500.02, -187500.02, 0.000, 0.000, 0.000, 22:45:30.682
229, 6791.33, 14026.21, 187500.00, 187500.00, 187500.00, -187500.02, -187500.02, -187500.02, 0.000, 0.000, 0.000, 22:45:30.682
230, 7493.78, 13786.76, 187500.00, 187500.00, 187500.00, -187500.02, -187500.02, -187500.02, 0.000, 0.000, 0.000, 22:45:30.682
231, 11087.31, 19189.11, 187500.00, 187500.00, 187500.00, -187500.02, -187500.02, -187500.02, 0.000, 0.000, 0.000, 22:45:30.683
232, 11353.55, 20907.55, 187500.00, 187500.00, 187500.00, -187500.02, -187500.02, -187500.02, 0.000, 0.000, 0.000, 22:45:30.683
233, 7283.58, 14924.84, 187500.00, 187500.00, 187500.00, -187500.02, -187500.02, -187500.02, 0.000, 0.000, 0.000, 22:45:30.683
234, 7036.42, 13250.34, 187500.00, 187500.00, 187500.00, -187500.02, -187500.02, -187500.02, 0.122, 1.008, -0.122, 22:45:30.683
235, 10512.20, 18182.23, 187500.00, 187500.00, 187500.00, -187500.02, -187500.02, -187500.02, 0.000, 0.000, 0.000, 22:45:30.683
236, 11771.46, 21264.40, 187500.00, 187500.00, 187500.00, -187500.02, -187500.02, -187500.02, 0.000, 0.000, 0.000, 22:45:30.683
237, 7884.22, 15951.30, 187500.00, 187500.00, 187500.00, -187500.02, -187500.02, -187500.02, 0.000, 0.000, 0.000, 22:45:30.683
238, 6667.55, 12913.03, 187500.00, 187500.00, 187500.00, -187500.02, -187500.02, -187500.02, 0.000, 0.000, 0.000, 22:45:30.683
239, 9878.82, 17131.16, 187500.00, 187500.00, 187500.00, -187500.02, -187500.02, -187500.02, 0.000, 0.000, 0.000, 22:45:30.683
240, 12026.33, 21348.02, 187500.00, 187500.00, 187500.00, -187500.02, -187500.02, -187500.02, 0.000, 0.000, 0.000, 22:45:30.683
241, 8647.06, 17145.22, 187500.00, 187500.00, 187500.00, -187500.02, -187500.02, -187500.02, 0.000, 0.000, 0.000, 22:45:31.140
242, 6468.10, 12821.36, 187500.00, 187500.00, 187500.00, -187500.02, -187500.02, -187500.02, 0.000, 0.000, 0.000, 22:45:31.140
243, 9207.26, 16087.73, 187500.00, 187500.00, 187500.00, -187500.02, -187500.02, -187500.02, 0.000, 0.000, 0.000, 22:45:31.140
244, 12029.31, 21088.67, 187500.00, 187500.00, 187500.00, -187500.02, -187500.02, -187500.02, 0.130, 0.998, -0.130, 22:45:31.141
245, 9443.34, 18281.60, 187500.00, 187500.00, 187500.00, -187500.02, -187500.02, -187500.02, 0.000, 0.000, 0.000, 22:45:31.141
246, 6429.05, 12923.96, 187500.00, 187500.00, 187500.00, -187500.02, -187500.02, -187500.02, 0.000, 0.000, 0.000, 22:45:31.141
247, 8574.53, 15078.98, 187500.00, 187500.00, 187500.00, -187500.02, -187500.02, -187500.02, 0.000, 0.000, 0.000, 22:45:31.141
248, 11873.29, 20536.54, 187500.00, 187500.00, 187500.00, -187500.02, -187500.02, -187500.02, 0.000, 0.000, 0.000, 22:45:31.141
249, 10236.29, 19347.85, 187500.00, 187500.00, 187500.00, -187500.02, -187500.02, -187500.02, 0.000, 0.000, 0.000, 22:45:31.142
250, 6552.59, 13351.68, 187500.00, 187500.00, 187500.00, -187500.02, -187500.02, -187500.02, 0.000, 0.000, 0.000, 22:45:31.142
251, 7926.08, 14189.00, 187500.00, 187500.00, 187500.00, -187500.02, -187500.02, -187500.02, 0.000, 0.000, 0.000, 22:45:31.142
252, 11499.50, 19745.44, 187500.00, 187500.00, 187500.00, -187500.02, -187500.02, -187500.02, 0.000, 0.000, 0.000, 22:45:31.142
253, 10952.94, 20217.04, 187500.00, 187500.00, 187500.00, -187500.02, -187500.02, -187500.02, 0.000, 0.000, 0.000, 22:45:31.143
254, 6878.44, 13994.07, 187500.00, 187500.00, 187500.00, -187500.02, -187500.02, -187500.02, 0.132, 1.000, -0.124, 22:45:31.143
255, 7350.95, 13389.72, 187500.00, 187500.00, 187500.00, -187500.02, -187500.02, -187500.02, 0.000, 0.000, 0.000, 22:45:31.143
0, 10991.16, 18772.58, 187500.00, 187500.00, 187500.00, -187500.02, -187500.02, -187500.02, 0.000, 0.000, 0.000, 22:45:31.143
1, 11530.71, 20849.46, 187500.00, 187500.00, 187500.00, -187500.02, -187500.02, -187500.02, 0.000, 0.000, 0.000, 22:45:31.144
2, 7403.97, 14928.55, 187500.00, 187500.00, 187500.00, -187500.02, -187500.02, -187500.02, 0.000, 0.000, 0.000, 22:45:31.144
3, 6907.78, 12878.38, 187500.00, 187500.00, 187500.00, -187500.02, -187500.02, -187500.02, 0.000, 0.000, 0.000, 22:45:31.145
4, 10373.96, 17702.22, 187500.00, 187500.00, 187500.00, -187500.02, -187500.02, -187500.02, 0.000, 0.000, 0.000, 22:45:31.145
5, 11869.13, 21119.07, 187500.00, 187500.00, 187500.00, -187500.02, -187500.02, -187500.02, 0.000, 0.000, 0.000, 22:45:31.145
6, 8018.11, 15982.52, 187500.00, 187500.00, 187500.00, -187500.02, -187500.02, -187500.02, 0.000, 0.000, 0.000, 22:45:31.145
7, 6536.23, 12564.76, 187500.00, 187500.00, 187500.00, -187500.02, -187500.02, -187500.02, 0.136, 1.004, -0.126, 22:45:31.145
8, 9672.92, 16632.27, 187500.00, 187500.00, 187500.00, -187500.02, -187500.02, -187500.02, 0.000, 0.000, 0.000, 22:45:31.145
9, 12017.62, 21142.58, 187500.00, 187500.00, 187500.00, -187500.02, -187500.02, -187500.02, 0.000, 0.000, 0.000, 22:45:31.146
10, 8751.13, 17183.80, 187500.00, 187500.00, 187500.00, -187500.02, -187500.02, -187500.02, 0.000, 0.000, 0.000, 22:45:31.146
11, 6328.00, 12502.98, 187500.00, 187500.00, 187500.00, -187500.02, -187500.02, -187500.02, 0.000, 0.000, 0.000, 22:45:31.146
12, 8969.40, 15558.56, 187500.00, 187500.00, 187500.00, -187500.02, -187500.02, -187500.02, 0.000, 0.000, 0.000, 22:45:31.146
13, 11957.18, 20808.13, 187500.00, 187500.00, 187500.00, -187500.02, -187500.02, -187500.02, 0.000, 0.000, 0.000, 22:45:31.146
14, 9557.27, 18365.00, 187500.00, 187500.00, 187500.00, -187500.02, -187500.02, -187500.02, 0.000, 0.000, 0.000, 22:45:31.147
15, 6322.62, 12717.99, 187500.00, 187500.00, 187500.00, -187500.02, -187500.02, -187500.02, 0.000, 0.000, 0.000, 22:45:31.147
16, 8325.06, 14589.34, 187500.00, 187500.00, 187500.00, -187500.02, -187500.02, -187500.02, 0.000, 0.000, 0.000, 22:45:31.147
17, 11747.72, 20248.42, 187500.00, 187500.00, 187500.00, -187500.02, -187500.02, -187500.02, 0.140, 1.000, -0.126, 22:45:31.147
18, 10349.66, 19473.20, 187500.00, 187500.00, 187500.00, -187500.02, -187500.02, -187500.02, 0.000, 0.000, 0.000, 22:45:31.147
19, 6497.54, 13247.03, 187500.00, 187500.00, 187500.00, -187500.02, -187500.02, -187500.02, 0.000, 0.000, 0.000, 22:45:31.148
20, 7687.46, 13753.47, 187500.00, 187500.00, 187500.00, -187500.02, -187500.02, -187500.02, 0.000, 0.000, 0.000, 22:45:31.148
21, 11359.38, 19435.31, 187500.00, 187500.00, 187500.00, -187500.02, -187500.02, -187500.02, 0.000, 0.000, 0.000, 22:45:31.148
22, 11078.17, 20358.59, 187500.00, 187500.00, 187500.00, -187500.02, -187500.02, -187500.02, 0.000, 0.000, 0.000, 22:45:31.148
23, 6913.57, 14043.67, 187500.00, 187500.00, 187500.00, -187500.02, -187500.02, -187500.02, 0.000, 0.000, 0.000, 22:45:31.148
24, 7178.28, 13073.00, 187500.00, 187500.00, 187500.00, -187500.02, -187500.02, -187500.02, 0.000, 0.000, 0.000, 22:45:31.149
25, 10845.92, 18462.63, 187500.00, 187500.00, 187500.00, -187500.02, -187500.02, -187500.02, 0.000, 0.000, 0.000, 22:45:31.149
26, 11598.95, 20978.18, 187500.00, 187500.00, 187500.00, -187500.02, -187500.02, -187500.02, 0.000, 0.000, 0.000, 22:45:31.149
27, 7434.82, 15075.31, 187500.00, 187500.00, 187500.00, -187500.02, -187500.02, -187500.02, 0.138, 1.008, -0.124, 22:45:31.149
28, 6727.72, 12625.58, 187500.00, 187500.00, 187500.00, -187500.02, -187500.02, -187500.02, 0.000, 0.000, 0.000, 22:45:31.149
29, 10209.43, 17417.39, 187500.00, 187500.00, 187500.00, -187500.02, -187500.02, -187500.02, 0.000, 0.000, 0.000, 22:45:31.149
30, 11951.14, 21279.87, 187500.00, 187500.00, 187500.00, -187500.02, -187500.02, -187500.02, 0.000, 0.000, 0.000, 22:45:31.149
31, 8139.23, 16289.93, 187500.00, 187500.00, 187500.00, -187500.02, -187500.02, -187500.02, 0.000, 0.000, 0.000, 22:45:31.150
32, 6396.15, 12421.67, 187500.00, 187500.00, 187500.00, -187500.02, -187500.02, -187500.02, 0.000, 0.000, 0.000, 22:45:31.150
33, 9508.12, 16369.28, 187500.00, 187500.00, 187500.00, -187500.02, -187500.02, -187500.02, 0.000, 0.000, 0.000, 22:45:31.150
34, 12062.03, 21252.57, 187500.00, 187500.00, 187500.00, -187500.02, -187500.02, -187500.02, 0.000, 0.000, 0.000, 22:45:31.150
35, 8954.62, 17569.90, 187500.00, 187500.00, 187500.00, -187500.02, -187500.02, -187500.02, 0.000, 0.000, 0.000, 22:45:31.150
36, 6282.85, 12479.78, 187500.00, 187500.00, 187500.00, -187500.02, -187500.02, -187500.02, 0.000, 0.000, 0.000, 22:45:31.150
37, 8813.85, 15337.86, 187500.00, 187500.00, 187500.00, -187500.02, -187500.02, -187500.02, 0.138, 1.004, -0.128, 22:45:31.150
38, 11997.23, 20897.45, 187500.00, 187500.00, 187500.00, -187500.02, -187500.02, -187500.02, 0.000, 0.000, 0.000, 22:45:31.150
39, 9810.38, 18808.17, 187500.00, 187500.00, 187500.00, -187500.02, -187500.02, -187500.02, 0.000, 0.000, 0.000, 22:45:31.150
40, 6322.77, 12789.53, 187500.00, 187500.00, 187500.00, -187500.02, -187500.02, -187500.02, 0.000, 0.000, 0.000, 22:45:31.150
41, 8151.10, 14350.76, 187500.00, 187500.00, 187500.00, -187500.02, -187500.02, -187500.02, 0.000, 0.000, 0.000, 22:45:31.151
42, 11719.96, 20214.58, 187500.00, 187500.00, 187500.00, -187500.02, -187500.02, -187500.02, 0.000, 0.000, 0.000, 22:45:31.151
43, 10584.96, 19869.63, 187500.00, 187500.00, 187500.00, -187500.02, -187500.02, -187500.02, 0.000, 0.000, 0.000, 22:45:31.151
44, 6590.61, 13412.19, 187500.00, 187500.00, 187500.00, -187500.02, -187500.02, -187500.02, 0.000, 0.000, 0.000, 22:45:31.151
45, 7554.44, 13539.41, 187500.00, 187500.00, 187500.00, -187500.02, -187500.02, -187500.02, 0.000, 0.000, 0.000, 22:45:31.151
46, 11263.85, 19322.79, 187500.00, 187500.00, 187500.00, -187500.02, -187500.02, -187500.02, 0.000, 0.000, 0.000, 22:45:31.151
47, 11238.50, 20689.80, 187500.00, 187500.00, 187500.00, -187500.02, -187500.02, -187500.02, 0.148, 0.998, -0.140, 22:45:31.151
48, 7020.15, 14237.46, 187500.00, 187500.00, 187500.00, -187500.02, -187500.02, -187500.02, 0.000, 0.000, 0.000, 22:45:31.151
49, 7032.51, 12848.45, 187500.00, 187500.00, 187500.00, -187500.02, -187500.02, -187500.02, 0.000, 0.000, 0.000, 22:45:31.151
50, 10686.21, 18267.01, 187500.00, 187500.00, 187500.00, -187500.02, -187500.02, -187500.02, 0.000, 0.000, 0.000, 22:45:31.151
51, 11740.07, 21227.61, 187500.00, 187500.00, 187500.00, -187500.02, -187500.02, -187500.02, 0.000, 0.000, 0.000, 22:45:31.152
52, 7648.97, 15383.39, 187500.00, 187500.00, 187500.00, -187500.02, -187500.02, -187500.02, 0.000, 0.000, 0.000, 22:45:31.152
53, 6660.82, 12505.00, 187500.00, 187500.00, 187500.00, -187500.02, -187500.02, -187500.02, 0.000, 0.000, 0.000, 22:45:31.152
54, 10021.65, 17184.42, 187500.00, 187500.00, 187500.00, -187500.02, -187500.02, -187500.02, 0.000, 0.000, 0.000, 22:45:31.152
55, 11979.69, 21389.79, 187500.00, 187500.00, 187500.00, -187500.02, -187500.02, -187500.02, 0.000, 0.000, 0.000, 22:45:31.152
56, 8383.33, 16587.47, 187500.00, 187500.00, 187500.00, -187500.02, -187500.02, -187500.02, 0.000, 0.000, 0.000, 22:45:31.152
57, 6416.20, 12301.84, 187500.00, 187500.00, 187500.00, -187500.02, -187500.02, -187500.02, 0.144, 1.002, -0.140, 22:45:31.152
58, 9363.19, 16072.16, 187500.00, 187500.00, 187500.00, -187500.02, -187500.02, -187500.02, 0.000, 0.000, 0.000, 22:45:31.152
59, 12078.68, 21229.53, 187500.00, 187500.00, 187500.00, -187500.02, -187500.02, -187500.02, 0.000, 0.000, 0.000, 22:45:31.152
60, 9178.54, 17853.52, 187500.00, 187500.00, 187500.00, -187500.02, -187500.02, -187500.02, 0.000, 0.000, 0.000, 22:45:31.153
61, 6304.13, 12415.81, 187500.00, 187500.00, 187500.00, -187500.02, -187500.02, -187500.02, 0.000, 0.000, 0.000, 22:45:31.153
62, 8650.08, 15015.95, 187500.00, 187500.00, 187500.00, -187500.02, -187500.02, -187500.02, 0.000, 0.000, 0.000, 22:45:31.153
63, 11903.62, 20754.00, 187500.00, 187500.00, 187500.00, -187500.02, -187500.02, -187500.02, 0.000, 0.000, 0.000, 22:45:31.153
64, 9986.96, 19079.58, 187500.00, 187500.00, 187500.00, -187500.02, -187500.02, -187500.02, 0.000, 0.000, 0.000, 22:45:31.153
65, 6405.25, 12860.99, 187500.00, 187500.00, 187500.00, -187500.02, -187500.02, -187500.02, 0.000, 0.000, 0.000, 22:45:31.153
66, 8005.03, 14094.70, 187500.00, 187500.00, 187500.00, -187500.02, -187500.02, -187500.02, 0.148, 1.002, -0.132, 22:45:31.153
67, 11590.68, 20023.79, 187500.00, 187500.00, 187500.00, -187500.02, -187500.02, -187500.02, 0.000, 0.000, 0.000, 22:45:31.153
68, 10731.85, 20113.51, 187500.00, 187500.00, 187500.00, -187500.02, -187500.02, -187500.02, 0.000, 0.000, 0.000, 22:45:31.153
69, 6687.44, 13558.84, 187500.00, 187500.00, 187500.00, -187500.02, -187500.02, -187500.02, 0.000, 0.000, 0.000, 22:45:31.154
70, 7429.70, 13328.05, 187500.00, 187500.00, 187500.00, -187500.02, -187500.02, -187500.02, 0.000, 0.000, 0.000, 22:45:31.154
71, 11101.11, 19055.51, 187500.00, 187500.00, 187500.00, -187500.02, -187500.02, -187500.02, 0.000, 0.000, 0.000, 22:45:31.154
72, 11326.19, 20827.15, 187500.00, 187500.00, 187500.00, -187500.02, -187500.02, -187500.02, 0.000, 0.000, 0.000, 22:45:31.154
73, 7137.60, 14510.60, 187500.00, 187500.00, 187500.00, -187500.02, -187500.02, -187500.02, 0.000, 0.000, 0.000, 22:45:31.154
74, 6926.11, 12775.07, 187500.00, 187500.00, 187500.00, -187500.02, -187500.02, -187500.02, 0.000, 0.000, 0.000, 22:45:31.154
75, 10514.68, 18032.22, 187500.00, 187500.00, 187500.00, -187500.02, -187500.02, -187500.02, 0.000, 0.000, 0.000, 22:45:31.154
76, 11800.45, 21310.33, 187500.00, 187500.00, 187500.00, -187500.02, -187500.02, -187500.02, 0.142, 1.004, -0.134, 22:45:31.154
77, 7837.91, 15670.90, 187500.00, 187500.00, 187500.00, -187500.02, -187500.02, -187500.02, 0.000, 0.000, 0.000, 22:45:31.154
78, 6625.91, 12433.96, 187500.00, 187500.00, 187500.00, -187500.02, -187500.02, -187500.02, 0.000, 0.000, 0.000, 22:45:31.154
79, 9918.21, 16932.25, 187500.00, 187500.00, 187500.00, -187500.02, -187500.02, -187500.02, 0.000, 0.000, 0.000, 22:45:31.155
80, 12064.04, 21435.57, 187500.00, 187500.00, 187500.00, -187500.02, -187500.02, -187500.02, 0.000, 0.000, 0.000, 22:45:31.155
81, 8588.84, 16953.80, 187500.00, 187500.00, 187500.00, -187500.02, -187500.02, -187500.02, 0.000, 0.000, 0.000, 22:45:31.155
82, 6414.19, 12348.13, 187500.00, 187500.00, 187500.00, -187500.02, -187500.02, -187500.02, 0.000, 0.000, 0.000, 22:45:31.155
83, 9234.18, 15809.63, 187500.00, 187500.00, 187500.00, -187500.02, -187500.02, -187500.02, 0.000, 0.000, 0.000, 22:45:31.155
84, 12087.22, 21124.95, 187500.00, 187500.00, 187500.00, -187500.02, -187500.02, -187500.02, 0.000, 0.000, 0.000, 22:45:31.155
85, 9441.13, 18193.38, 187500.00, 187500.00, 187500.00, -187500.02, -187500.02, -187500.02, 0.000, 0.000, 0.000, 22:45:31.155
86, 6412.00, 12549.07, 187500.00, 187500.00, 187500.00, -187500.02, -187500.02, -187500.02, 0.146, 1.006, -0.130, 22:45:31.155
87, 8593.62, 14824.32, 187500.00, 187500.00, 187500.00, -187500.02, -187500.02, -187500.02, 0.000, 0.000, 0.000, 22:45:31.156
88, 11911.13, 20621.12, 187500.00, 187500.00, 187500.00, -187500.02, -187500.02, -187500.02, 0.000, 0.000, 0.000, 22:45:31.156
89, 10210.86, 19367.00, 187500.00, 187500.00, 187500.00, -187500.02, -187500.02, -187500.02, 0.000, 0.000, 0.000, 22:45:31.156
90, 6526.26, 13048.12, 187500.00, 187500.00, 187500.00, -187500.02, -187500.02, -187500.02, 0.000, 0.000, 0.000, 22:45:31.156
91, 7943.74, 13965.01, 187500.00, 187500.00, 187500.00, -187500.02, -187500.02, -187500.02, 0.000, 0.000, 0.000, 22:45:31.156
92, 11520.96, 19852.95, 187500.00, 187500.00, 187500.00, -187500.02, -187500.02, -187500.02, 0.000, 0.000, 0.000, 22:45:31.156
93, 10925.55, 20366.66, 187500.00, 187500.00, 187500.00, -187500.02, -187500.02, -187500.02, 0.000, 0.000, 0.000, 22:45:31.156
94, 6846.41, 13850.19, 187500.00, 187500.00, 187500.00, -187500.02, -187500.02, -187500.02, 0.000, 0.000, 0.000, 22:45:31.157
95, 7368.54, 13245.64, 187500.00, 187500.00, 187500.00, -187500.02, -187500.02, -187500.02, 0.000, 0.000, 0.000, 22:45:31.157
96, 11009.49, 18869.43, 187500.00, 187500.00, 187500.00, -187500.02, -187500.02, -187500.02, 0.148, 1.002, -0.130, 22:45:31.157
97, 11486.70, 21025.68, 187500.00, 187500.00, 187500.00, -187500.02, -187500.02, -187500.02, 0.000, 0.000, 0.000, 22:45:31.157
98, 7353.75, 14857.83, 187500.00, 187500.00, 187500.00, -187500.02, -187500.02, -187500.02, 0.000, 0.000, 0.000, 22:45:31.157
99, 6922.67, 12772.99, 187500.00, 187500.00, 187500.00, -187500.02, -187500.02, -187500.02, 0.000, 0.000, 0.000, 22:45:31.158
100, 10399.62, 17849.83, 187500.00, 187500.00, 187500.00, -187500.02, -187500.02, -187500.02, 0.000, 0.000, 0.000, 22:45:31.158
101, 11871.68, 21449.63, 187500.00, 187500.00, 187500.00, -187500.02, -187500.02, -187500.02, 0.000, 0.000, 0.000, 22:45:31.158
102, 8008.41, 16068.94, 187500.00, 187500.00, 187500.00, -187500.02, -187500.02, -187500.02, 0.000, 0.000, 0.000, 22:45:31.158
103, 6545.33, 12480.10, 187500.00, 187500.00, 187500.00, -187500.02, -187500.02, -187500.02, 0.000, 0.000, 0.000, 22:45:31.158
104, 9701.64, 16715.48, 187500.00, 187500.00, 187500.00, -187500.02, -187500.02, -187500.02, 0.000, 0.000, 0.000, 22:45:31.159
105, 12033.53, 21411.14, 187500.00, 187500.00, 187500.00, -187500.02, -187500.02, -187500.02, 0.000, 0.000, 0.000, 22:45:31.619
106, 8776.14, 17291.35, 187500.00, 187500.00, 187500.00, -187500.02, -187500.02, -187500.02, 0.148, 1.000, -0.130, 22:45:31.619
107, 6361.15, 12431.15, 187500.00, 187500.00, 187500.00, -187500.02, -187500.02, -187500.02, 0.000, 0.000, 0.000, 22:45:31.619
108, 9014.28, 15611.67, 187500.00, 187500.00, 187500.00, -187500.02, -187500.02, -187500.02, 0.000, 0.000, 0.000, 22:45:31.619
109, 11987.08, 21052.59, 187500.00, 187500.00, 187500.00, -187500.02, -187500.02, -187500.02, 0.000, 0.000, 0.000, 22:45:31.619
110, 9560.76, 18499.44, 187500.00, 187500.00, 187500.00, -187500.02, -187500.02, -187500.02, 0.000, 0.000, 0.000, 22:45:31.619
111, 6355.63, 12677.22, 187500.00, 187500.00, 187500.00, -187500.02, -187500.02, -187500.02, 0.000, 0.000, 0.000, 22:45:31.619
112, 8339.57, 14614.55, 187500.00, 187500.00, 187500.00, -187500.02, -187500.02, -187500.02, 0.000, 0.000, 0.000, 22:45:31.619
113, 11721.90, 20422.65, 187500.00, 187500.00, 187500.00, -187500.02, -187500.02, -187500.02, 0.000, 0.000, 0.000, 22:45:31.619
114, 10289.18, 19591.97, 187500.00, 187500.00, 187500.00, -187500.02, -187500.02, -187500.02, 0.000, 0.000, 0.000, 22:45:31.620
115, 6480.96, 13222.96, 187500.00, 187500.00, 187500.00, -187500.02, -187500.02, -187500.02, 0.000, 0.000, 0.000, 22:45:31.620
116, 7681.36, 13776.01, 187500.00, 187500.00, 187500.00, -187500.02, -187500.02, -187500.02, 0.152, 1.004, -0.130, 22:45:31.620
117, 11273.82, 19584.22, 187500.00, 187500.00, 187500.00, -187500.02, -187500.02, -187500.02, 0.000, 0.000, 0.000, 22:45:31.620
118, 10948.40, 20512.33, 187500.00, 187500.00, 187500.00, -187500.02, -187500.02, -187500.02, 0.000, 0.000, 0.000, 22:45:31.620
119, 6816.01, 14072.19, 187500.00, 187500.00, 187500.00, -187500.02, -187500.02, -187500.02, 0.000, 0.000, 0.000, 22:45:31.620
120, 7083.02, 13102.53, 187500.00, 187500.00, 187500.00, -187500.02, -187500.02, -187500.02, 0.000, 0.000, 0.000, 22:45:31.620
121, 10684.47, 18570.21, 187500.00, 187500.00, 187500.00, -187500.02, -187500.02, -187500.02, 0.000, 0.000, 0.000, 22:45:31.620
122, 11408.26, 21080.76, 187500.00, 187500.00, 187500.00, -187500.02, -187500.02, -187500.02, 0.000, 0.000, 0.000, 22:45:31.620
123, 7300.33, 15097.60, 187500.00, 187500.00, 187500.00, -187500.02, -187500.02, -187500.02, 0.000, 0.000, 0.000, 22:45:31.621
124, 6581.38, 12630.23, 187500.00, 187500.00, 187500.00, -187500.02, -187500.02, -187500.02, 0.000, 0.000, 0.000, 22:45:31.621
125, 9961.70, 17459.97, 187500.00, 187500.00, 187500.00, -187500.02, -187500.02, -187500.02, 0.150, 0.996, -0.134, 22:45:31.621
126, 11656.64, 21345.22, 187500.00, 187500.00, 187500.00, -187500.02, -187500.02, -187500.02, 0.000, 0.000, 0.000, 22:45:31.621
127, 7918.06, 16308.35, 187500.00, 187500.00, 187500.00, -187500.02, -187500.02, -187500.02, 0.000, 0.000, 0.000, 22:45:31.621
128, 6214.39, 12417.98, 187500.00, 187500.00, 187500.00, -187500.02, -187500.02, -187500.02, 0.000, 0.000, 0.000, 22:45:31.621
129, 9254.81, 16400.75, 187500.00, 187500.00, 187500.00, -187500.02, -187500.02, -187500.02, 0.000, 0.000, 0.000, 22:45:31.622
130, 11760.28, 21295.15, 187500.00, 187500.00, 187500.00, -187500.02, -187500.02, -187500.02, 0.000, 0.000, 0.000, 22:45:31.622
131, 8701.62, 17566.48, 187500.00, 187500.00, 187500.00, -187500.02, -187500.02, -187500.02, 0.000, 0.000, 0.000, 22:45:31.622
132, 6158.64, 12478.04, 187500.00, 187500.00, 187500.00, -187500.02, -187500.02, -187500.02, 0.000, 0.000, 0.000, 22:45:31.622
133, 8737.03, 15361.08, 187500.00, 187500.00, 187500.00, -187500.02, -187500.02, -187500.02, 0.000, 0.000, 0.000, 22:45:31.622
134, 11948.26, 20881.94, 187500.00, 187500.00, 187500.00, -187500.02, -187500.02, -187500.02, 0.000, 0.000, 0.000, 22:45:31.622
135, 9845.41, 18742.92, 187500.00, 187500.00, 187500.00, -187500.02, -187500.02, -187500.02, 0.156, 0.996, -0.130, 22:45:31.622
136, 6500.74, 12762.51, 187500.00, 187500.00, 187500.00, -187500.02, -187500.02, -187500.02, 0.000, 0.000, 0.000, 22:45:31.622
137, 8349.23, 14360.97, 187500.00, 187500.00, 187500.00, -187500.02, -187500.02, -187500.02, 0.000, 0.000, 0.000, 22:45:31.628
138, 11833.42, 20183.69, 187500.00, 187500.00, 187500.00, -187500.02, -187500.02, -187500.02, 0.000, 0.000, 0.000, 22:45:31.629
139, 10681.79, 19802.59, 187500.00, 187500.00, 187500.00, -187500.02, -187500.02, -187500.02, 0.000, 0.000, 0.000, 22:45:31.629
140, 6800.03, 13393.39, 187500.00, 187500.00, 187500.00, -187500.02, -187500.02, -187500.02, 0.000, 0.000, 0.000, 22:45:31.630
141, 7888.65, 13563.66, 187500.00, 187500.00, 187500.00, -187500.02, -187500.02, -187500.02, 0.000, 0.000, 0.000, 22:45:31.630
142, 11948.35, 19282.47, 187500.00, 187500.00, 187500.00, -187500.02, -187500.02, -187500.02, 0.000, 0.000, 0.000, 22:45:31.630
143, 12384.32, 20562.46, 187500.00, 187500.00, 187500.00, -187500.02, -187500.02, -187500.02, 0.000, 0.000, 0.000, 22:45:31.630
144, 8516.44, 14295.86, 187500.00, 187500.00, 187500.00, -187500.02, -187500.02, -187500.02, 0.000, 0.000, 0.000, 22:45:31.631
145, 8723.24, 13157.24, 187500.00, 187500.00, 187500.00, -187500.02, -187500.02, -187500.02, 0.040, 1.028, -0.112, 22:45:31.631
146, 12414.72, 18485.54, 187500.00, 187500.00, 187500.00, -187500.02, -187500.02, -187500.02, 0.000, 0.000, 0.000, 22:45:31.631
147, 13345.06, 21226.49, 187500.00, 187500.00, 187500.00, -187500.02, -187500.02, -187500.02, 0.000, 0.000, 0.000, 22:45:31.631
148, 8629.99, 15710.10, 187500.00, 187500.00, 187500.00, -187500.02, -187500.02, -187500.02, 0.000, 0.000, 0.000, 22:45:31.631
149, 7290.24, 13172.51, 187500.00, 187500.00, 187500.00, -187500.02, -187500.02, -187500.02, 0.000, 0.000, 0.000, 22:45:31.631
150, 11048.82, 17655.17, 187500.00, 187500.00, 187500.00, -187500.02, -187500.02, -187500.02, 0.000, 0.000, 0.000, 22:45:31.631
151, 13144.23, 21501.64, 187500.00, 187500.00, 187500.00, -187500.02, -187500.02, -187500.02, 0.000, 0.000, 0.000, 22:45:31.631
152, 8495.67, 16886.52, 187500.00, 187500.00, 187500.00, -187500.02, -187500.02, -187500.02, 0.000, 0.000, 0.000, 22:45:31.632
153, 5649.92, 12931.22, 187500.00, 187500.00, 187500.00, -187500.02, -187500.02, -187500.02, 0.000, 0.000, 0.000, 22:45:31.632
154, 9105.76, 16513.54, 187500.00, 187500.00, 187500.00, -187500.02, -187500.02, -187500.02, 0.000, 0.000, 0.000, 22:45:31.632
155, 12638.03, 21253.13, 187500.00, 187500.00, 187500.00, -187500.02, -187500.02, -187500.02, 0.106, 0.960, 0.050, 22:45:31.632
156, 8883.30, 17986.13, 187500.00, 187500.00, 187500.00, -187500.02, -187500.02, -187500.02, 0.000, 0.000, 0.000, 22:45:31.632
157, 4885.15, 13037.28, 187500.00, 187500.00, 187500.00, -187500.02, -187500.02, -187500.02, 0.000, 0.000, 0.000, 22:45:31.632
158, 7991.87, 15574.11, 187500.00, 187500.00, 187500.00, -187500.02, -187500.02, -187500.02, 0.000, 0.000, 0.000, 22:45:31.632
159, 12717.47, 20808.78, 187500.00, 187500.00, 187500.00, -187500.02, -187500.02, -187500.02, 0.000, 0.000, 0.000, 22:45:31.632
160, 10068.50, 19029.13, 187500.00, 187500.00, 187500.00, -187500.02, -187500.02, -187500.02, 0.000, 0.000, 0.000, 22:45:31.633
161, 4663.87, 13289.03, 187500.00, 187500.00, 187500.00, -187500.02, -187500.02, -187500.02, 0.000, 0.000, 0.000, 22:45:31.633
162, 7011.36, 14614.17, 187500.00, 187500.00, 187500.00, -187500.02, -187500.02, -187500.02, 0.000, 0.000, 0.000, 22:45:31.633
163, 12655.09, 20230.85, 187500.00, 187500.00, 187500.00, -187500.02, -187500.02, -187500.02, 0.000, 0.000, 0.000, 22:45:31.633
164, 11486.74, 20160.38, 187500.00, 187500.00, 187500.00, -187500.02, -187500.02, -187500.02, 0.000, 0.000, 0.000, 22:45:31.633
165, 5060.73, 13796.26, 187500.00, 187500.00, 187500.00, -187500.02, -187500.02, -187500.02, 0.142, 0.778, -0.068, 22:45:31.633
166, 6196.48, 13740.15, 187500.00, 187500.00, 187500.00, -187500.02, -187500.02, -187500.02, 0.000, 0.000, 0.000, 22:45:31.633
167, 12230.52, 19619.04, 187500.00, 187500.00, 187500.00, -187500.02, -187500.02, -187500.02, 0.000, 0.000, 0.000, 22:45:31.633
168, 12741.05, 21310.89, 187500.00, 187500.00, 187500.00, -187500.02, -187500.02, -187500.02, 0.000, 0.000, 0.000, 22:45:31.633
169, 6011.43, 14582.68, 187500.00, 187500.00, 187500.00, -187500.02, -187500.02, -187500.02, 0.000, 0.000, 0.000, 22:45:31.634
170, 5670.48, 12826.37, 187500.00, 187500.00, 187500.00, -187500.02, -187500.02, -187500.02, 0.000, 0.000, 0.000, 22:45:31.634
171, 11534.13, 18407.62, 187500.00, 187500.00, 187500.00, -187500.02, -187500.02, -187500.02, 0.000, 0.000, 0.000, 22:45:31.634
172, 13664.34, 21687.92, 187500.00, 187500.00, 187500.00, -187500.02, -187500.02, -187500.02, 0.000, 0.000, 0.000, 22:45:31.634
173, 7231.21, 15406.36, 187500.00, 187500.00, 187500.00, -187500.02, -187500.02, -187500.02, 0.000, 0.000, 0.000, 22:45:31.634
174, 5295.82, 12051.37, 187500.00, 187500.00, 187500.00, -187500.02, -187500.02, -187500.02, 0.000, 0.000, 0.000, 22:45:31.634
175, 10600.34, 17105.41, 187500.00, 187500.00, 187500.00, -187500.02, -187500.02, -187500.02, 0.304, 0.782, -0.144, 22:45:31.634
176, 14096.73, 21948.65, 187500.00, 187500.00, 187500.00, -187500.02, -187500.02, -187500.02, 0.000, 0.000, 0.000, 22:45:31.634
177, 8545.27, 16796.29, 187500.00, 187500.00, 187500.00, -187500.02, -187500.02, -187500.02, 0.000, 0.000, 0.000, 22:45:31.634
178, 5063.36, 11872.73, 187500.00, 187500.00, 187500.00, -187500.02, -187500.02, -187500.02, 0.000, 0.000, 0.000, 22:45:31.635
179, 9562.21, 15996.34, 187500.00, 187500.00, 187500.00, -187500.02, -187500.02, -187500.02, 0.000, 0.000, 0.000, 22:45:31.635
180, 13948.70, 21914.66, 187500.00, 187500.00, 187500.00, -187500.02, -187500.02, -187500.02, 0.000, 0.000, 0.000, 22:45:31.635
181, 9611.65, 18266.07, 187500.00, 187500.00, 187500.00, -187500.02, -187500.02, -187500.02, 0.000, 0.000, 0.000, 22:45:31.635
182, 4906.39, 11906.68, 187500.00, 187500.00, 187500.00, -187500.02, -187500.02, -187500.02, 0.000, 0.000, 0.000, 22:45:31.635
183, 8334.36, 14755.33, 187500.00, 187500.00, 187500.00, -187500.02, -187500.02, -187500.02, 0.000, 0.000, 0.000, 22:45:31.635
184, 13331.09, 21404.99, 187500.00, 187500.00, 187500.00, -187500.02, -187500.02, -187500.02, 0.000, 0.000, 0.000, 22:45:31.635
185, 10627.70, 19653.13, 187500.00, 187500.00, 187500.00, -187500.02, -187500.02, -187500.02, 0.234, 0.896, -0.006, 22:45:31.635
186, 5093.02, 12244.49, 187500.00, 187500.00, 187500.00, -187500.02, -187500.02, -187500.02, 0.000, 0.000, 0.000, 22:45:31.635
187, 7388.32, 13527.39, 187500.00, 187500.00, 187500.00, -187500.02, -187500.02, -187500.02, 0.000, 0.000, 0.000, 22:45:31.636
188, 12715.93, 20551.85, 187500.00, 187500.00, 187500.00, -187500.02, -187500.02, -187500.02, 0.000, 0.000, 0.000, 22:45:31.636
189, 11616.45, 20867.34, 187500.00, 187500.00, 187500.00, -187500.02, -187500.02, -187500.02, 0.000, 0.000, 0.000, 22:45:31.636
190, 5592.81, 12879.21, 187500.00, 187500.00, 187500.00, -187500.02, -187500.02, -187500.02, 0.000, 0.000, 0.000, 22:45:31.636
191, 6565.69, 12377.46, 187500.00, 187500.00, 187500.00, -187500.02, -187500.02, -187500.02, 0.000, 0.000, 0.000, 22:45:31.636
192, 11897.14, 19396.02, 187500.00, 187500.00, 187500.00, -187500.02, -187500.02, -187500.02, 0.000, 0.000, 0.000, 22:45:31.636
193, 12379.87, 21885.93, 187500.00, 187500.00, 187500.00, -187500.02, -187500.02, -187500.02, 0.000, 0.000, 0.000, 22:45:31.636
194, 6321.16, 14065.48, 187500.00, 187500.00, 187500.00, -187500.02, -187500.02, -187500.02, 0.186, 1.008, 0.130, 22:45:31.636
195, 5877.91, 11598.54, 187500.00, 187500.00, 187500.00, -187500.02, -187500.02, -187500.02, 0.000, 0.000, 0.000, 22:45:31.636
196, 10907.94, 18048.81, 187500.00, 187500.00, 187500.00, -187500.02, -187500.02, -187500.02, 0.000, 0.000, 0.000, 22:45:31.637
197, 12810.41, 22390.19, 187500.00, 187500.00, 187500.00, -187500.02, -187500.02, -187500.02, 0.000, 0.000, 0.000, 22:45:31.637
198, 7225.96, 15474.40, 187500.00, 187500.00, 187500.00, -187500.02, -187500.02, -187500.02, 0.000, 0.000, 0.000, 22:45:31.637
199, 5351.48, 11169.57, 187500.00, 187500.00, 187500.00, -187500.02, -187500.02, -187500.02, 0.000, 0.000, 0.000, 22:45:31.637
200, 9919.66, 16686.16, 187500.00, 187500.00, 187500.00, -187500.02, -187500.02, -187500.02, 0.000, 0.000, 0.000, 22:45:31.637
201, 13029.68, 22522.87, 187500.00, 187500.00, 187500.00, -187500.02, -187500.02, -187500.02, 0.000, 0.000, 0.000, 22:45:31.637
202, 8318.87, 17173.11, 187500.00, 187500.00, 187500.00, -187500.02, -187500.02, -187500.02, 0.000, 0.000, 0.000, 22:45:31.637
203, 5105.12, 11131.30, 187500.00, 187500.00, 187500.00, -187500.02, -187500.02, -187500.02, 0.000, 0.000, 0.000, 22:45:31.637
204, 8924.51, 15305.98, 187500.00, 187500.00, 187500.00, -187500.02, -187500.02, -187500.02, 0.178, 0.956, 0.156, 22:45:31.637
205, 12971.41, 22180.57, 187500.00, 187500.00, 187500.00, -187500.02, -187500.02, -187500.02, 0.000, 0.000, 0.000, 22:45:31.637
206, 9497.26, 18818.29, 187500.00, 187500.00, 187500.00, -187500.02, -187500.02, -187500.02, 0.000, 0.000, 0.000, 22:45:31.638
207, 5175.68, 11471.38, 187500.00, 187500.00, 187500.00, -187500.02, -187500.02, -187500.02, 0.000, 0.000, 0.000, 22:45:31.638
208, 8071.44, 14061.79, 187500.00, 187500.00, 187500.00, -187500.02, -187500.02, -187500.02, 0.000, 0.000, 0.000, 22:45:31.638
209, 12718.68, 21511.05, 187500.00, 187500.00, 187500.00, -187500.02, -187500.02, -187500.02, 0.000, 0.000, 0.000, 22:45:31.638
210, 10657.60, 20366.64, 187500.00, 187500.00, 187500.00, -187500.02, -187500.02, -187500.02, 0.000, 0.000, 0.000, 22:45:31.638
211, 5511.74, 12165.03, 187500.00, 187500.00, 187500.00, -187500.02, -187500.02, -187500.02, 0.000, 0.000, 0.000, 22:45:31.638
212, 7306.18, 12955.25, 187500.00, 187500.00, 187500.00, -187500.02, -187500.02, -187500.02, 0.000, 0.000, 0.000, 22:45:31.638
213, 12186.53, 20527.06, 187500.00, 187500.00, 187500.00, -187500.02, -187500.02, -187500.02, 0.000, 0.000, 0.000, 22:45:31.638
214, 11625.39, 21663.82, 187500.00, 187500.00, 187500.00, -187500.02, -187500.02, -187500.02, 0.210, 0.978, 0.122, 22:45:31.638
215, 6151.22, 13223.20, 187500.00, 187500.00, 187500.00, -187500.02, -187500.02, -187500.02, 0.000, 0.000, 0.000, 22:45:31.639
216, 6650.67, 12030.11, 187500.00, 187500.00, 187500.00, -187500.02, -187500.02, -187500.02, 0.000, 0.000, 0.000, 22:45:31.639
217, 11452.27, 19249.97, 187500.00, 187500.00, 187500.00, -187500.02, -187500.02, -187500.02, 0.000, 0.000, 0.000, 22:45:31.639
218, 12333.49, 22552.37, 187500.00, 187500.00, 187500.00, -187500.02, -187500.02, -187500.02, 0.000, 0.000, 0.000, 22:45:31.639
219, 6985.99, 14647.59, 187500.00, 187500.00, 187500.00, -187500.02, -187500.02, -187500.02, 0.000, 0.000, 0.000, 22:45:31.639
220, 6260.01, 11402.05, 187500.00, 187500.00, 187500.00, -187500.02, -187500.02, -187500.02, 0.000, 0.000, 0.000, 22:45:31.639
221, 10723.83, 17796.57, 187500.00, 187500.00, 187500.00, -187500.02, -187500.02, -187500.02, 0.000, 0.000, 0.000, 22:45:31.639
222, 12785.51, 22863.67, 187500.00, 187500.00, 187500.00, -187500.02, -187500.02, -187500.02, 0.000, 0.000, 0.000, 22:45:31.639
223, 7963.79, 16149.27, 187500.00, 187500.00, 187500.00, -187500.02, -187500.02, -187500.02, 0.000, 0.000, 0.000, 22:45:31.640
224, 5943.19, 11042.41, 187500.00, 187500.00, 187500.00, -187500.02, -187500.02, -187500.02, 0.206, 0.952, 0.068, 22:45:31.640
225, 9789.64, 16326.29, 187500.00, 187500.00, 187500.00, -187500.02, -187500.02, -187500.02, 0.000, 0.000, 0.000, 22:45:32.100
226, 12730.41, 22784.76, 187500.00, 187500.00, 187500.00, -187500.02, -187500.02, -187500.02, 0.000, 0.000, 0.000, 22:45:32.100
227, 8881.04, 17830.97, 187500.00, 187500.00, 187500.00, -187500.02, -187500.02, -187500.02, 0.000, 0.000, 0.000, 22:45:32.100
228, 5860.38, 11069.12, 187500.00, 187500.00, 187500.00, -187500.02, -187500.02, -187500.02, 0.000, 0.000, 0.000, 22:45:32.100
229, 8946.42, 14854.37, 187500.00, 187500.00, 187500.00, -187500.02, -187500.02, -187500.02, 0.000, 0.000, 0.000, 22:45:32.100
230, 12492.46, 22189.67, 187500.00, 187500.00, 187500.00, -187500.02, -187500.02, -187500.02, 0.000, 0.000, 0.000, 22:45:32.100
231, 9795.34, 19422.01, 187500.00, 187500.00, 187500.00, -187500.02, -187500.02, -187500.02, 0.000, 0.000, 0.000, 22:45:32.100
232, 5967.85, 11616.36, 187500.00, 187500.00, 187500.00, -187500.02, -187500.02, -187500.02, 0.000, 0.000, 0.000, 22:45:32.100
233, 8150.88, 13805.73, 187500.00, 187500.00, 187500.00, -187500.02, -187500.02, -187500.02, 0.000, 0.000, 0.000, 22:45:32.100
234, 12028.84, 21493.41, 187500.00, 187500.00, 187500.00, -187500.02, -187500.02, -187500.02, 0.174, 0.958, 0.080, 22:45:32.100
235, 10577.58, 20965.98, 187500.00, 187500.00, 187500.00, -187500.02, -187500.02, -187500.02, 0.000, 0.000, 0.000, 22:45:32.101
236, 6258.76, 12473.26, 187500.00, 187500.00, 187500.00, -187500.02, -187500.02, -187500.02, 0.000, 0.000, 0.000, 22:45:32.101
237, 7533.14, 12680.88, 187500.00, 187500.00, 187500.00, -187500.02, -187500.02, -187500.02, 0.000, 0.000, 0.000, 22:45:32.101
238, 11559.52, 20300.10, 187500.00, 187500.00, 187500.00, -187500.02, -187500.02, -187500.02, 0.000, 0.000, 0.000, 22:45:32.101
239, 11310.00, 22070.63, 187500.00, 187500.00, 187500.00, -187500.02, -187500.02, -187500.02, 0.000, 0.000, 0.000, 22:45:32.101
240, 6739.65, 13632.80, 187500.00, 187500.00, 187500.00, -187500.02, -187500.02, -187500.02, 0.000, 0.000, 0.000, 22:45:32.101
241, 6933.53, 11895.80, 187500.00, 187500.00, 187500.00, -187500.02, -187500.02, -187500.02, 0.000, 0.000, 0.000, 22:45:32.101
242, 10871.13, 19007.45, 187500.00, 187500.00, 187500.00, -187500.02, -187500.02, -187500.02, 0.000, 0.000, 0.000, 22:45:32.101
243, 11757.49, 22817.69, 187500.00, 187500.00, 187500.00, -187500.02, -187500.02, -187500.02, 0.000, 0.000, 0.000, 22:45:32.101
244, 7337.43, 15050.35, 187500.00, 187500.00, 187500.00, -187500.02, -187500.02, -187500.02, 0.164, 0.970, 0.074, 22:45:32.101
245, 6513.81, 11232.58, 187500.00, 187500.00, 187500.00, -187500.02, -187500.02, -187500.02, 0.000, 0.000, 0.000, 22:45:32.101
246, 10124.07, 17433.22, 187500.00, 187500.00, 187500.00, -187500.02, -187500.02, -187500.02, 0.000, 0.000, 0.000, 22:45:32.101
247, 12044.97, 22987.92, 187500.00, 187500.00, 187500.00, -187500.02, -187500.02, -187500.02, 0.000, 0.000, 0.000, 22:45:32.102
248, 8236.46, 16627.89, 187500.00, 187500.00, 187500.00, -187500.02, -187500.02, -187500.02, 0.000, 0.000, 0.000, 22:45:32.102
249, 6428.65, 10992.19, 187500.00, 187500.00, 187500.00, -187500.02, -187500.02, -187500.02, 0.000, 0.000, 0.000, 22:45:32.102
250, 9590.49, 15965.49, 187500.00, 187500.00, 187500.00, -187500.02, -187500.02, -187500.02, 0.000, 0.000, 0.000, 22:45:32.102
251, 12203.29, 22795.22, 187500.00, 187500.00, 187500.00, -187500.02, -187500.02, -187500.02, 0.000, 0.000, 0.000, 22:45:32.102
252, 9108.25, 18351.43, 187500.00, 187500.00, 187500.00, -187500.02, -187500.02, -187500.02, 0.000, 0.000, 0.000, 22:45:32.102
253, 6334.01, 11202.00, 187500.00, 187500.00, 187500.00, -187500.02, -187500.02, -187500.02, 0.170, 0.994, 0.016, 22:45:32.102
254, 8855.36, 14611.16, 187500.00, 187500.00, 187500.00, -187500.02, -187500.02, -187500.02, 0.000, 0.000, 0.000, 22:45:32.102
255, 12069.41, 22196.49, 187500.00, 187500.00, 187500.00, -187500.02, -187500.02, -187500.02, 0.000, 0.000, 0.000, 22:45:32.102
0, 9954.82, 19909.12, 187500.00, 187500.00, 187500.00, -187500.02, -187500.02, -187500.02, 0.000, 0.000, 0.000, 22:45:32.102
1, 6440.10, 11540.83, 187500.00, 187500.00, 187500.00, -187500.02, -187500.02, -187500.02, 0.000, 0.000, 0.000, 22:45:32.102
2, 8207.29, 13220.01, 187500.00, 187500.00, 187500.00, -187500.02, -187500.02, -187500.02, 0.000, 0.000, 0.000, 22:45:32.102
3, 11695.95, 21121.19, 187500.00, 187500.00, 187500.00, -187500.02, -187500.02, -187500.02, 0.000, 0.000, 0.000, 22:45:32.102
4, 10645.15, 21295.78, 187500.00, 187500.00, 187500.00, -187500.02, -187500.02, -187500.02, 0.000, 0.000, 0.000, 22:45:32.103
5, 6672.17, 12625.18, 187500.00, 187500.00, 187500.00, -187500.02, -187500.02, -187500.02, 0.000, 0.000, 0.000, 22:45:32.103
6, 7583.19, 12265.03, 187500.00, 187500.00, 187500.00, -187500.02, -187500.02, -187500.02, 0.000, 0.000, 0.000, 22:45:32.103
7, 11271.13, 19912.74, 187500.00, 187500.00, 187500.00, -187500.02, -187500.02, -187500.02, 0.202, 1.044, -0.072, 22:45:32.103
8, 11406.92, 22330.78, 187500.00, 187500.00, 187500.00, -187500.02, -187500.02, -187500.02, 0.000, 0.000, 0.000, 22:45:32.103
9, 7309.71, 13926.63, 187500.00, 187500.00, 187500.00, -187500.02, -187500.02, -187500.02, 0.000, 0.000, 0.000, 22:45:32.103
10, 7297.69, 11597.51, 187500.00, 187500.00, 187500.00, -187500.02, -187500.02, -187500.02, 0.000, 0.000, 0.000, 22:45:32.103
11, 10845.87, 18609.12, 187500.00, 187500.00, 187500.00, -187500.02, -187500.02, -187500.02, 0.000, 0.000, 0.000, 22:45:32.103
12, 11971.48, 23036.49, 187500.00, 187500.00, 187500.00, -187500.02, -187500.02, -187500.02, 0.000, 0.000, 0.000, 22:45:32.103
13, 8065.09, 15593.34, 187500.00, 187500.00, 187500.00, -187500.02, -187500.02, -187500.02, 0.000, 0.000, 0.000, 22:45:32.103
14, 6970.53, 11270.82, 187500.00, 187500.00, 187500.00, -187500.02, -187500.02, -187500.02, 0.000, 0.000, 0.000, 22:45:32.103
15, 10199.93, 17141.40, 187500.00, 187500.00, 187500.00, -187500.02, -187500.02, -187500.02, 0.000, 0.000, 0.000, 22:45:32.103
16, 12256.98, 22983.07, 187500.00, 187500.00, 187500.00, -187500.02, -187500.02, -187500.02, 0.000, 0.000, 0.000, 22:45:32.104
17, 8847.74, 17141.55, 187500.00, 187500.00, 187500.00, -187500.02, -187500.02, -187500.02, 0.142, 1.102, -0.054, 22:45:32.104
18, 6783.28, 11194.56, 187500.00, 187500.00, 187500.00, -187500.02, -187500.02, -187500.02, 0.000, 0.000, 0.000, 22:45:32.104
19, 9553.98, 15654.65, 187500.00, 187500.00, 187500.00, -187500.02, -187500.02, -187500.02, 0.000, 0.000, 0.000, 22:45:32.104
20, 12323.54, 22475.93, 187500.00, 187500.00, 187500.00, -187500.02, -187500.02, -187500.02, 0.000, 0.000, 0.000, 22:45:32.104
21, 9668.22, 18744.48, 187500.00, 187500.00, 187500.00, -187500.02, -187500.02, -187500.02, 0.000, 0.000, 0.000, 22:45:32.104
22, 6693.74, 11563.81, 187500.00, 187500.00, 187500.00, -187500.02, -187500.02, -187500.02, 0.000, 0.000, 0.000, 22:45:32.104
23, 8871.38, 14352.17, 187500.00, 187500.00, 187500.00, -187500.02, -187500.02, -187500.02, 0.000, 0.000, 0.000, 22:45:32.104
24, 12114.40, 21616.68, 187500.00, 187500.00, 187500.00, -187500.02, -187500.02, -187500.02, 0.000, 0.000, 0.000, 22:45:32.104
25, 10388.67, 20081.25, 187500.00, 187500.00, 187500.00, -187500.02, -187500.02, -187500.02, 0.000, 0.000, 0.000, 22:45:32.104
26, 6737.35, 12187.31, 187500.00, 187500.00, 187500.00, -187500.02, -187500.02, -187500.02, 0.000, 0.000, 0.000, 22:45:32.104
27, 8153.87, 13261.92, 187500.00, 187500.00, 187500.00, -187500.02, -187500.02, -187500.02, 0.110, 1.040, -0.022, 22:45:32.104
28, 11664.73, 20583.34, 187500.00, 187500.00, 187500.00, -187500.02, -187500.02, -187500.02, 0.000, 0.000, 0.000, 22:45:32.104
29, 10976.29, 21262.32, 187500.00, 187500.00, 187500.00, -187500.02, -187500.02, -187500.02, 0.000, 0.000, 0.000, 22:45:32.105
30, 6932.53, 13223.65, 187500.00, 187500.00, 187500.00, -187500.02, -187500.02, -187500.02, 0.000, 0.000, 0.000, 22:45:32.105
31, 7464.05, 12457.61, 187500.00, 187500.00, 187500.00, -187500.02, -187500.02, -187500.02, 0.000, 0.000, 0.000, 22:45:32.105
32, 11001.93, 19433.10, 187500.00, 187500.00, 187500.00, -187500.02, -187500.02, -187500.02, 0.000, 0.000, 0.000, 22:45:32.105
33, 11365.03, 22134.48, 187500.00, 187500.00, 187500.00, -187500.02, -187500.02, -187500.02, 0.000, 0.000, 0.000, 22:45:32.105
34, 7277.46, 14524.68, 187500.00, 187500.00, 187500.00, -187500.02, -187500.02, -187500.02, 0.000, 0.000, 0.000, 22:45:32.105
35, 6904.21, 11892.04, 187500.00, 187500.00, 187500.00, -187500.02, -187500.02, -187500.02, 0.000, 0.000, 0.000, 22:45:32.105
36, 10304.96, 18091.08, 187500.00, 187500.00, 187500.00, -187500.02, -187500.02, -187500.02, 0.000, 0.000, 0.000, 22:45:32.105
37, 11671.77, 22495.49, 187500.00, 187500.00, 187500.00, -187500.02, -187500.02, -187500.02, 0.092, 1.002, -0.036, 22:45:32.105
38, 7874.50, 15932.32, 187500.00, 187500.00, 187500.00, -187500.02, -187500.02, -187500.02, 0.000, 0.000, 0.000, 22:45:32.106
39, 6568.64, 11541.59, 187500.00, 187500.00, 187500.00, -187500.02, -187500.02, -187500.02, 0.000, 0.000, 0.000, 22:45:32.106
40, 9668.43, 16715.55, 187500.00, 187500.00, 187500.00, -187500.02, -187500.02, -187500.02, 0.000, 0.000, 0.000, 22:45:32.106
41, 11840.68, 22430.87, 187500.00, 187500.00, 187500.00, -187500.02, -187500.02, -187500.02, 0.000, 0.000, 0.000, 22:45:32.106
42, 8646.39, 17422.29, 187500.00, 187500.00, 187500.00, -187500.02, -187500.02, -187500.02, 0.000, 0.000, 0.000, 22:45:32.106
43, 6442.85, 11484.46, 187500.00, 187500.00, 187500.00, -187500.02, -187500.02, -187500.02, 0.000, 0.000, 0.000, 22:45:32.106
44, 9083.70, 15375.59, 187500.00, 187500.00, 187500.00, -187500.02, -187500.02, -187500.02, 0.000, 0.000, 0.000, 22:45:32.106
45, 11882.97, 22058.11, 187500.00, 187500.00, 187500.00, -187500.02, -187500.02, -187500.02, 0.000, 0.000, 0.000, 22:45:32.106
46, 9501.08, 18948.33, 187500.00, 187500.00, 187500.00, -187500.02, -187500.02, -187500.02, 0.000, 0.000, 0.000, 22:45:32.106
47, 6539.96, 11814.42, 187500.00, 187500.00, 187500.00, -187500.02, -187500.02, -187500.02, 0.118, 1.008, -0.082, 22:45:32.107
48, 8526.77, 14166.94, 187500.00, 187500.00, 187500.00, -187500.02, -187500.02, -187500.02, 0.000, 0.000, 0.000, 22:45:32.107
49, 11712.27, 21344.44, 187500.00, 187500.00, 187500.00, -187500.02, -187500.02, -187500.02, 0.000, 0.000, 0.000, 22:45:32.107
50, 10305.92, 20376.92, 187500.00, 187500.00, 187500.00, -187500.02, -187500.02, -187500.02, 0.000, 0.000, 0.000, 22:45:32.107
51, 6752.55, 12492.01, 187500.00, 187500.00, 187500.00, -187500.02, -187500.02, -187500.02, 0.000, 0.000, 0.000, 22:45:32.107
52, 7981.99, 13107.08, 187500.00, 187500.00, 187500.00, -187500.02, -187500.02, -187500.02, 0.000, 0.000, 0.000, 22:45:32.107
53, 11388.46, 20345.23, 187500.00, 187500.00, 187500.00, -187500.02, -187500.02, -187500.02, 0.000, 0.000, 0.000, 22:45:32.107
54, 10974.88, 21537.07, 187500.00, 187500.00, 187500.00, -187500.02, -187500.02, -187500.02, 0.000, 0.000, 0.000, 22:45:32.107
55, 7075.91, 13487.09, 187500.00, 187500.00, 187500.00, -187500.02, -187500.02, -187500.02, 0.000, 0.000, 0.000, 22:45:32.108
56, 7440.81, 12232.95, 187500.00, 187500.00, 187500.00, -187500.02, -187500.02, -187500.02, 0.172, 1.012, -0.136, 22:45:32.108
57, 10905.33, 19116.84, 187500.00, 187500.00, 187500.00, -187500.02, -187500.02, -187500.02, 0.000, 0.000, 0.000, 22:45:32.108
58, 11546.04, 22352.30, 187500.00, 187500.00, 187500.00, -187500.02, -187500.02, -187500.02, 0.000, 0.000, 0.000, 22:45:32.108
59, 7590.41, 14819.72, 187500.00, 187500.00, 187500.00, -187500.02, -187500.02, -187500.02, 0.000, 0.000, 0.000, 22:45:32.108
60, 6991.56, 11644.72, 187500.00, 187500.00, 187500.00, -187500.02, -187500.02, -187500.02, 0.000, 0.000, 0.000, 22:45:32.108
61, 10321.19, 17771.31, 187500.00, 187500.00, 187500.00, -187500.02, -187500.02, -187500.02, 0.000, 0.000, 0.000, 22:45:32.108
62, 11915.85, 22720.73, 187500.00, 187500.00, 187500.00, -187500.02, -187500.02, -187500.02, 0.000, 0.000, 0.000, 22:45:32.109
63, 8236.48, 16324.69, 187500.00, 187500.00, 187500.00, -187500.02, -187500.02, -187500.02, 0.000, 0.000, 0.000, 22:45:32.109
64, 6635.41, 11340.69, 187500.00, 187500.00, 187500.00, -187500.02, -187500.02, -187500.02, 0.000, 0.000, 0.000, 22:45:32.109
65, 9630.14, 16357.07, 187500.00, 187500.00, 187500.00, -187500.02, -187500.02, -187500.02, 0.000, 0.000, 0.000, 22:45:32.109
66, 12028.19, 22621.93, 187500.00, 187500.00, 187500.00, -187500.02, -187500.02, -187500.02, 0.192, 1.010, -0.148, 22:45:32.109
67, 9005.81, 17929.43, 187500.00, 187500.00, 187500.00, -187500.02, -187500.02, -187500.02, 0.000, 0.000, 0.000, 22:45:32.109
68, 6500.11, 11403.01, 187500.00, 187500.00, 187500.00, -187500.02, -187500.02, -187500.02, 0.000, 0.000, 0.000, 22:45:32.109
69, 8975.43, 15009.82, 187500.00, 187500.00, 187500.00, -187500.02, -187500.02, -187500.02, 0.000, 0.000, 0.000, 22:45:32.109
70, 11948.75, 22074.34, 187500.00, 187500.00, 187500.00, -187500.02, -187500.02, -187500.02, 0.000, 0.000, 0.000, 22:45:32.110
71, 9737.98, 19423.73, 187500.00, 187500.00, 187500.00, -187500.02, -187500.02, -187500.02, 0.000, 0.000, 0.000, 22:45:32.110
72, 6484.55, 11842.85, 187500.00, 187500.00, 187500.00, -187500.02, -187500.02, -187500.02, 0.000, 0.000, 0.000, 22:45:32.110
73, 8316.32, 13824.73, 187500.00, 187500.00, 187500.00, -187500.02, -187500.02, -187500.02, 0.000, 0.000, 0.000, 22:45:32.110
74, 11689.38, 21227.92, 187500.00, 187500.00, 187500.00, -187500.02, -187500.02, -187500.02, 0.000, 0.000, 0.000, 22:45:32.110
75, 10491.46, 20768.82, 187500.00, 187500.00, 187500.00, -187500.02, -187500.02, -187500.02, 0.000, 0.000, 0.000, 22:45:32.110
76, 6701.37, 12637.54, 187500.00, 187500.00, 187500.00, -187500.02, -187500.02, -187500.02, 0.162, 1.002, -0.118, 22:45:32.110
77, 7726.24, 12805.27, 187500.00, 187500.00, 187500.00, -187500.02, -187500.02, -187500.02, 0.000, 0.000, 0.000, 22:45:32.111
78, 11244.16, 20067.57, 187500.00, 187500.00, 187500.00, -187500.02, -187500.02, -187500.02, 0.000, 0.000, 0.000, 22:45:32.111
79, 11098.56, 21787.83, 187500.00, 187500.00, 187500.00, -187500.02, -187500.02, -187500.02, 0.000, 0.000, 0.000, 22:45:32.111
80, 7067.24, 13762.33, 187500.00, 187500.00, 187500.00, -187500.02, -187500.02, -187500.02, 0.000, 0.000, 0.000, 22:45:32.111
81, 7214.96, 12034.40, 187500.00, 187500.00, 187500.00, -187500.02, -187500.02, -187500.02, 0.000, 0.000, 0.000, 22:45:32.111
82, 10719.58, 18764.98, 187500.00, 187500.00, 187500.00, -187500.02, -187500.02, -187500.02, 0.000, 0.000, 0.000, 22:45:32.111
83, 11582.52, 22430.51, 187500.00, 187500.00, 187500.00, -187500.02, -187500.02, -187500.02, 0.000, 0.000, 0.000, 22:45:32.111
84, 7635.51, 15114.70, 187500.00, 187500.00, 187500.00, -187500.02, -187500.02, -187500.02, 0.000, 0.000, 0.000, 22:45:32.111
85, 6832.10, 11522.30, 187500.00, 187500.00, 187500.00, -187500.02, -187500.02, -187500.02, 0.000, 0.000, 0.000, 22:45:32.112
86, 10109.20, 17387.24, 187500.00, 187500.00, 187500.00, -187500.02, -187500.02, -187500.02, 0.130, 0.998, -0.082, 22:45:32.112
87, 11889.79, 22657.76, 187500.00, 187500.00, 187500.00, -187500.02, -187500.02, -187500.02, 0.000, 0.000, 0.000, 22:45:32.112
88, 8345.98, 16674.60, 187500.00, 187500.00, 187500.00, -187500.02, -187500.02, -187500.02, 0.000, 0.000, 0.000, 22:45:32.112
89, 6587.82, 11348.87, 187500.00, 187500.00, 187500.00, -187500.02, -187500.02, -187500.02, 0.000, 0.000, 0.000, 22:45:32.112
90, 9493.77, 16035.28, 187500.00, 187500.00, 187500.00, -187500.02, -187500.02, -187500.02, 0.000, 0.000, 0.000, 22:45:32.581
91, 12005.90, 22479.24, 187500.00, 187500.00, 187500.00, -187500.02, -187500.02, -187500.02, 0.000, 0.000, 0.000, 22:45:32.582
92, 9160.73, 18281.33, 187500.00, 187500.00, 187500.00, -187500.02, -187500.02, -187500.02, 0.000, 0.000, 0.000, 22:45:32.582
93, 6511.31, 11512.80, 187500.00, 187500.00, 187500.00, -187500.02, -187500.02, -187500.02, 0.000, 0.000, 0.000, 22:45:32.582
94, 8860.61, 14740.53, 187500.00, 187500.00, 187500.00, -187500.02, -187500.02, -187500.02, 0.000, 0.000, 0.000, 22:45:32.582
95, 11928.39, 21913.52, 187500.00, 187500.00, 187500.00, -187500.02, -187500.02, -187500.02, 0.000, 0.000, 0.000, 22:45:32.582
96, 9954.30, 19805.08, 187500.00, 187500.00, 187500.00, -187500.02, -187500.02, -187500.02, 0.126, 0.996, -0.068, 22:45:32.582
97, 6583.01, 12029.40, 187500.00, 187500.00, 187500.00, -187500.02, -187500.02, -187500.02, 0.000, 0.000, 0.000, 22:45:32.582
98, 8219.36, 13571.62, 187500.00, 187500.00, 187500.00, -187500.02, -187500.02, -187500.02, 0.000, 0.000, 0.000, 22:45:32.582
99, 11612.92, 20989.43, 187500.00, 187500.00, 187500.00, -187500.02, -187500.02, -187500.02, 0.000, 0.000, 0.000, 22:45:32.582
100, 10653.22, 21116.27, 187500.00, 187500.00, 187500.00, -187500.02, -187500.02, -187500.02, 0.000, 0.000, 0.000, 22:45:32.583
101, 6799.69, 12910.12, 187500.00, 187500.00, 187500.00, -187500.02, -187500.02, -187500.02, 0.000, 0.000, 0.000, 22:45:32.583
102, 7627.02, 12618.45, 187500.00, 187500.00, 187500.00, -187500.02, -187500.02, -187500.02, 0.000, 0.000, 0.000, 22:45:32.583
103, 11156.52, 19853.22, 187500.00, 187500.00, 187500.00, -187500.02, -187500.02, -187500.02, 0.000, 0.000, 0.000, 22:45:32.583
104, 11274.80, 22092.20, 187500.00, 187500.00, 187500.00, -187500.02, -187500.02, -187500.02, 0.000, 0.000, 0.000, 22:45:32.583
105, 7255.13, 14087.50, 187500.00, 187500.00, 187500.00, -187500.02, -187500.02, -187500.02, 0.000, 0.000, 0.000, 22:45:32.583
106, 7151.04, 11851.27, 187500.00, 187500.00, 187500.00, -187500.02, -187500.02, -187500.02, 0.144, 1.000, -0.094, 22:45:32.583
107, 10589.54, 18470.54, 187500.00, 187500.00, 187500.00, -187500.02, -187500.02, -187500.02, 0.000, 0.000, 0.000, 22:45:32.583
108, 11700.13, 22621.48, 187500.00, 187500.00, 187500.00, -187500.02, -187500.02, -187500.02, 0.000, 0.000, 0.000, 22:45:32.583
109, 7814.64, 15504.24, 187500.00, 187500.00, 187500.00, -187500.02, -187500.02, -187500.02, 0.000, 0.000, 0.000, 22:45:32.583
110, 6747.39, 11396.73, 187500.00, 187500.00, 187500.00, -187500.02, -187500.02, -187500.02, 0.000, 0.000, 0.000, 22:45:32.583
111, 9955.96, 17059.50, 187500.00, 187500.00, 187500.00, -187500.02, -187500.02, -187500.02, 0.000, 0.000, 0.000, 22:45:32.583
112, 11937.80, 22731.23, 187500.00, 187500.00, 187500.00, -187500.02, -187500.02, -187500.02, 0.000, 0.000, 0.000, 22:45:32.584
113, 8534.88, 17060.44, 187500.00, 187500.00, 187500.00, -187500.02, -187500.02, -187500.02, 0.000, 0.000, 0.000, 22:45:32.584
114, 6524.41, 11267.02, 187500.00, 187500.00, 187500.00, -187500.02, -187500.02, -187500.02, 0.000, 0.000, 0.000, 22:45:32.584
115, 9290.64, 15666.74, 187500.00, 187500.00, 187500.00, -187500.02, -187500.02, -187500.02, 0.000, 0.000, 0.000, 22:45:32.584
116, 11941.35, 22411.85, 187500.00, 187500.00, 187500.00, -187500.02, -187500.02, -187500.02, 0.170, 0.998, -0.120, 22:45:32.584
117, 9266.29, 18653.89, 187500.00, 187500.00, 187500.00, -187500.02, -187500.02, -187500.02, 0.000, 0.000, 0.000, 22:45:32.584
118, 6449.19, 11518.52, 187500.00, 187500.00, 187500.00, -187500.02, -187500.02, -187500.02, 0.000, 0.000, 0.000, 22:45:32.584
119, 8643.71, 14375.50, 187500.00, 187500.00, 187500.00, -187500.02, -187500.02, -187500.02, 0.000, 0.000, 0.000, 22:45:32.584
120, 11813.92, 21736.31, 187500.00, 187500.00, 187500.00, -187500.02, -187500.02, -187500.02, 0.000, 0.000, 0.000, 22:45:32.588
121, 10074.89, 20176.36, 187500.00, 187500.00, 187500.00, -187500.02, -187500.02, -187500.02, 0.000, 0.000, 0.000, 22:45:32.588
122, 6563.03, 12187.96, 187500.00, 187500.00, 187500.00, -187500.02, -187500.02, -187500.02, 0.000, 0.000, 0.000, 22:45:32.588
123, 8039.74, 13298.06, 187500.00, 187500.00, 187500.00, -187500.02, -187500.02, -187500.02, 0.000, 0.000, 0.000, 22:45:32.588
124, 11487.14, 20738.57, 187500.00, 187500.00, 187500.00, -187500.02, -187500.02, -187500.02, 0.000, 0.000, 0.000, 22:45:32.588
125, 10799.18, 21365.58, 187500.00, 187500.00, 187500.00, -187500.02, -187500.02, -187500.02, 0.168, 1.000, -0.122, 22:45:32.588
126, 6895.98, 13112.56, 187500.00, 187500.00, 187500.00, -187500.02, -187500.02, -187500.02, 0.000, 0.000, 0.000, 22:45:32.589
127, 7493.87, 12349.83, 187500.00, 187500.00, 187500.00, -187500.02, -187500.02, -187500.02, 0.000, 0.000, 0.000, 22:45:32.589
128, 11016.08, 19488.33, 187500.00, 187500.00, 187500.00, -187500.02, -187500.02, -187500.02, 0.000, 0.000, 0.000, 22:45:32.589
129, 11383.41, 22221.14, 187500.00, 187500.00, 187500.00, -187500.02, -187500.02, -187500.02, 0.000, 0.000, 0.000, 22:45:32.589
130, 7368.79, 14393.20, 187500.00, 187500.00, 187500.00, -187500.02, -187500.02, -187500.02, 0.000, 0.000, 0.000, 22:45:32.589
131, 7053.27, 11711.67, 187500.00, 187500.00, 187500.00, -187500.02, -187500.02, -187500.02, 0.000, 0.000, 0.000, 22:45:32.590
132, 10447.05, 18109.25, 187500.00, 187500.00, 187500.00, -187500.02, -187500.02, -187500.02, 0.000, 0.000, 0.000, 22:45:32.590
133, 11781.54, 22656.20, 187500.00, 187500.00, 187500.00, -187500.02, -187500.02, -187500.02, 0.000, 0.000, 0.000, 22:45:32.590
134, 8021.28, 15873.63, 187500.00, 187500.00, 187500.00, -187500.02, -187500.02, -187500.02, 0.000, 0.000, 0.000, 22:45:32.590
135, 6721.12, 11366.33, 187500.00, 187500.00, 187500.00, -187500.02, -187500.02, -187500.02, 0.148, 1.004, -0.102, 22:45:32.590
136, 9824.84, 16722.75, 187500.00, 187500.00, 187500.00, -187500.02, -187500.02, -187500.02, 0.000, 0.000, 0.000, 22:45:32.590
137, 11986.03, 22667.93, 187500.00, 187500.00, 187500.00, -187500.02, -187500.02, -187500.02, 0.000, 0.000, 0.000, 22:45:32.590
138, 8750.89, 17464.04, 187500.00, 187500.00, 187500.00, -187500.02, -187500.02, -187500.02, 0.000, 0.000, 0.000, 22:45:32.591
139, 6544.32, 11357.10, 187500.00, 187500.00, 187500.00, -187500.02, -187500.02, -187500.02, 0.000, 0.000, 0.000, 22:45:32.591
140, 9189.27, 15394.29, 187500.00, 187500.00, 187500.00, -187500.02, -187500.02, -187500.02, 0.000, 0.000, 0.000, 22:45:32.591
141, 11981.72, 22301.63, 187500.00, 187500.00, 187500.00, -187500.02, -187500.02, -187500.02, 0.000, 0.000, 0.000, 22:45:32.591
142, 9532.53, 19094.00, 187500.00, 187500.00, 187500.00, -187500.02, -187500.02, -187500.02, 0.000, 0.000, 0.000, 22:45:32.591
143, 6504.54, 11745.26, 187500.00, 187500.00, 187500.00, -187500.02, -187500.02, -187500.02, 0.000, 0.000, 0.000, 22:45:32.591
144, 8514.05, 14182.47, 187500.00, 187500.00, 187500.00, -187500.02, -187500.02, -187500.02, 0.000, 0.000, 0.000, 22:45:32.591
145, 11783.03, 21542.10, 187500.00, 187500.00, 187500.00, -187500.02, -187500.02, -187500.02, 0.130, 1.006, -0.082, 22:45:32.591
146, 10327.20, 20523.35, 187500.00, 187500.00, 187500.00, -187500.02, -187500.02, -187500.02, 0.000, 0.000, 0.000, 22:45:32.592
147, 6682.59, 12458.93, 187500.00, 187500.00, 187500.00, -187500.02, -187500.02, -187500.02, 0.000, 0.000, 0.000, 22:45:32.592
148, 7923.38, 13103.67, 187500.00, 187500.00, 187500.00, -187500.02, -187500.02, -187500.02, 0.000, 0.000, 0.000, 22:45:32.592
149, 11406.63, 20483.67, 187500.00, 187500.00, 187500.00, -187500.02, -187500.02, -187500.02, 0.000, 0.000, 0.000, 22:45:32.592
150, 10985.68, 21659.94, 187500.00, 187500.00, 187500.00, -187500.02, -187500.02, -187500.02, 0.000, 0.000, 0.000, 22:45:32.592
151, 7020.15, 13477.70, 187500.00, 187500.00, 187500.00, -187500.02, -187500.02, -187500.02, 0.000, 0.000, 0.000, 22:45:32.592
152, 7389.24, 12232.08, 187500.00, 187500.00, 187500.00, -187500.02, -187500.02, -187500.02, 0.000, 0.000, 0.000, 22:45:32.592
153, 10902.24, 19177.48, 187500.00, 187500.00, 187500.00, -187500.02, -187500.02, -187500.02, 0.000, 0.000, 0.000, 22:45:32.592
154, 11520.49, 22372.84, 187500.00, 187500.00, 187500.00, -187500.02, -187500.02, -187500.02, 0.000, 0.000, 0.000, 22:45:32.592
155, 7555.74, 14782.73, 187500.00, 187500.00, 187500.00, -187500.02, -187500.02, -187500.02, 0.134, 1.002, -0.100, 22:45:32.592
156, 6986.46, 11638.33, 187500.00, 187500.00, 187500.00, -187500.02, -187500.02, -187500.02, 0.000, 0.000, 0.000, 22:45:32.592
157, 10313.56, 17789.31, 187500.00, 187500.00, 187500.00, -187500.02, -187500.02, -187500.02, 0.000, 0.000, 0.000, 22:45:32.593
158, 11868.31, 22706.51, 187500.00, 187500.00, 187500.00, -187500.02, -187500.02, -187500.02, 0.000, 0.000, 0.000, 22:45:32.593
159, 8212.83, 16274.51, 187500.00, 187500.00, 187500.00, -187500.02, -187500.02, -187500.02, 0.000, 0.000, 0.000, 22:45:32.593
160, 6680.53, 11333.03, 187500.00, 187500.00, 187500.00, -187500.02, -187500.02, -187500.02, 0.000, 0.000, 0.000, 22:45:32.593
161, 9659.57, 16377.35, 187500.00, 187500.00, 187500.00, -187500.02, -187500.02, -187500.02, 0.000, 0.000, 0.000, 22:45:32.593
162, 12009.82, 22641.27, 187500.00, 187500.00, 187500.00, -187500.02, -187500.02, -187500.02, 0.000, 0.000, 0.000, 22:45:32.593
163, 8985.31, 17911.08, 187500.00, 187500.00, 187500.00, -187500.02, -187500.02, -187500.02, 0.000, 0.000, 0.000, 22:45:32.594
164, 6542.36, 11425.34, 187500.00, 187500.00, 187500.00, -187500.02, -187500.02, -187500.02, 0.000, 0.000, 0.000, 22:45:32.594
165, 8998.90, 15067.27, 187500.00, 187500.00, 187500.00, -187500.02, -187500.02, -187500.02, 0.146, 1.008, -0.120, 22:45:32.594
166, 11925.15, 22146.76, 187500.00, 187500.00, 187500.00, -187500.02, -187500.02, -187500.02, 0.000, 0.000, 0.000, 22:45:32.594
167, 9747.80, 19465.35, 187500.00, 187500.00, 187500.00, -187500.02, -187500.02, -187500.02, 0.000, 0.000, 0.000, 22:45:32.594
168, 6556.12, 11851.63, 187500.00, 187500.00, 187500.00, -187500.02, -187500.02, -187500.02, 0.000, 0.000, 0.000, 22:45:32.594
169, 8378.89, 13841.09, 187500.00, 187500.00, 187500.00, -187500.02, -187500.02, -187500.02, 0.000, 0.000, 0.000, 22:45:32.594
170, 11684.55, 21259.32, 187500.00, 187500.00, 187500.00, -187500.02, -187500.02, -187500.02, 0.000, 0.000, 0.000, 22:45:32.594
171, 10477.69, 20807.02, 187500.00, 187500.00, 187500.00, -187500.02, -187500.02, -187500.02, 0.000, 0.000, 0.000, 22:45:32.595
172, 6748.35, 12648.61, 187500.00, 187500.00, 187500.00, -187500.02, -187500.02, -187500.02, 0.000, 0.000, 0.000, 22:45:32.595
173, 7782.18, 12841.37, 187500.00, 187500.00, 187500.00, -187500.02, -187500.02, -187500.02, 0.000, 0.000, 0.000, 22:45:32.595
174, 11263.42, 20156.11, 187500.00, 187500.00, 187500.00, -187500.02, -187500.02, -187500.02, 0.000, 0.000, 0.000, 22:45:32.595
175, 11094.27, 21855.38, 187500.00, 187500.00, 187500.00, -187500.02, -187500.02, -187500.02, 0.150, 1.002, -0.124, 22:45:32.595
176, 7124.15, 13762.62, 187500.00, 187500.00, 187500.00, -187500.02, -187500.02, -187500.02, 0.000, 0.000, 0.000, 22:45:32.595
177, 7272.54, 12050.00, 187500.00, 187500.00, 187500.00, -187500.02, -187500.02, -187500.02, 0.000, 0.000, 0.000, 22:45:32.595
178, 10723.20, 18841.36, 187500.00, 187500.00, 187500.00, -187500.02, -187500.02, -187500.02, 0.000, 0.000, 0.000, 22:45:32.595
179, 11570.83, 22497.61, 187500.00, 187500.00, 187500.00, -187500.02, -187500.02, -187500.02, 0.000, 0.000, 0.000, 22:45:32.595
180, 7672.50, 15104.82, 187500.00, 187500.00, 187500.00, -187500.02, -187500.02, -187500.02, 0.000, 0.000, 0.000, 22:45:32.595
181, 6866.03, 11499.66, 187500.00, 187500.00, 187500.00, -187500.02, -187500.02, -187500.02, 0.000, 0.000, 0.000, 22:45:32.595
182, 10118.43, 17425.26, 187500.00, 187500.00, 187500.00, -187500.02, -187500.02, -187500.02, 0.000, 0.000, 0.000, 22:45:32.595
183, 11887.31, 22718.29, 187500.00, 187500.00, 187500.00, -187500.02, -187500.02, -187500.02, 0.000, 0.000, 0.000, 22:45:32.596
184, 8365.90, 16661.28, 187500.00, 187500.00, 187500.00, -187500.02, -187500.02, -187500.02, 0.144, 1.000, -0.116, 22:45:32.596
185, 6582.25, 11301.38, 187500.00, 187500.00, 187500.00, -187500.02, -187500.02, -187500.02, 0.000, 0.000, 0.000, 22:45:32.596
186, 9457.04, 16036.33, 187500.00, 187500.00, 187500.00, -187500.02, -187500.02, -187500.02, 0.000, 0.000, 0.000, 22:45:32.596
187, 11997.75, 22530.80, 187500.00, 187500.00, 187500.00, -187500.02, -187500.02, -187500.02, 0.000, 0.000, 0.000, 22:45:32.596
188, 9153.96, 18270.76, 187500.00, 187500.00, 187500.00, -187500.02, -187500.02, -187500.02, 0.000, 0.000, 0.000, 22:45:32.596
189, 6501.16, 11462.51, 187500.00, 187500.00, 187500.00, -187500.02, -187500.02, -187500.02, 0.000, 0.000, 0.000, 22:45:32.596
190, 8811.71, 14711.38, 187500.00, 187500.00, 187500.00, -187500.02, -187500.02, -187500.02, 0.000, 0.000, 0.000, 22:45:32.596
191, 11866.81, 21900.60, 187500.00, 187500.00, 187500.00, -187500.02, -187500.02, -187500.02, 0.000, 0.000, 0.000, 22:45:32.596
192, 9904.66, 19748.75, 187500.00, 187500.00, 187500.00, -187500.02, -187500.02, -187500.02, 0.000, 0.000, 0.000, 22:45:32.596
193, 6566.56, 11987.62, 187500.00, 187500.00, 187500.00, -187500.02, -187500.02, -187500.02, 0.000, 0.000, 0.000, 22:45:32.597
194, 8207.18, 13573.07, 187500.00, 187500.00, 187500.00, -187500.02, -187500.02, -187500.02, 0.132, 1.002, -0.108, 22:45:32.597
195, 11587.66, 21012.31, 187500.00, 187500.00, 187500.00, -187500.02, -187500.02, -187500.02, 0.000, 0.000, 0.000, 22:45:32.597
196, 10635.03, 21074.72, 187500.00, 187500.00, 187500.00, -187500.02, -187500.02, -187500.02, 0.000, 0.000, 0.000, 22:45:32.597
197, 6816.83, 12862.87, 187500.00, 187500.00, 187500.00, -187500.02, -187500.02, -187500.02, 0.000, 0.000, 0.000, 22:45:32.597
198, 7638.10, 12593.17, 187500.00, 187500.00, 187500.00, -187500.02, -187500.02, -187500.02, 0.000, 0.000, 0.000, 22:45:32.597
199, 11143.89, 19815.22, 187500.00, 187500.00, 187500.00, -187500.02, -187500.02, -187500.02, 0.000, 0.000, 0.000, 22:45:32.597
200, 11239.15, 22008.38, 187500.00, 187500.00, 187500.00, -187500.02, -187500.02, -187500.02, 0.000, 0.000, 0.000, 22:45:32.597
201, 7249.39, 14034.12, 187500.00, 187500.00, 187500.00, -187500.02, -187500.02, -187500.02, 0.000, 0.000, 0.000, 22:45:32.597
202, 7161.95, 11867.50, 187500.00, 187500.00, 187500.00, -187500.02, -187500.02, -187500.02, 0.000, 0.000, 0.000, 22:45:32.598
203, 10586.23, 18476.38, 187500.00, 187500.00, 187500.00, -187500.02, -187500.02, -187500.02, 0.000, 0.000, 0.000, 22:45:32.598
204, 11686.18, 22574.90, 187500.00, 187500.00, 187500.00, -187500.02, -187500.02, -187500.02, 0.126, 1.004, -0.104, 22:45:32.598
205, 7845.66, 15462.44, 187500.00, 187500.00, 187500.00, -187500.02, -187500.02, -187500.02, 0.000, 0.000, 0.000, 22:45:32.598
206, 6796.87, 11418.52, 187500.00, 187500.00, 187500.00, -187500.02, -187500.02, -187500.02, 0.000, 0.000, 0.000, 22:45:32.598
207, 9965.61, 17085.36, 187500.00, 187500.00, 187500.00, -187500.02, -187500.02, -187500.02, 0.000, 0.000, 0.000, 22:45:32.598
208, 11926.94, 22713.75, 187500.00, 187500.00, 187500.00, -187500.02, -187500.02, -187500.02, 0.000, 0.000, 0.000, 22:45:32.598
209, 8560.16, 17035.92, 187500.00, 187500.00, 187500.00, -187500.02, -187500.02, -187500.02, 0.000, 0.000, 0.000, 22:45:32.599
210, 6589.36, 11301.67, 187500.00, 187500.00, 187500.00, -187500.02, -187500.02, -187500.02, 0.000, 0.000, 0.000, 22:45:33.059
211, 9326.26, 15719.42, 187500.00, 187500.00, 187500.00, -187500.02, -187500.02, -187500.02, 0.000, 0.000, 0.000, 22:45:33.059
212, 11984.92, 22442.25, 187500.00, 187500.00, 187500.00, -187500.02, -187500.02, -187500.02, 0.000, 0.000, 0.000, 22:45:33.059
213, 9326.20, 18650.68, 187500.00, 187500.00, 187500.00, -187500.02, -187500.02, -187500.02, 0.000, 0.000, 0.000, 22:45:33.059
214, 6496.44, 11560.32, 187500.00, 187500.00, 187500.00, -187500.02, -187500.02, -187500.02, 0.140, 1.002, -0.112, 22:45:33.059
215, 8688.21, 14432.16, 187500.00, 187500.00, 187500.00, -187500.02, -187500.02, -187500.02, 0.000, 0.000, 0.000, 22:45:33.060
216, 11829.84, 21733.81, 187500.00, 187500.00, 187500.00, -187500.02, -187500.02, -187500.02, 0.000, 0.000, 0.000, 22:45:33.060
217, 10108.87, 20112.08, 187500.00, 187500.00, 187500.00, -187500.02, -187500.02, -187500.02, 0.000, 0.000, 0.000, 22:45:33.060
218, 6622.22, 12155.35, 187500.00, 187500.00, 187500.00, -187500.02, -187500.02, -187500.02, 0.000, 0.000, 0.000, 22:45:33.060
219, 8073.70, 13297.77, 187500.00, 187500.00, 187500.00, -187500.02, -187500.02, -187500.02, 0.000, 0.000, 0.000, 22:45:33.060
220, 11504.78, 20734.60, 187500.00, 187500.00, 187500.00, -187500.02, -187500.02, -187500.02, 0.000, 0.000, 0.000, 22:45:33.060
221, 10810.06, 21325.20, 187500.00, 187500.00, 187500.00, -187500.02, -187500.02, -187500.02, 0.000, 0.000, 0.000, 22:45:33.060
222, 6923.81, 13109.88, 187500.00, 187500.00, 187500.00, -187500.02, -187500.02, -187500.02, 0.000, 0.000, 0.000, 22:45:33.060
223, 7535.60, 12376.79, 187500.00, 187500.00, 187500.00, -187500.02, -187500.02, -187500.02, 0.000, 0.000, 0.000, 22:45:33.060
224, 11024.51, 19504.40, 187500.00, 187500.00, 187500.00, -187500.02, -187500.02, -187500.02, 0.146, 1.006, -0.114, 22:45:33.060
225, 11384.37, 22219.06, 187500.00, 187500.00, 187500.00, -187500.02, -187500.02, -187500.02, 0.000, 0.000, 0.000, 22:45:33.060
226, 7399.52, 14375.68, 187500.00, 187500.00, 187500.00, -187500.02, -187500.02, -187500.02, 0.000, 0.000, 0.000, 22:45:33.060
227, 7078.24, 11723.24, 187500.00, 187500.00, 187500.00, -187500.02, -187500.02, -187500.02, 0.000, 0.000, 0.000, 22:45:33.061
228, 10463.48, 18148.88, 187500.00, 187500.00, 187500.00, -187500.02, -187500.02, -187500.02, 0.000, 0.000, 0.000, 22:45:33.061
229, 11771.39, 22654.68, 187500.00, 187500.00, 187500.00, -187500.02, -187500.02, -187500.02, 0.000, 0.000, 0.000, 22:45:33.061
230, 8016.56, 15851.77, 187500.00, 187500.00, 187500.00, -187500.02, -187500.02, -187500.02, 0.000, 0.000, 0.000, 22:45:33.061
231, 6732.37, 11385.60, 187500.00, 187500.00, 187500.00, -187500.02, -187500.02, -187500.02, 0.000, 0.000, 0.000, 22:45:33.061
232, 9812.26, 16750.89, 187500.00, 187500.00, 187500.00, -187500.02, -187500.02, -187500.02, 0.000, 0.000, 0.000, 22:45:33.061
233, 11965.96, 22650.99, 187500.00, 187500.00, 187500.00, -187500.02, -187500.02, -187500.02, 0.000, 0.000, 0.000, 22:45:33.061
234, 8745.41, 17425.44, 187500.00, 187500.00, 187500.00, -187500.02, -187500.02, -187500.02, 0.144, 1.010, -0.104, 22:45:33.061
235, 6544.88, 11341.79, 187500.00, 187500.00, 187500.00, -187500.02, -187500.02, -187500.02, 0.000, 0.000, 0.000, 22:45:33.061
236, 9163.72, 15390.49, 187500.00, 187500.00, 187500.00, -187500.02, -187500.02, -187500.02, 0.000, 0.000, 0.000, 22:45:33.061
237, 11948.77, 22278.01, 187500.00, 187500.00, 187500.00, -187500.02, -187500.02, -187500.02, 0.000, 0.000, 0.000, 22:45:33.061
238, 9526.83, 19020.35, 187500.00, 187500.00, 187500.00, -187500.02, -187500.02, -187500.02, 0.000, 0.000, 0.000, 22:45:33.062
239, 6527.98, 11687.50, 187500.00, 187500.00, 187500.00, -187500.02, -187500.02, -187500.02, 0.000, 0.000, 0.000, 22:45:33.062
240, 8538.19, 14147.07, 187500.00, 187500.00, 187500.00, -187500.02, -187500.02, -187500.02, 0.000, 0.000, 0.000, 22:45:33.062
241, 11781.69, 21505.30, 187500.00, 187500.00, 187500.00, -187500.02, -187500.02, -187500.02, 0.000, 0.000, 0.000, 22:45:33.062
242, 10306.66, 20432.53, 187500.00, 187500.00, 187500.00, -187500.02, -187500.02, -187500.02, 0.000, 0.000, 0.000, 22:45:33.062
243, 6692.07, 12378.31, 187500.00, 187500.00, 187500.00, -187500.02, -187500.02, -187500.02, 0.142, 1.008, -0.098, 22:45:33.062
244, 7940.48, 13072.17, 187500.00, 187500.00, 187500.00, -187500.02, -187500.02, -187500.02, 0.000, 0.000, 0.000, 22:45:33.062
245, 11406.74, 20431.24, 187500.00, 187500.00, 187500.00, -187500.02, -187500.02, -187500.02, 0.000, 0.000, 0.000, 22:45:33.062
246, 10966.35, 21546.48, 187500.00, 187500.00, 187500.00, -187500.02, -187500.02, -187500.02, 0.000, 0.000, 0.000, 22:45:33.062
247, 7015.12, 13407.87, 187500.00, 187500.00, 187500.00, -187500.02, -187500.02, -187500.02, 0.000, 0.000, 0.000, 22:45:33.062
248, 7397.04, 12230.90, 187500.00, 187500.00, 187500.00, -187500.02, -187500.02, -187500.02, 0.000, 0.000, 0.000, 22:45:33.062
249, 10872.00, 19184.63, 187500.00, 187500.00, 187500.00, -187500.02, -187500.02, -187500.02, 0.000, 0.000, 0.000, 22:45:33.062
250, 11482.87, 22345.73, 187500.00, 187500.00, 187500.00, -187500.02, -187500.02, -187500.02, 0.000, 0.000, 0.000, 22:45:33.063
251, 7519.82, 14716.03, 187500.00, 187500.00, 187500.00, -187500.02, -187500.02, -187500.02, 0.000, 0.000, 0.000, 22:45:33.063
252, 6968.56, 11621.10, 187500.00, 187500.00, 187500.00, -187500.02, -187500.02, -187500.02, 0.000, 0.000, 0.000, 22:45:33.063
253, 10299.93, 17832.42, 187500.00, 187500.00, 187500.00, -187500.02, -187500.02, -187500.02, 0.134, 1.008, -0.098, 22:45:33.063
254, 11837.46, 22711.25, 187500.00, 187500.00, 187500.00, -187500.02, -187500.02, -187500.02, 0.000, 0.000, 0.000, 22:45:33.063
255, 8175.15, 16246.14, 187500.00, 187500.00, 187500.00, -187500.02, -187500.02, -187500.02, 0.000, 0.000, 0.000, 22:45:33.063
0, 6662.23, 11369.53, 187500.00, 187500.00, 187500.00, -187500.02, -187500.02, -187500.02, 0.000, 0.000, 0.000, 22:45:33.063
1, 9634.25, 16427.30, 187500.00, 187500.00, 187500.00, -187500.02, -187500.02, -187500.02, 0.000, 0.000, 0.000, 22:45:33.064
2, 11957.42, 22597.59, 187500.00, 187500.00, 187500.00, -187500.02, -187500.02, -187500.02, 0.000, 0.000, 0.000, 22:45:33.064
3, 8922.30, 17819.21, 187500.00, 187500.00, 187500.00, -187500.02, -187500.02, -187500.02, 0.000, 0.000, 0.000, 22:45:33.064
4, 6509.97, 11394.63, 187500.00, 187500.00, 187500.00, -187500.02, -187500.02, -187500.02, 0.000, 0.000, 0.000, 22:45:33.064
5, 8988.04, 15049.34, 187500.00, 187500.00, 187500.00, -187500.02, -187500.02, -187500.02, 0.000, 0.000, 0.000, 22:45:33.064
6, 11896.40, 22071.36, 187500.00, 187500.00, 187500.00, -187500.02, -187500.02, -187500.02, 0.000, 0.000, 0.000, 22:45:33.064
7, 9697.73, 19368.99, 187500.00, 187500.00, 187500.00, -187500.02, -187500.02, -187500.02, 0.140, 1.002, -0.102, 22:45:33.065
8, 6524.81, 11830.87, 187500.00, 187500.00, 187500.00, -187500.02, -187500.02, -187500.02, 0.000, 0.000, 0.000, 22:45:33.065
9, 8330.92, 13850.24, 187500.00, 187500.00, 187500.00, -187500.02, -187500.02, -187500.02, 0.000, 0.000, 0.000, 22:45:33.065
10, 11634.46, 21243.92, 187500.00, 187500.00, 187500.00, -187500.02, -187500.02, -187500.02, 0.000, 0.000, 0.000, 22:45:33.066
11, 10442.71, 20716.18, 187500.00, 187500.00, 187500.00, -187500.02, -187500.02, -187500.02, 0.000, 0.000, 0.000, 22:45:33.066
12, 6734.29, 12588.90, 187500.00, 187500.00, 187500.00, -187500.02, -187500.02, -187500.02, 0.000, 0.000, 0.000, 22:45:33.066
13, 7779.35, 12832.61, 187500.00, 187500.00, 187500.00, -187500.02, -187500.02, -187500.02, 0.000, 0.000, 0.000, 22:45:33.066
14, 11255.58, 20129.04, 187500.00, 187500.00, 187500.00, -187500.02, -187500.02, -187500.02, 0.000, 0.000, 0.000, 22:45:33.066
15, 11084.32, 21772.72, 187500.00, 187500.00, 187500.00, -187500.02, -187500.02, -187500.02, 0.000, 0.000, 0.000, 22:45:33.066
16, 7114.92, 13695.14, 187500.00, 187500.00, 187500.00, -187500.02, -187500.02, -187500.02, 0.000, 0.000, 0.000, 22:45:33.066
17, 7276.45, 12042.07, 187500.00, 187500.00, 187500.00, -187500.02, -187500.02, -187500.02, 0.144, 1.006, -0.102, 22:45:33.066
18, 10739.88, 18849.07, 187500.00, 187500.00, 187500.00, -187500.02, -187500.02, -187500.02, 0.000, 0.000, 0.000, 22:45:33.066
19, 11571.07, 22458.00, 187500.00, 187500.00, 187500.00, -187500.02, -187500.02, -187500.02, 0.000, 0.000, 0.000, 22:45:33.066
20, 7661.64, 15071.98, 187500.00, 187500.00, 187500.00, -187500.02, -187500.02, -187500.02, 0.000, 0.000, 0.000, 22:45:33.066
21, 6878.10, 11553.13, 187500.00, 187500.00, 187500.00, -187500.02, -187500.02, -187500.02, 0.000, 0.000, 0.000, 22:45:33.066
22, 10140.16, 17474.21, 187500.00, 187500.00, 187500.00, -187500.02, -187500.02, -187500.02, 0.000, 0.000, 0.000, 22:45:33.066
23, 11885.61, 22699.74, 187500.00, 187500.00, 187500.00, -187500.02, -187500.02, -187500.02, 0.000, 0.000, 0.000, 22:45:33.067
24, 8354.66, 16624.33, 187500.00, 187500.00, 187500.00, -187500.02, -187500.02, -187500.02, 0.000, 0.000, 0.000, 22:45:33.067
25, 6620.34, 11330.97, 187500.00, 187500.00, 187500.00, -187500.02, -187500.02, -187500.02, 0.000, 0.000, 0.000, 22:45:33.067
26, 9486.46, 16060.93, 187500.00, 187500.00, 187500.00, -187500.02, -187500.02, -187500.02, 0.000, 0.000, 0.000, 22:45:33.067
27, 11978.63, 22484.36, 187500.00, 187500.00, 187500.00, -187500.02, -187500.02, -187500.02, 0.142, 1.006, -0.108, 22:45:33.067
28, 9100.45, 18189.31, 187500.00, 187500.00, 187500.00, -187500.02, -187500.02, -187500.02, 0.000, 0.000, 0.000, 22:45:33.067
29, 6454.80, 11452.50, 187500.00, 187500.00, 187500.00, -187500.02, -187500.02, -187500.02, 0.000, 0.000, 0.000, 22:45:33.067
30, 8834.73, 14747.95, 187500.00, 187500.00, 187500.00, -187500.02, -187500.02, -187500.02, 0.000, 0.000, 0.000, 22:45:33.067
31, 11893.32, 21921.72, 187500.00, 187500.00, 187500.00, -187500.02, -187500.02, -187500.02, 0.000, 0.000, 0.000, 22:45:33.067
32, 9895.79, 19717.68, 187500.00, 187500.00, 187500.00, -187500.02, -187500.02, -187500.02, 0.000, 0.000, 0.000, 22:45:33.067
33, 6544.95, 11969.05, 187500.00, 187500.00, 187500.00, -187500.02, -187500.02, -187500.02, 0.000, 0.000, 0.000, 22:45:33.067
34, 8212.01, 13589.66, 187500.00, 187500.00, 187500.00, -187500.02, -187500.02, -187500.02, 0.000, 0.000, 0.000, 22:45:33.067
35, 11592.13, 21004.60, 187500.00, 187500.00, 187500.00, -187500.02, -187500.02, -187500.02, 0.000, 0.000, 0.000, 22:45:33.067
36, 10623.90, 20998.41, 187500.00, 187500.00, 187500.00, -187500.02, -187500.02, -187500.02, 0.000, 0.000, 0.000, 22:45:33.068
37, 6802.06, 12821.65, 187500.00, 187500.00, 187500.00, -187500.02, -187500.02, -187500.02, 0.140, 1.008, -0.100, 22:45:33.068
38, 7659.90, 12628.58, 187500.00, 187500.00, 187500.00, -187500.02, -187500.02, -187500.02, 0.000, 0.000, 0.000, 22:45:33.068
39, 11160.96, 19843.68, 187500.00, 187500.00, 187500.00, -187500.02, -187500.02, -187500.02, 0.000, 0.000, 0.000, 22:45:33.068
40, 11237.03, 21992.02, 187500.00, 187500.00, 187500.00, -187500.02, -187500.02, -187500.02, 0.000, 0.000, 0.000, 22:45:33.068
41, 7231.62, 14017.25, 187500.00, 187500.00, 187500.00, -187500.02, -187500.02, -187500.02, 0.000, 0.000, 0.000, 22:45:33.068
42, 7159.08, 11894.77, 187500.00, 187500.00, 187500.00, -187500.02, -187500.02, -187500.02, 0.000, 0.000, 0.000, 22:45:33.068
43, 10604.96, 18501.25, 187500.00, 187500.00, 187500.00, -187500.02, -187500.02, -187500.02, 0.000, 0.000, 0.000, 22:45:33.068
44, 11674.83, 22564.55, 187500.00, 187500.00, 187500.00, -187500.02, -187500.02, -187500.02, 0.000, 0.000, 0.000, 22:45:33.068
45, 7812.31, 15455.76, 187500.00, 187500.00, 187500.00, -187500.02, -187500.02, -187500.02, 0.000, 0.000, 0.000, 22:45:33.068
46, 6797.59, 11461.57, 187500.00, 187500.00, 187500.00, -187500.02, -187500.02, -187500.02, 0.000, 0.000, 0.000, 22:45:33.068
47, 9982.36, 17104.29, 187500.00, 187500.00, 187500.00, -187500.02, -187500.02, -187500.02, 0.138, 1.006, -0.104, 22:45:33.068
48, 11924.92, 22686.82, 187500.00, 187500.00, 187500.00, -187500.02, -187500.02, -187500.02, 0.000, 0.000, 0.000, 22:45:33.068
49, 8545.25, 17025.17, 187500.00, 187500.00, 187500.00, -187500.02, -187500.02, -187500.02, 0.000, 0.000, 0.000, 22:45:33.069
50, 6579.64, 11347.38, 187500.00, 187500.00, 187500.00, -187500.02, -187500.02, -187500.02, 0.000, 0.000, 0.000, 22:45:33.069
51, 9335.72, 15746.76, 187500.00, 187500.00, 187500.00, -187500.02, -187500.02, -187500.02, 0.000, 0.000, 0.000, 22:45:33.069
52, 11970.77, 22390.39, 187500.00, 187500.00, 187500.00, -187500.02, -187500.02, -187500.02, 0.000, 0.000, 0.000, 22:45:33.069
53, 9300.31, 18576.85, 187500.00, 187500.00, 187500.00, -187500.02, -187500.02, -187500.02, 0.000, 0.000, 0.000, 22:45:33.069
54, 6504.11, 11550.62, 187500.00, 187500.00, 187500.00, -187500.02, -187500.02, -187500.02, 0.000, 0.000, 0.000, 22:45:33.069
55, 8702.16, 14454.67, 187500.00, 187500.00, 187500.00, -187500.02, -187500.02, -187500.02, 0.000, 0.000, 0.000, 22:45:33.069
56, 11833.97, 21721.36, 187500.00, 187500.00, 187500.00, -187500.02, -187500.02, -187500.02, 0.140, 1.008, -0.100, 22:45:33.069
57, 10079.83, 20057.29, 187500.00, 187500.00, 187500.00, -187500.02, -187500.02, -187500.02, 0.000, 0.000, 0.000, 22:45:33.069
58, 6607.76, 12169.09, 187500.00, 187500.00, 187500.00, -187500.02, -187500.02, -187500.02, 0.000, 0.000, 0.000, 22:45:33.069
59, 8064.42, 13340.39, 187500.00, 187500.00, 187500.00, -187500.02, -187500.02, -187500.02, 0.000, 0.000, 0.000, 22:45:33.069
60, 11483.12, 20717.41, 187500.00, 187500.00, 187500.00, -187500.02, -187500.02, -187500.02, 0.000, 0.000, 0.000, 22:45:33.069
61, 10784.83, 21268.18, 187500.00, 187500.00, 187500.00, -187500.02, -187500.02, -187500.02, 0.000, 0.000, 0.000, 22:45:33.069
62, 6917.48, 13100.87, 187500.00, 187500.00, 187500.00, -187500.02, -187500.02, -187500.02, 0.000, 0.000, 0.000, 22:45:33.070
63, 7543.18, 12444.87, 187500.00, 187500.00, 187500.00, -187500.02, -187500.02, -187500.02, 0.000, 0.000, 0.000, 22:45:33.070
64, 11035.41, 19542.02, 187500.00, 187500.00, 187500.00, -187500.02, -187500.02, -187500.02, 0.000, 0.000, 0.000, 22:45:33.070
65, 11372.66, 22179.14, 187500.00, 187500.00, 187500.00, -187500.02, -187500.02, -187500.02, 0.000, 0.000, 0.000, 22:45:33.070
66, 7384.95, 14386.41, 187500.00, 187500.00, 187500.00, -187500.02, -187500.02, -187500.02, 0.144, 1.002, -0.110, 22:45:33.070
67, 7077.14, 11801.85, 187500.00, 187500.00, 187500.00, -187500.02, -187500.02, -187500.02, 0.000, 0.000, 0.000, 22:45:33.070
68, 10458.81, 18197.52, 187500.00, 187500.00, 187500.00, -187500.02, -187500.02, -187500.02, 0.000, 0.000, 0.000, 22:45:33.070
69, 11764.91, 22633.11, 187500.00, 187500.00, 187500.00, -187500.02, -187500.02, -187500.02, 0.000, 0.000, 0.000, 22:45:33.070
70, 8008.25, 15815.71, 187500.00, 187500.00, 187500.00, -187500.02, -187500.02, -187500.02, 0.000, 0.000, 0.000, 22:45:33.070
71, 6742.36, 11404.62, 187500.00, 187500.00, 187500.00, -187500.02, -187500.02, -187500.02, 0.000, 0.000, 0.000, 22:45:33.070
72, 9835.17, 16783.43, 187500.00, 187500.00, 187500.00, -187500.02, -187500.02, -187500.02, 0.000, 0.000, 0.000, 22:45:33.070
73, 11970.28, 22654.97, 187500.00, 187500.00, 187500.00, -187500.02, -187500.02, -187500.02, 0.000, 0.000, 0.000, 22:45:33.070
74, 8738.19, 17422.67, 187500.00, 187500.00, 187500.00, -187500.02, -187500.02, -187500.02, 0.000, 0.000, 0.000, 22:45:33.540
75, 6540.92, 11379.14, 187500.00, 187500.00, 187500.00, -187500.02, -187500.02, -187500.02, 0.000, 0.000, 0.000, 22:45:33.541
76, 9165.53, 15421.72, 187500.00, 187500.00, 187500.00, -187500.02, -187500.02, -187500.02, 0.142, 1.004, -0.114, 22:45:33.541
77, 11939.41, 22244.19, 187500.00, 187500.00, 187500.00, -187500.02, -187500.02, -187500.02, 0.000, 0.000, 0.000, 22:45:33.541
78, 9478.77, 18955.55, 187500.00, 187500.00, 187500.00, -187500.02, -187500.02, -187500.02, 0.000, 0.000, 0.000, 22:45:33.541
79, 6479.84, 11673.29, 187500.00, 187500.00, 187500.00, -187500.02, -187500.02, -187500.02, 0.000, 0.000, 0.000, 22:45:33.541
80, 8502.49, 14151.36, 187500.00, 187500.00, 187500.00, -187500.02, -187500.02, -187500.02, 0.000, 0.000, 0.000, 22:45:33.541
81, 11733.73, 21470.88, 187500.00, 187500.00, 187500.00, -187500.02, -187500.02, -187500.02, 0.000, 0.000, 0.000, 22:45:33.541
82, 10243.56, 20371.36, 187500.00, 187500.00, 187500.00, -187500.02, -187500.02, -187500.02, 0.000, 0.000, 0.000, 22:45:33.541
83, 6663.77, 12364.25, 187500.00, 187500.00, 187500.00, -187500.02, -187500.02, -187500.02, 0.000, 0.000, 0.000, 22:45:33.542
84, 7935.23, 13092.56, 187500.00, 187500.00, 187500.00, -187500.02, -187500.02, -187500.02, 0.000, 0.000, 0.000, 22:45:33.542
85, 11377.84, 20424.44, 187500.00, 187500.00, 187500.00, -187500.02, -187500.02, -187500.02, 0.000, 0.000, 0.000, 22:45:33.542
86, 10915.52, 21506.22, 187500.00, 187500.00, 187500.00, -187500.02, -187500.02, -187500.02, 0.140, 1.002, -0.108, 22:45:33.542
87, 6974.75, 13371.19, 187500.00, 187500.00, 187500.00, -187500.02, -187500.02, -187500.02, 0.000, 0.000, 0.000, 22:45:33.542
88, 7388.68, 12236.08, 187500.00, 187500.00, 187500.00, -187500.02, -187500.02, -187500.02, 0.000, 0.000, 0.000, 22:45:33.542
89, 10865.16, 19169.59, 187500.00, 187500.00, 187500.00, -187500.02, -187500.02, -187500.02, 0.000, 0.000, 0.000, 22:45:33.542
90, 11440.38, 22272.08, 187500.00, 187500.00, 187500.00, -187500.02, -187500.02, -187500.02, 0.000, 0.000, 0.000, 22:45:33.542
91, 7512.96, 14709.86, 187500.00, 187500.00, 187500.00, -187500.02, -187500.02, -187500.02, 0.000, 0.000, 0.000, 22:45:33.542
92, 6967.84, 11685.54, 187500.00, 187500.00, 187500.00, -187500.02, -187500.02, -187500.02, 0.000, 0.000, 0.000, 22:45:33.543
93, 10281.49, 17826.99, 187500.00, 187500.00, 187500.00, -187500.02, -187500.02, -187500.02, 0.000, 0.000, 0.000, 22:45:33.543
94, 11803.26, 22645.24, 187500.00, 187500.00, 187500.00, -187500.02, -187500.02, -187500.02, 0.000, 0.000, 0.000, 22:45:33.543
95, 8154.21, 16203.47, 187500.00, 187500.00, 187500.00, -187500.02, -187500.02, -187500.02, 0.000, 0.000, 0.000, 22:45:33.543
96, 6665.65, 11378.69, 187500.00, 187500.00, 187500.00, -187500.02, -187500.02, -187500.02, 0.138, 1.006, -0.108, 22:45:33.543
97, 9652.18, 16448.13, 187500.00, 187500.00, 187500.00, -187500.02, -187500.02, -187500.02, 0.000, 0.000, 0.000, 22:45:33.543
98, 11962.30, 22569.29, 187500.00, 187500.00, 187500.00, -187500.02, -187500.02, -187500.02, 0.000, 0.000, 0.000, 22:45:33.543
99, 8917.74, 17794.60, 187500.00, 187500.00, 187500.00, -187500.02, -187500.02, -187500.02, 0.000, 0.000, 0.000, 22:45:33.543
100, 6516.83, 11432.13, 187500.00, 187500.00, 187500.00, -187500.02, -187500.02, -187500.02, 0.000, 0.000, 0.000, 22:45:33.543
101, 9017.21, 15104.82, 187500.00, 187500.00, 187500.00, -187500.02, -187500.02, -187500.02, 0.000, 0.000, 0.000, 22:45:33.543
102, 11923.34, 22071.01, 187500.00, 187500.00, 187500.00, -187500.02, -187500.02, -187500.02, 0.000, 0.000, 0.000, 22:45:33.543
103, 9667.49, 19320.67, 187500.00, 187500.00, 187500.00, -187500.02, -187500.02, -187500.02, 0.000, 0.000, 0.000, 22:45:33.543
104, 6515.89, 11844.70, 187500.00, 187500.00, 187500.00, -187500.02, -187500.02, -187500.02, 0.000, 0.000, 0.000, 22:45:33.543
105, 8388.54, 13901.80, 187500.00, 187500.00, 187500.00, -187500.02, -187500.02, -187500.02, 0.000, 0.000, 0.000, 22:45:33.544
106, 11675.97, 21243.66, 187500.00, 187500.00, 187500.00, -187500.02, -187500.02, -187500.02, 0.130, 1.008, -0.100, 22:45:33.544
107, 10419.29, 20676.59, 187500.00, 187500.00, 187500.00, -187500.02, -187500.02, -187500.02, 0.000, 0.000, 0.000, 22:45:33.544
108, 6714.02, 12613.58, 187500.00, 187500.00, 187500.00, -187500.02, -187500.02, -187500.02, 0.000, 0.000, 0.000, 22:45:33.544
109, 7775.08, 12897.27, 187500.00, 187500.00, 187500.00, -187500.02, -187500.02, -187500.02, 0.000, 0.000, 0.000, 22:45:33.544
110, 11245.68, 20138.83, 187500.00, 187500.00, 187500.00, -187500.02, -187500.02, -187500.02, 0.000, 0.000, 0.000, 22:45:33.544
111, 11063.51, 21720.84, 187500.00, 187500.00, 187500.00, -187500.02, -187500.02, -187500.02, 0.000, 0.000, 0.000, 22:45:33.544
112, 7099.52, 13709.91, 187500.00, 187500.00, 187500.00, -187500.02, -187500.02, -187500.02, 0.000, 0.000, 0.000, 22:45:33.544
113, 7278.96, 12114.73, 187500.00, 187500.00, 187500.00, -187500.02, -187500.02, -187500.02, 0.000, 0.000, 0.000, 22:45:33.544
114, 10742.20, 18888.27, 187500.00, 187500.00, 187500.00, -187500.02, -187500.02, -187500.02, 0.000, 0.000, 0.000, 22:45:33.544
115, 11547.31, 22407.71, 187500.00, 187500.00, 187500.00, -187500.02, -187500.02, -187500.02, 0.138, 1.008, -0.108, 22:45:33.544
116, 7643.13, 15073.30, 187500.00, 187500.00, 187500.00, -187500.02, -187500.02, -187500.02, 0.000, 0.000, 0.000, 22:45:33.544
117, 6882.97, 11607.98, 187500.00, 187500.00, 187500.00, -187500.02, -187500.02, -187500.02, 0.000, 0.000, 0.000, 22:45:33.544
118, 10144.05, 17500.99, 187500.00, 187500.00, 187500.00, -187500.02, -187500.02, -187500.02, 0.000, 0.000, 0.000, 22:45:33.545
119, 11865.51, 22644.28, 187500.00, 187500.00, 187500.00, -187500.02, -187500.02, -187500.02, 0.000, 0.000, 0.000, 22:45:33.545
120, 8340.26, 16593.20, 187500.00, 187500.00, 187500.00, -187500.02, -187500.02, -187500.02, 0.000, 0.000, 0.000, 22:45:33.545
121, 6622.29, 11398.45, 187500.00, 187500.00, 187500.00, -187500.02, -187500.02, -187500.02, 0.000, 0.000, 0.000, 22:45:33.545
122, 9486.19, 16119.81, 187500.00, 187500.00, 187500.00, -187500.02, -187500.02, -187500.02, 0.000, 0.000, 0.000, 22:45:33.545
123, 11952.17, 22458.21, 187500.00, 187500.00, 187500.00, -187500.02, -187500.02, -187500.02, 0.000, 0.000, 0.000, 22:45:33.545
124, 9097.00, 18166.76, 187500.00, 187500.00, 187500.00, -187500.02, -187500.02, -187500.02, 0.000, 0.000, 0.000, 22:45:33.545
125, 6508.51, 11537.14, 187500.00, 187500.00, 187500.00, -187500.02, -187500.02, -187500.02, 0.142, 1.006, -0.106, 22:45:33.545
126, 8858.22, 14842.65, 187500.00, 187500.00, 187500.00, -187500.02, -187500.02, -187500.02, 0.000, 0.000, 0.000, 22:45:33.545
127, 11869.78, 21922.10, 187500.00, 187500.00, 187500.00, -187500.02, -187500.02, -187500.02, 0.000, 0.000, 0.000, 22:45:33.545
128, 9875.38, 19698.81, 187500.00, 187500.00, 187500.00, -187500.02, -187500.02, -187500.02, 0.000, 0.000, 0.000, 22:45:33.545
129, 6567.52, 12041.80, 187500.00, 187500.00, 187500.00, -187500.02, -187500.02, -187500.02, 0.000, 0.000, 0.000, 22:45:33.545
130, 8213.24, 13664.09, 187500.00, 187500.00, 187500.00, -187500.02, -187500.02, -187500.02, 0.000, 0.000, 0.000, 22:45:33.546
131, 11583.59, 20993.29, 187500.00, 187500.00, 187500.00, -187500.02, -187500.02, -187500.02, 0.000, 0.000, 0.000, 22:45:33.546
132, 10616.16, 20957.87, 187500.00, 187500.00, 187500.00, -187500.02, -187500.02, -187500.02, 0.000, 0.000, 0.000, 22:45:33.546
133, 6808.90, 12857.82, 187500.00, 187500.00, 187500.00, -187500.02, -187500.02, -187500.02, 0.000, 0.000, 0.000, 22:45:33.546
134, 7656.05, 12684.75, 187500.00, 187500.00, 187500.00, -187500.02, -187500.02, -187500.02, 0.000, 0.000, 0.000, 22:45:33.546
135, 11161.77, 19832.34, 187500.00, 187500.00, 187500.00, -187500.02, -187500.02, -187500.02, 0.144, 1.002, -0.114, 22:45:33.546
136, 11238.28, 21908.53, 187500.00, 187500.00, 187500.00, -187500.02, -187500.02, -187500.02, 0.000, 0.000, 0.000, 22:45:33.546
137, 7249.48, 14018.86, 187500.00, 187500.00, 187500.00, -187500.02, -187500.02, -187500.02, 0.000, 0.000, 0.000, 22:45:33.546
138, 7177.46, 11954.18, 187500.00, 187500.00, 187500.00, -187500.02, -187500.02, -187500.02, 0.000, 0.000, 0.000, 22:45:33.546
139, 10610.10, 18510.11, 187500.00, 187500.00, 187500.00, -187500.02, -187500.02, -187500.02, 0.000, 0.000, 0.000, 22:45:33.546
140, 11697.49, 22497.88, 187500.00, 187500.00, 187500.00, -187500.02, -187500.02, -187500.02, 0.000, 0.000, 0.000, 22:45:33.546
141, 7847.47, 15452.41, 187500.00, 187500.00, 187500.00, -187500.02, -187500.02, -187500.02, 0.000, 0.000, 0.000, 22:45:33.546
142, 6829.17, 11529.77, 187500.00, 187500.00, 187500.00, -187500.02, -187500.02, -187500.02, 0.000, 0.000, 0.000, 22:45:33.546
143, 10002.14, 17149.58, 187500.00, 187500.00, 187500.00, -187500.02, -187500.02, -187500.02, 0.000, 0.000, 0.000, 22:45:33.547
144, 11932.28, 22639.77, 187500.00, 187500.00, 187500.00, -187500.02, -187500.02, -187500.02, 0.000, 0.000, 0.000, 22:45:33.547
145, 8545.50, 16982.21, 187500.00, 187500.00, 187500.00, -187500.02, -187500.02, -187500.02, 0.140, 1.002, -0.108, 22:45:33.547
146, 6602.62, 11404.66, 187500.00, 187500.00, 187500.00, -187500.02, -187500.02, -187500.02, 0.000, 0.000, 0.000, 22:45:33.547
147, 9361.49, 15822.20, 187500.00, 187500.00, 187500.00, -187500.02, -187500.02, -187500.02, 0.000, 0.000, 0.000, 22:45:33.547
148, 11984.16, 22371.30, 187500.00, 187500.00, 187500.00, -187500.02, -187500.02, -187500.02, 0.000, 0.000, 0.000, 22:45:33.547
149, 9313.70, 18562.07, 187500.00, 187500.00, 187500.00, -187500.02, -187500.02, -187500.02, 0.000, 0.000, 0.000, 22:45:33.547
150, 6521.28, 11629.14, 187500.00, 187500.00, 187500.00, -187500.02, -187500.02, -187500.02, 0.000, 0.000, 0.000, 22:45:33.547
151, 8702.81, 14525.73, 187500.00, 187500.00, 187500.00, -187500.02, -187500.02, -187500.02, 0.000, 0.000, 0.000, 22:45:33.547
152, 11808.63, 21690.62, 187500.00, 187500.00, 187500.00, -187500.02, -187500.02, -187500.02, 0.000, 0.000, 0.000, 22:45:33.547
153, 10060.16, 20015.23, 187500.00, 187500.00, 187500.00, -187500.02, -187500.02, -187500.02, 0.000, 0.000, 0.000, 22:45:33.547
154, 6607.85, 12212.50, 187500.00, 187500.00, 187500.00, -187500.02, -187500.02, -187500.02, 0.000, 0.000, 0.000, 22:45:33.547
155, 8085.68, 13416.54, 187500.00, 187500.00, 187500.00, -187500.02, -187500.02, -187500.02, 0.138, 1.008, -0.108, 22:45:33.548
156, 11479.32, 20717.23, 187500.00, 187500.00, 187500.00, -187500.02, -187500.02, -187500.02, 0.000, 0.000, 0.000, 22:45:33.548
157, 10746.76, 21212.12, 187500.00, 187500.00, 187500.00, -187500.02, -187500.02, -187500.02, 0.000, 0.000, 0.000, 22:45:33.548
158, 6878.70, 13140.81, 187500.00, 187500.00, 187500.00, -187500.02, -187500.02, -187500.02, 0.000, 0.000, 0.000, 22:45:33.548
159, 7511.28, 12510.76, 187500.00, 187500.00, 187500.00, -187500.02, -187500.02, -187500.02, 0.000, 0.000, 0.000, 22:45:33.548
160, 11010.42, 19517.45, 187500.00, 187500.00, 187500.00, -187500.02, -187500.02, -187500.02, 0.000, 0.000, 0.000, 22:45:33.548
161, 11313.71, 22064.17, 187500.00, 187500.00, 187500.00, -187500.02, -187500.02, -187500.02, 0.000, 0.000, 0.000, 22:45:33.548
162, 7367.20, 14344.81, 187500.00, 187500.00, 187500.00, -187500.02, -187500.02, -187500.02, 0.000, 0.000, 0.000, 22:45:33.548
163, 7078.89, 11831.99, 187500.00, 187500.00, 187500.00, -187500.02, -187500.02, -187500.02, 0.000, 0.000, 0.000, 22:45:33.548
164, 10474.00, 18194.54, 187500.00, 187500.00, 187500.00, -187500.02, -187500.02, -187500.02, 0.000, 0.000, 0.000, 22:45:33.548
165, 11742.56, 22554.90, 187500.00, 187500.00, 187500.00, -187500.02, -187500.02, -187500.02, 0.142, 1.004, -0.110, 22:45:33.549
166, 7971.84, 15813.48, 187500.00, 187500.00, 187500.00, -187500.02, -187500.02, -187500.02, 0.000, 0.000, 0.000, 22:45:33.549
167, 6747.41, 11512.06, 187500.00, 187500.00, 187500.00, -187500.02, -187500.02, -187500.02, 0.000, 0.000, 0.000, 22:45:33.549
168, 9836.20, 16832.83, 187500.00, 187500.00, 187500.00, -187500.02, -187500.02, -187500.02, 0.000, 0.000, 0.000, 22:45:33.549
169, 11966.50, 22588.52, 187500.00, 187500.00, 187500.00, -187500.02, -187500.02, -187500.02, 0.000, 0.000, 0.000, 22:45:33.549
170, 8733.36, 17390.51, 187500.00, 187500.00, 187500.00, -187500.02, -187500.02, -187500.02, 0.000, 0.000, 0.000, 22:45:33.549
171, 6566.20, 11470.42, 187500.00, 187500.00, 187500.00, -187500.02, -187500.02, -187500.02, 0.000, 0.000, 0.000, 22:45:33.549
172, 9193.81, 15486.99, 187500.00, 187500.00, 187500.00, -187500.02, -187500.02, -187500.02, 0.000, 0.000, 0.000, 22:45:33.549
173, 11956.08, 22212.27, 187500.00, 187500.00, 187500.00, -187500.02, -187500.02, -187500.02, 0.000, 0.000, 0.000, 22:45:33.549
174, 9507.90, 18942.05, 187500.00, 187500.00, 187500.00, -187500.02, -187500.02, -187500.02, 0.000, 0.000, 0.000, 22:45:33.549
