%OpenBCI Raw EEG Data
%
%Sample Rate = 250.0 Hz
%First Column = SampleIndex
%Last Column = Timestamp 
%Other Columns = EEG data in microvolts followed by Accel Data (in G) interleaved with Aux Data
0, 0.00, 0.00, 0.00, 0.00, 0.00, 0.00, 0.00, 0.00, 0.050, 1.000, -0.036, 22:57:38.268
1, 24645.64, 30855.11, 187500.00, 187500.00, 187500.00, -187500.02, -187500.02, -187500.02, 0.000, 0.000, 0.000, 22:57:38.745
2, 24680.42, 31776.38, 187500.00, 187500.00, 187500.00, -187500.02, -187500.02, -187500.02, 0.000, 0.000, 0.000, 22:57:38.745
3, 24682.74, 31761.47, 187500.00, 187500.00, 187500.00, -187500.02, -187500.02, -187500.02, 0.000, 0.000, 0.000, 22:57:38.746
4, 24665.02, 30961.32, 187500.00, 187500.00, 187500.00, -187500.02, -187500.02, -187500.02, 0.000, 0.000, 0.000, 22:57:38.746
5, 24629.01, 30757.34, 187500.00, 187500.00, 187500.00, -187500.02, -187500.02, -187500.02, 0.000, 0.000, 0.000, 22:57:38.746
6, 24631.98, 31650.87, 187500.00, 187500.00, 187500.00, -187500.02, -187500.02, -187500.02, 0.000, 0.000, 0.000, 22:57:38.746
7, 24640.05, 31840.44, 187500.00, 187500.00, 187500.00, -187500.02, -187500.02, -187500.02, 0.064, 1.002, -0.056, 22:57:38.746
8, 24661.82, 31095.90, 187500.00, 187500.00, 187500.00, -187500.02, -187500.02, -187500.02, 0.000, 0.000, 0.000, 22:57:38.746
9, 24648.56, 30676.18, 187500.00, 187500.00, 187500.00, -187500.02, -187500.02, -187500.02, 0.000, 0.000, 0.000, 22:57:38.746
10, 24651.87, 31486.34, 187500.00, 187500.00, 187500.00, -187500.02, -187500.02, -187500.02, 0.000, 0.000, 0.000, 22:57:38.746
11, 24664.66, 31876.85, 187500.00, 187500.00, 187500.00, -187500.02, -187500.02, -187500.02, 0.000, 0.000, 0.000, 22:57:38.746
12, 24680.15, 31254.35, 187500.00, 187500.00, 187500.00, -187500.02, -187500.02, -187500.02, 0.000, 0.000, 0.000, 22:57:38.746
13, 24656.28, 30656.67, 187500.00, 187500.00, 187500.00, -187500.02, -187500.02, -187500.02, 0.000, 0.000, 0.000, 22:57:38.747
14, 24643.94, 31300.18, 187500.00, 187500.00, 187500.00, -187500.02, -187500.02, -187500.02, 0.000, 0.000, 0.000, 22:57:38.747
15, 24639.31, 31878.46, 187500.00, 187500.00, 187500.00, -187500.02, -187500.02, -187500.02, 0.000, 0.000, 0.000, 22:57:38.747
16, 24655.36, 31394.77, 187500.00, 187500.00, 187500.00, -187500.02, -187500.02, -187500.02, 0.000, 0.000, 0.000, 22:57:38.747
17, 24642.42, 30685.95, 187500.00, 187500.00, 187500.00, -187500.02, -187500.02, -187500.02, 0.064, 1.008, -0.058, 22:57:38.747
18, 24642.42, 31129.09, 187500.00, 187500.00, 187500.00, -187500.02, -187500.02, -187500.02, 0.000, 0.000, 0.000, 22:57:38.747
19, 24652.14, 31842.45, 187500.00, 187500.00, 187500.00, -187500.02, -187500.02, -187500.02, 0.000, 0.000, 0.000, 22:57:38.747
20, 24660.72, 31509.59, 187500.00, 187500.00, 187500.00, -187500.02, -187500.02, -187500.02, 0.000, 0.000, 0.000, 22:57:38.747
21, 24657.04, 30730.56, 187500.00, 187500.00, 187500.00, -187500.02, -187500.02, -187500.02, 0.000, 0.000, 0.000, 22:57:38.748
22, 24650.24, 30947.64, 187500.00, 187500.00, 187500.00, -187500.02, -187500.02, -187500.02, 0.000, 0.000, 0.000, 22:57:38.748
23, 24649.10, 31773.14, 187500.00, 187500.00, 187500.00, -187500.02, -187500.02, -187500.02, 0.000, 0.000, 0.000, 22:57:38.748
24, 24647.29, 31600.54, 187500.00, 187500.00, 187500.00, -187500.02, -187500.02, -187500.02, 0.000, 0.000, 0.000, 22:57:38.748
25, 24636.56, 30790.80, 187500.00, 187500.00, 187500.00, -187500.02, -187500.02, -187500.02, 0.000, 0.000, 0.000, 22:57:38.748
26, 24628.60, 30780.18, 187500.00, 187500.00, 187500.00, -187500.02, -187500.02, -187500.02, 0.000, 0.000, 0.000, 22:57:38.748
27, 24624.45, 31631.81, 187500.00, 187500.00, 187500.00, -187500.02, -187500.02, -187500.02, 0.072, 1.010, -0.066, 22:57:38.748
28, 24634.77, 31688.07, 187500.00, 187500.00, 187500.00, -187500.02, -187500.02, -187500.02, 0.000, 0.000, 0.000, 22:57:38.748
29, 24660.25, 30946.23, 187500.00, 187500.00, 187500.00, -187500.02, -187500.02, -187500.02, 0.000, 0.000, 0.000, 22:57:38.748
30, 24660.14, 30715.83, 187500.00, 187500.00, 187500.00, -187500.02, -187500.02, -187500.02, 0.000, 0.000, 0.000, 22:57:38.748
31, 24634.62, 31555.41, 187500.00, 187500.00, 187500.00, -187500.02, -187500.02, -187500.02, 0.000, 0.000, 0.000, 22:57:38.748
32, 24628.78, 31773.79, 187500.00, 187500.00, 187500.00, -187500.02, -187500.02, -187500.02, 0.000, 0.000, 0.000, 22:57:38.749
33, 24643.67, 31079.63, 187500.00, 187500.00, 187500.00, -187500.02, -187500.02, -187500.02, 0.000, 0.000, 0.000, 22:57:38.749
34, 24655.56, 30644.69, 187500.00, 187500.00, 187500.00, -187500.02, -187500.02, -187500.02, 0.000, 0.000, 0.000, 22:57:38.749
35, 24646.40, 31392.20, 187500.00, 187500.00, 187500.00, -187500.02, -187500.02, -187500.02, 0.000, 0.000, 0.000, 22:57:38.749
36, 24659.88, 31824.05, 187500.00, 187500.00, 187500.00, -187500.02, -187500.02, -187500.02, 0.000, 0.000, 0.000, 22:57:38.749
37, 24682.61, 31253.91, 187500.00, 187500.00, 187500.00, -187500.02, -187500.02, -187500.02, 0.076, 1.010, -0.062, 22:57:38.749
38, 24663.43, 30637.56, 187500.00, 187500.00, 187500.00, -187500.02, -187500.02, -187500.02, 0.000, 0.000, 0.000, 22:57:38.749
39, 24660.70, 31228.16, 187500.00, 187500.00, 187500.00, -187500.02, -187500.02, -187500.02, 0.000, 0.000, 0.000, 22:57:38.749
40, 24655.22, 31832.24, 187500.00, 187500.00, 187500.00, -187500.02, -187500.02, -187500.02, 0.000, 0.000, 0.000, 22:57:38.749
41, 24661.93, 31377.85, 187500.00, 187500.00, 187500.00, -187500.02, -187500.02, -187500.02, 0.000, 0.000, 0.000, 22:57:38.749
42, 24658.11, 30661.92, 187500.00, 187500.00, 187500.00, -187500.02, -187500.02, -187500.02, 0.000, 0.000, 0.000, 22:57:38.749
43, 24650.35, 31062.31, 187500.00, 187500.00, 187500.00, -187500.02, -187500.02, -187500.02, 0.000, 0.000, 0.000, 22:57:38.750
44, 24646.73, 31794.06, 187500.00, 187500.00, 187500.00, -187500.02, -187500.02, -187500.02, 0.000, 0.000, 0.000, 22:57:38.750
45, 24656.86, 31505.30, 187500.00, 187500.00, 187500.00, -187500.02, -187500.02, -187500.02, 0.000, 0.000, 0.000, 22:57:38.750
46, 24654.82, 30744.20, 187500.00, 187500.00, 187500.00, -187500.02, -187500.02, -187500.02, 0.000, 0.000, 0.000, 22:57:38.750
47, 24643.42, 30913.56, 187500.00, 187500.00, 187500.00, -187500.02, -187500.02, -187500.02, 0.080, 1.010, -0.064, 22:57:38.750
48, 24634.08, 31732.81, 187500.00, 187500.00, 187500.00, -187500.02, -187500.02, -187500.02, 0.000, 0.000, 0.000, 22:57:38.750
49, 24644.34, 31607.18, 187500.00, 187500.00, 187500.00, -187500.02, -187500.02, -187500.02, 0.000, 0.000, 0.000, 22:57:38.750
50, 24664.08, 30832.84, 187500.00, 187500.00, 187500.00, -187500.02, -187500.02, -187500.02, 0.000, 0.000, 0.000, 22:57:38.750
51, 24641.97, 30756.58, 187500.00, 187500.00, 187500.00, -187500.02, -187500.02, -187500.02, 0.000, 0.000, 0.000, 22:57:38.750
52, 24635.73, 31640.97, 187500.00, 187500.00, 187500.00, -187500.02, -187500.02, -187500.02, 0.000, 0.000, 0.000, 22:57:38.750
53, 24647.89, 31734.11, 187500.00, 187500.00, 187500.00, -187500.02, -187500.02, -187500.02, 0.000, 0.000, 0.000, 22:57:38.750
54, 24654.38, 30978.64, 187500.00, 187500.00, 187500.00, -187500.02, -187500.02, -187500.02, 0.000, 0.000, 0.000, 22:57:38.750
55, 24613.63, 30685.90, 187500.00, 187500.00, 187500.00, -187500.02, -187500.02, -187500.02, 0.000, 0.000, 0.000, 22:57:38.751
56, 24596.57, 31529.77, 187500.00, 187500.00, 187500.00, -187500.02, -187500.02, -187500.02, 0.000, 0.000, 0.000, 22:57:38.751
57, 24630.57, 31818.67, 187500.00, 187500.00, 187500.00, -187500.02, -187500.02, -187500.02, 0.074, 1.006, -0.062, 22:57:38.751
58, 24667.00, 31183.57, 187500.00, 187500.00, 187500.00, -187500.02, -187500.02, -187500.02, 0.000, 0.000, 0.000, 22:57:38.751
59, 24685.45, 30725.06, 187500.00, 187500.00, 187500.00, -187500.02, -187500.02, -187500.02, 0.000, 0.000, 0.000, 22:57:38.751
60, 24664.99, 31434.02, 187500.00, 187500.00, 187500.00, -187500.02, -187500.02, -187500.02, 0.000, 0.000, 0.000, 22:57:38.751
61, 24633.95, 31879.42, 187500.00, 187500.00, 187500.00, -187500.02, -187500.02, -187500.02, 0.000, 0.000, 0.000, 22:57:38.751
62, 24657.39, 31333.32, 187500.00, 187500.00, 187500.00, -187500.02, -187500.02, -187500.02, 0.000, 0.000, 0.000, 22:57:38.751
63, 24658.85, 30706.67, 187500.00, 187500.00, 187500.00, -187500.02, -187500.02, -187500.02, 0.000, 0.000, 0.000, 22:57:38.752
64, 24627.67, 31239.71, 187500.00, 187500.00, 187500.00, -187500.02, -187500.02, -187500.02, 0.000, 0.000, 0.000, 22:57:38.752
65, 24632.36, 31863.97, 187500.00, 187500.00, 187500.00, -187500.02, -187500.02, -187500.02, 0.000, 0.000, 0.000, 22:57:38.752
66, 24681.20, 31483.01, 187500.00, 187500.00, 187500.00, -187500.02, -187500.02, -187500.02, 0.000, 0.000, 0.000, 22:57:38.753
67, 24690.38, 30767.13, 187500.00, 187500.00, 187500.00, -187500.02, -187500.02, -187500.02, 0.080, 1.006, -0.064, 22:57:38.753
68, 24652.41, 31086.87, 187500.00, 187500.00, 187500.00, -187500.02, -187500.02, -187500.02, 0.000, 0.000, 0.000, 22:57:38.753
69, 24635.27, 31827.50, 187500.00, 187500.00, 187500.00, -187500.02, -187500.02, -187500.02, 0.000, 0.000, 0.000, 22:57:38.753
70, 24636.03, 31575.50, 187500.00, 187500.00, 187500.00, -187500.02, -187500.02, -187500.02, 0.000, 0.000, 0.000, 22:57:38.753
71, 24672.64, 30827.05, 187500.00, 187500.00, 187500.00, -187500.02, -187500.02, -187500.02, 0.000, 0.000, 0.000, 22:57:38.753
72, 24633.74, 30924.71, 187500.00, 187500.00, 187500.00, -187500.02, -187500.02, -187500.02, 0.000, 0.000, 0.000, 22:57:38.753
73, 24601.11, 31727.14, 187500.00, 187500.00, 187500.00, -187500.02, -187500.02, -187500.02, 0.000, 0.000, 0.000, 22:57:38.753
74, 24645.10, 31688.47, 187500.00, 187500.00, 187500.00, -187500.02, -187500.02, -187500.02, 0.000, 0.000, 0.000, 22:57:38.753
75, 24677.58, 30950.64, 187500.00, 187500.00, 187500.00, -187500.02, -187500.02, -187500.02, 0.000, 0.000, 0.000, 22:57:38.753
76, 24649.73, 30822.99, 187500.00, 187500.00, 187500.00, -187500.02, -187500.02, -187500.02, 0.082, 1.012, -0.070, 22:57:38.754
77, 24619.69, 31663.46, 187500.00, 187500.00, 187500.00, -187500.02, -187500.02, -187500.02, 0.000, 0.000, 0.000, 22:57:38.754
78, 24605.38, 31770.12, 187500.00, 187500.00, 187500.00, -187500.02, -187500.02, -187500.02, 0.000, 0.000, 0.000, 22:57:38.754
79, 24636.85, 31074.24, 187500.00, 187500.00, 187500.00, -187500.02, -187500.02, -187500.02, 0.000, 0.000, 0.000, 22:57:38.754
80, 24664.66, 30763.67, 187500.00, 187500.00, 187500.00, -187500.02, -187500.02, -187500.02, 0.000, 0.000, 0.000, 22:57:38.754
81, 24636.27, 31529.46, 187500.00, 187500.00, 187500.00, -187500.02, -187500.02, -187500.02, 0.000, 0.000, 0.000, 22:57:38.754
82, 24633.70, 31838.25, 187500.00, 187500.00, 187500.00, -187500.02, -187500.02, -187500.02, 0.000, 0.000, 0.000, 22:57:38.754
83, 24645.68, 31216.42, 187500.00, 187500.00, 187500.00, -187500.02, -187500.02, -187500.02, 0.000, 0.000, 0.000, 22:57:38.755
84, 24638.04, 30696.59, 187500.00, 187500.00, 187500.00, -187500.02, -187500.02, -187500.02, 0.000, 0.000, 0.000, 22:57:38.755
85, 24628.20, 31360.68, 187500.00, 187500.00, 187500.00, -187500.02, -187500.02, -187500.02, 0.000, 0.000, 0.000, 22:57:38.755
86, 24629.86, 31857.61, 187500.00, 187500.00, 187500.00, -187500.02, -187500.02, -187500.02, 0.088, 1.012, -0.068, 22:57:38.755
87, 24648.41, 31339.11, 187500.00, 187500.00, 187500.00, -187500.02, -187500.02, -187500.02, 0.000, 0.000, 0.000, 22:57:38.755
88, 24675.16, 30715.19, 187500.00, 187500.00, 187500.00, -187500.02, -187500.02, -187500.02, 0.000, 0.000, 0.000, 22:57:38.755
89, 24639.40, 31197.31, 187500.00, 187500.00, 187500.00, -187500.02, -187500.02, -187500.02, 0.000, 0.000, 0.000, 22:57:38.756
90, 24603.75, 31831.74, 187500.00, 187500.00, 187500.00, -187500.02, -187500.02, -187500.02, 0.000, 0.000, 0.000, 22:57:38.756
91, 24639.18, 31473.76, 187500.00, 187500.00, 187500.00, -187500.02, -187500.02, -187500.02, 0.000, 0.000, 0.000, 22:57:38.756
92, 24667.03, 30769.14, 187500.00, 187500.00, 187500.00, -187500.02, -187500.02, -187500.02, 0.000, 0.000, 0.000, 22:57:38.756
93, 24633.28, 31042.68, 187500.00, 187500.00, 187500.00, -187500.02, -187500.02, -187500.02, 0.000, 0.000, 0.000, 22:57:38.756
94, 24594.92, 31791.60, 187500.00, 187500.00, 187500.00, -187500.02, -187500.02, -187500.02, 0.000, 0.000, 0.000, 22:57:38.756
95, 24622.10, 31604.11, 187500.00, 187500.00, 187500.00, -187500.02, -187500.02, -187500.02, 0.000, 0.000, 0.000, 22:57:38.756
96, 24641.41, 30857.99, 187500.00, 187500.00, 187500.00, -187500.02, -187500.02, -187500.02, 0.084, 1.008, -0.066, 22:57:38.757
97, 24633.88, 30899.18, 187500.00, 187500.00, 187500.00, -187500.02, -187500.02, -187500.02, 0.000, 0.000, 0.000, 22:57:38.757
98, 24597.94, 31705.03, 187500.00, 187500.00, 187500.00, -187500.02, -187500.02, -187500.02, 0.000, 0.000, 0.000, 22:57:38.757
99, 24580.17, 31669.31, 187500.00, 187500.00, 187500.00, -187500.02, -187500.02, -187500.02, 0.000, 0.000, 0.000, 22:57:38.757
100, 24635.60, 30953.61, 187500.00, 187500.00, 187500.00, -187500.02, -187500.02, -187500.02, 0.000, 0.000, 0.000, 22:57:38.757
101, 24627.67, 30790.42, 187500.00, 187500.00, 187500.00, -187500.02, -187500.02, -187500.02, 0.000, 0.000, 0.000, 22:57:38.757
102, 24563.02, 31571.90, 187500.00, 187500.00, 187500.00, -187500.02, -187500.02, -187500.02, 0.000, 0.000, 0.000, 22:57:38.758
103, 24612.33, 31745.89, 187500.00, 187500.00, 187500.00, -187500.02, -187500.02, -187500.02, 0.000, 0.000, 0.000, 22:57:38.758
104, 24681.91, 31108.67, 187500.00, 187500.00, 187500.00, -187500.02, -187500.02, -187500.02, 0.000, 0.000, 0.000, 22:57:38.758
105, 24675.01, 30749.43, 187500.00, 187500.00, 187500.00, -187500.02, -187500.02, -187500.02, 0.000, 0.000, 0.000, 22:57:38.758
106, 24615.46, 31469.87, 187500.00, 187500.00, 187500.00, -187500.02, -187500.02, -187500.02, 0.090, 1.010, -0.072, 22:57:38.758
107, 24597.45, 31810.73, 187500.00, 187500.00, 187500.00, -187500.02, -187500.02, -187500.02, 0.000, 0.000, 0.000, 22:57:38.759
108, 24654.82, 31260.39, 187500.00, 187500.00, 187500.00, -187500.02, -187500.02, -187500.02, 0.000, 0.000, 0.000, 22:57:38.759
109, 24681.78, 30746.25, 187500.00, 187500.00, 187500.00, -187500.02, -187500.02, -187500.02, 0.000, 0.000, 0.000, 22:57:38.759
110, 24637.19, 31343.58, 187500.00, 187500.00, 187500.00, -187500.02, -187500.02, -187500.02, 0.000, 0.000, 0.000, 22:57:38.759
111, 24596.11, 31837.29, 187500.00, 187500.00, 187500.00, -187500.02, -187500.02, -187500.02, 0.000, 0.000, 0.000, 22:57:38.759
112, 24626.71, 31365.55, 187500.00, 187500.00, 187500.00, -187500.02, -187500.02, -187500.02, 0.000, 0.000, 0.000, 22:57:38.759
113, 24647.89, 30731.77, 187500.00, 187500.00, 187500.00, -187500.02, -187500.02, -187500.02, 0.000, 0.000, 0.000, 22:57:38.759
114, 24614.70, 31140.74, 187500.00, 187500.00, 187500.00, -187500.02, -187500.02, -187500.02, 0.000, 0.000, 0.000, 22:57:38.759
115, 24584.19, 31793.59, 187500.00, 187500.00, 187500.00, -187500.02, -187500.02, -187500.02, 0.000, 0.000, 0.000, 22:57:38.760
116, 24627.98, 31508.34, 187500.00, 187500.00, 187500.00, -187500.02, -187500.02, -187500.02, 0.088, 1.008, -0.076, 22:57:38.760
117, 24679.46, 30821.13, 187500.00, 187500.00, 187500.00, -187500.02, -187500.02, -187500.02, 0.000, 0.000, 0.000, 22:57:38.760
118, 24636.67, 31021.63, 187500.00, 187500.00, 187500.00, -187500.02, -187500.02, -187500.02, 0.000, 0.000, 0.000, 22:57:38.760
119, 24567.92, 31728.14, 187500.00, 187500.00, 187500.00, -187500.02, -187500.02, -187500.02, 0.000, 0.000, 0.000, 22:57:38.760
120, 24554.24, 31542.04, 187500.00, 187500.00, 187500.00, -187500.02, -187500.02, -187500.02, 0.000, 0.000, 0.000, 22:57:38.760
121, 24634.95, 30864.63, 187500.00, 187500.00, 187500.00, -187500.02, -187500.02, -187500.02, 0.000, 0.000, 0.000, 22:57:39.225
122, 24629.90, 30878.17, 187500.00, 187500.00, 187500.00, -187500.02, -187500.02, -187500.02, 0.000, 0.000, 0.000, 22:57:39.226
123, 24592.69, 31645.38, 187500.00, 187500.00, 187500.00, -187500.02, -187500.02, -187500.02, 0.000, 0.000, 0.000, 22:57:39.226
124, 24650.35, 31703.33, 187500.00, 187500.00, 187500.00, -187500.02, -187500.02, -187500.02, 0.000, 0.000, 0.000, 22:57:39.227
125, 24692.44, 31045.41, 187500.00, 187500.00, 187500.00, -187500.02, -187500.02, -187500.02, 0.000, 0.000, 0.000, 22:57:39.228
126, 24665.98, 30829.58, 187500.00, 187500.00, 187500.00, -187500.02, -187500.02, -187500.02, 0.088, 1.012, -0.080, 22:57:39.228
127, 24598.23, 31542.22, 187500.00, 187500.00, 187500.00, -187500.02, -187500.02, -187500.02, 0.000, 0.000, 0.000, 22:57:39.229
128, 24589.78, 31720.92, 187500.00, 187500.00, 187500.00, -187500.02, -187500.02, -187500.02, 0.000, 0.000, 0.000, 22:57:39.229
129, 24657.39, 31127.24, 187500.00, 187500.00, 187500.00, -187500.02, -187500.02, -187500.02, 0.000, 0.000, 0.000, 22:57:39.230
130, 24659.76, 30743.84, 187500.00, 187500.00, 187500.00, -187500.02, -187500.02, -187500.02, 0.000, 0.000, 0.000, 22:57:39.230
131, 24599.41, 31412.72, 187500.00, 187500.00, 187500.00, -187500.02, -187500.02, -187500.02, 0.000, 0.000, 0.000, 22:57:39.231
132, 24569.95, 31775.17, 187500.00, 187500.00, 187500.00, -187500.02, -187500.02, -187500.02, 0.000, 0.000, 0.000, 22:57:39.231
133, 24633.16, 31252.95, 187500.00, 187500.00, 187500.00, -187500.02, -187500.02, -187500.02, 0.000, 0.000, 0.000, 22:57:39.231
134, 24673.75, 30721.96, 187500.00, 187500.00, 187500.00, -187500.02, -187500.02, -187500.02, 0.000, 0.000, 0.000, 22:57:39.231
135, 24612.98, 31246.20, 187500.00, 187500.00, 187500.00, -187500.02, -187500.02, -187500.02, 0.092, 1.012, -0.082, 22:57:39.232
136, 24572.86, 31784.27, 187500.00, 187500.00, 187500.00, -187500.02, -187500.02, -187500.02, 0.000, 0.000, 0.000, 22:57:39.232
137, 24618.23, 31402.46, 187500.00, 187500.00, 187500.00, -187500.02, -187500.02, -187500.02, 0.000, 0.000, 0.000, 22:57:39.232
138, 24654.26, 30763.11, 187500.00, 187500.00, 187500.00, -187500.02, -187500.02, -187500.02, 0.000, 0.000, 0.000, 22:57:39.232
139, 24625.32, 31094.99, 187500.00, 187500.00, 187500.00, -187500.02, -187500.02, -187500.02, 0.000, 0.000, 0.000, 22:57:39.232
140, 24561.79, 31743.54, 187500.00, 187500.00, 187500.00, -187500.02, -187500.02, -187500.02, 0.000, 0.000, 0.000, 22:57:39.233
141, 24594.65, 31479.48, 187500.00, 187500.00, 187500.00, -187500.02, -187500.02, -187500.02, 0.000, 0.000, 0.000, 22:57:39.233
142, 24664.57, 30816.88, 187500.00, 187500.00, 187500.00, -187500.02, -187500.02, -187500.02, 0.000, 0.000, 0.000, 22:57:39.233
143, 24644.21, 30994.74, 187500.00, 187500.00, 187500.00, -187500.02, -187500.02, -187500.02, 0.000, 0.000, 0.000, 22:57:39.233
144, 24590.00, 31708.56, 187500.00, 187500.00, 187500.00, -187500.02, -187500.02, -187500.02, 0.000, 0.000, 0.000, 22:57:39.233
145, 24629.86, 31609.95, 187500.00, 187500.00, 187500.00, -187500.02, -187500.02, -187500.02, 0.094, 1.006, -0.078, 22:57:39.234
146, 24680.68, 30943.62, 187500.00, 187500.00, 187500.00, -187500.02, -187500.02, -187500.02, 0.000, 0.000, 0.000, 22:57:39.234
147, 24635.80, 30875.74, 187500.00, 187500.00, 187500.00, -187500.02, -187500.02, -187500.02, 0.000, 0.000, 0.000, 22:57:39.234
148, 24596.22, 31622.00, 187500.00, 187500.00, 187500.00, -187500.02, -187500.02, -187500.02, 0.000, 0.000, 0.000, 22:57:39.234
149, 24620.13, 31697.77, 187500.00, 187500.00, 187500.00, -187500.02, -187500.02, -187500.02, 0.000, 0.000, 0.000, 22:57:39.234
150, 24694.90, 31065.77, 187500.00, 187500.00, 187500.00, -187500.02, -187500.02, -187500.02, 0.000, 0.000, 0.000, 22:57:39.235
151, 24680.30, 30805.91, 187500.00, 187500.00, 187500.00, -187500.02, -187500.02, -187500.02, 0.000, 0.000, 0.000, 22:57:39.235
152, 24605.49, 31499.71, 187500.00, 187500.00, 187500.00, -187500.02, -187500.02, -187500.02, 0.000, 0.000, 0.000, 22:57:39.235
153, 24600.87, 31730.49, 187500.00, 187500.00, 187500.00, -187500.02, -187500.02, -187500.02, 0.000, 0.000, 0.000, 22:57:39.235
154, 24665.55, 31173.71, 187500.00, 187500.00, 187500.00, -187500.02, -187500.02, -187500.02, 0.000, 0.000, 0.000, 22:57:39.235
155, 24681.76, 30762.19, 187500.00, 187500.00, 187500.00, -187500.02, -187500.02, -187500.02, 0.098, 1.010, -0.074, 22:57:39.236
156, 24606.21, 31366.02, 187500.00, 187500.00, 187500.00, -187500.02, -187500.02, -187500.02, 0.000, 0.000, 0.000, 22:57:39.236
157, 24572.41, 31743.05, 187500.00, 187500.00, 187500.00, -187500.02, -187500.02, -187500.02, 0.000, 0.000, 0.000, 22:57:39.236
158, 24628.67, 31271.34, 187500.00, 187500.00, 187500.00, -187500.02, -187500.02, -187500.02, 0.000, 0.000, 0.000, 22:57:39.236
159, 24670.98, 30758.17, 187500.00, 187500.00, 187500.00, -187500.02, -187500.02, -187500.02, 0.000, 0.000, 0.000, 22:57:39.236
160, 24620.42, 31230.33, 187500.00, 187500.00, 187500.00, -187500.02, -187500.02, -187500.02, 0.000, 0.000, 0.000, 22:57:39.236
161, 24572.90, 31739.03, 187500.00, 187500.00, 187500.00, -187500.02, -187500.02, -187500.02, 0.000, 0.000, 0.000, 22:57:39.237
162, 24634.21, 31386.97, 187500.00, 187500.00, 187500.00, -187500.02, -187500.02, -187500.02, 0.000, 0.000, 0.000, 22:57:39.237
163, 24691.64, 30787.43, 187500.00, 187500.00, 187500.00, -187500.02, -187500.02, -187500.02, 0.000, 0.000, 0.000, 22:57:39.237
164, 24637.63, 31080.26, 187500.00, 187500.00, 187500.00, -187500.02, -187500.02, -187500.02, 0.000, 0.000, 0.000, 22:57:39.237
165, 24568.84, 31706.93, 187500.00, 187500.00, 187500.00, -187500.02, -187500.02, -187500.02, 0.096, 1.010, -0.078, 22:57:39.237
166, 24601.56, 31509.23, 187500.00, 187500.00, 187500.00, -187500.02, -187500.02, -187500.02, 0.000, 0.000, 0.000, 22:57:39.238
167, 24679.90, 30894.67, 187500.00, 187500.00, 187500.00, -187500.02, -187500.02, -187500.02, 0.000, 0.000, 0.000, 22:57:39.238
168, 24660.08, 30996.79, 187500.00, 187500.00, 187500.00, -187500.02, -187500.02, -187500.02, 0.000, 0.000, 0.000, 22:57:39.238
169, 24591.95, 31691.87, 187500.00, 187500.00, 187500.00, -187500.02, -187500.02, -187500.02, 0.000, 0.000, 0.000, 22:57:39.238
170, 24596.71, 31629.86, 187500.00, 187500.00, 187500.00, -187500.02, -187500.02, -187500.02, 0.000, 0.000, 0.000, 22:57:39.238
171, 24677.64, 30999.66, 187500.00, 187500.00, 187500.00, -187500.02, -187500.02, -187500.02, 0.000, 0.000, 0.000, 22:57:39.239
172, 24659.81, 30880.30, 187500.00, 187500.00, 187500.00, -187500.02, -187500.02, -187500.02, 0.000, 0.000, 0.000, 22:57:39.239
173, 24568.08, 31555.83, 187500.00, 187500.00, 187500.00, -187500.02, -187500.02, -187500.02, 0.000, 0.000, 0.000, 22:57:39.239
174, 24568.77, 31650.54, 187500.00, 187500.00, 187500.00, -187500.02, -187500.02, -187500.02, 0.000, 0.000, 0.000, 22:57:39.239
175, 24660.48, 31076.88, 187500.00, 187500.00, 187500.00, -187500.02, -187500.02, -187500.02, 0.100, 1.008, -0.078, 22:57:39.240
176, 24662.20, 30796.52, 187500.00, 187500.00, 187500.00, -187500.02, -187500.02, -187500.02, 0.000, 0.000, 0.000, 22:57:39.240
177, 24571.36, 31439.47, 187500.00, 187500.00, 187500.00, -187500.02, -187500.02, -187500.02, 0.000, 0.000, 0.000, 22:57:39.240
178, 24537.43, 31675.19, 187500.00, 187500.00, 187500.00, -187500.02, -187500.02, -187500.02, 0.000, 0.000, 0.000, 22:57:39.240
179, 24611.04, 31176.97, 187500.00, 187500.00, 187500.00, -187500.02, -187500.02, -187500.02, 0.000, 0.000, 0.000, 22:57:39.240
180, 24647.40, 30765.70, 187500.00, 187500.00, 187500.00, -187500.02, -187500.02, -187500.02, 0.000, 0.000, 0.000, 22:57:39.240
181, 24580.57, 31300.46, 187500.00, 187500.00, 187500.00, -187500.02, -187500.02, -187500.02, 0.000, 0.000, 0.000, 22:57:39.241
182, 24544.29, 31717.66, 187500.00, 187500.00, 187500.00, -187500.02, -187500.02, -187500.02, 0.000, 0.000, 0.000, 22:57:39.241
183, 24621.45, 31342.64, 187500.00, 187500.00, 187500.00, -187500.02, -187500.02, -187500.02, 0.000, 0.000, 0.000, 22:57:39.241
184, 24673.98, 30829.45, 187500.00, 187500.00, 187500.00, -187500.02, -187500.02, -187500.02, 0.000, 0.000, 0.000, 22:57:39.241
185, 24576.84, 31191.84, 187500.00, 187500.00, 187500.00, -187500.02, -187500.02, -187500.02, 0.106, 1.006, -0.078, 22:57:39.241
186, 24511.28, 31700.16, 187500.00, 187500.00, 187500.00, -187500.02, -187500.02, -187500.02, 0.000, 0.000, 0.000, 22:57:39.242
187, 24611.08, 31437.30, 187500.00, 187500.00, 187500.00, -187500.02, -187500.02, -187500.02, 0.000, 0.000, 0.000, 22:57:39.242
188, 24701.81, 30888.75, 187500.00, 187500.00, 187500.00, -187500.02, -187500.02, -187500.02, 0.000, 0.000, 0.000, 22:57:39.242
189, 24633.86, 31103.32, 187500.00, 187500.00, 187500.00, -187500.02, -187500.02, -187500.02, 0.000, 0.000, 0.000, 22:57:39.242
190, 24539.09, 31685.34, 187500.00, 187500.00, 187500.00, -187500.02, -187500.02, -187500.02, 0.000, 0.000, 0.000, 22:57:39.243
191, 24579.99, 31526.24, 187500.00, 187500.00, 187500.00, -187500.02, -187500.02, -187500.02, 0.000, 0.000, 0.000, 22:57:39.243
192, 24679.99, 30950.64, 187500.00, 187500.00, 187500.00, -187500.02, -187500.02, -187500.02, 0.000, 0.000, 0.000, 22:57:39.244
193, 24636.85, 30982.04, 187500.00, 187500.00, 187500.00, -187500.02, -187500.02, -187500.02, 0.000, 0.000, 0.000, 22:57:39.244
194, 24526.26, 31606.77, 187500.00, 187500.00, 187500.00, -187500.02, -187500.02, -187500.02, 0.000, 0.000, 0.000, 22:57:39.244
195, 24529.36, 31590.12, 187500.00, 187500.00, 187500.00, -187500.02, -187500.02, -187500.02, 0.108, 1.002, -0.082, 22:57:39.245
196, 24626.99, 31011.70, 187500.00, 187500.00, 187500.00, -187500.02, -187500.02, -187500.02, 0.000, 0.000, 0.000, 22:57:39.245
197, 24609.43, 30863.76, 187500.00, 187500.00, 187500.00, -187500.02, -187500.02, -187500.02, 0.000, 0.000, 0.000, 22:57:39.245
198, 24511.08, 31484.42, 187500.00, 187500.00, 187500.00, -187500.02, -187500.02, -187500.02, 0.000, 0.000, 0.000, 22:57:39.246
199, 24519.39, 31593.36, 187500.00, 187500.00, 187500.00, -187500.02, -187500.02, -187500.02, 0.000, 0.000, 0.000, 22:57:39.246
200, 24616.29, 31087.77, 187500.00, 187500.00, 187500.00, -187500.02, -187500.02, -187500.02, 0.000, 0.000, 0.000, 22:57:39.246
201, 24627.11, 30797.80, 187500.00, 187500.00, 187500.00, -187500.02, -187500.02, -187500.02, 0.000, 0.000, 0.000, 22:57:39.246
202, 24504.31, 31354.15, 187500.00, 187500.00, 187500.00, -187500.02, -187500.02, -187500.02, 0.000, 0.000, 0.000, 22:57:39.246
203, 24450.37, 31606.35, 187500.00, 187500.00, 187500.00, -187500.02, -187500.02, -187500.02, 0.000, 0.000, 0.000, 22:57:39.247
204, 24571.65, 31219.71, 187500.00, 187500.00, 187500.00, -187500.02, -187500.02, -187500.02, 0.108, 1.008, -0.076, 22:57:39.247
205, 24638.57, 30889.06, 187500.00, 187500.00, 187500.00, -187500.02, -187500.02, -187500.02, 0.000, 0.000, 0.000, 22:57:39.247
206, 24525.32, 31313.07, 187500.00, 187500.00, 187500.00, -187500.02, -187500.02, -187500.02, 0.000, 0.000, 0.000, 22:57:39.247
207, 24445.50, 31652.44, 187500.00, 187500.00, 187500.00, -187500.02, -187500.02, -187500.02, 0.000, 0.000, 0.000, 22:57:39.247
208, 24515.19, 31347.96, 187500.00, 187500.00, 187500.00, -187500.02, -187500.02, -187500.02, 0.000, 0.000, 0.000, 22:57:39.247
209, 24569.53, 30913.20, 187500.00, 187500.00, 187500.00, -187500.02, -187500.02, -187500.02, 0.000, 0.000, 0.000, 22:57:39.248
210, 24475.29, 31188.86, 187500.00, 187500.00, 187500.00, -187500.02, -187500.02, -187500.02, 0.000, 0.000, 0.000, 22:57:39.248
211, 24468.65, 31635.92, 187500.00, 187500.00, 187500.00, -187500.02, -187500.02, -187500.02, 0.000, 0.000, 0.000, 22:57:39.248
212, 24531.11, 31425.97, 187500.00, 187500.00, 187500.00, -187500.02, -187500.02, -187500.02, 0.000, 0.000, 0.000, 22:57:39.248
213, 24659.09, 30993.29, 187500.00, 187500.00, 187500.00, -187500.02, -187500.02, -187500.02, 0.000, 0.000, 0.000, 22:57:39.248
214, 24650.78, 31144.52, 187500.00, 187500.00, 187500.00, -187500.02, -187500.02, -187500.02, 0.110, 0.994, -0.082, 22:57:39.249
215, 24491.68, 31616.94, 187500.00, 187500.00, 187500.00, -187500.02, -187500.02, -187500.02, 0.000, 0.000, 0.000, 22:57:39.249
216, 24480.84, 31490.01, 187500.00, 187500.00, 187500.00, -187500.02, -187500.02, -187500.02, 0.000, 0.000, 0.000, 22:57:39.249
217, 24628.56, 31014.18, 187500.00, 187500.00, 187500.00, -187500.02, -187500.02, -187500.02, 0.000, 0.000, 0.000, 22:57:39.249
218, 24669.75, 31023.28, 187500.00, 187500.00, 187500.00, -187500.02, -187500.02, -187500.02, 0.000, 0.000, 0.000, 22:57:39.250
219, 24483.41, 31533.08, 187500.00, 187500.00, 187500.00, -187500.02, -187500.02, -187500.02, 0.000, 0.000, 0.000, 22:57:39.250
220, 24467.47, 31518.15, 187500.00, 187500.00, 187500.00, -187500.02, -187500.02, -187500.02, 0.000, 0.000, 0.000, 22:57:39.250
221, 24618.39, 31112.20, 187500.00, 187500.00, 187500.00, -187500.02, -187500.02, -187500.02, 0.000, 0.000, 0.000, 22:57:39.250
222, 24618.66, 30979.52, 187500.00, 187500.00, 187500.00, -187500.02, -187500.02, -187500.02, 0.000, 0.000, 0.000, 22:57:39.250
223, 24402.27, 31408.76, 187500.00, 187500.00, 187500.00, -187500.02, -187500.02, -187500.02, 0.000, 0.000, 0.000, 22:57:39.251
224, 24373.84, 31548.99, 187500.00, 187500.00, 187500.00, -187500.02, -187500.02, -187500.02, 0.118, 0.986, -0.092, 22:57:39.251
225, 24529.43, 31204.69, 187500.00, 187500.00, 187500.00, -187500.02, -187500.02, -187500.02, 0.000, 0.000, 0.000, 22:57:39.251
226, 24643.96, 30987.27, 187500.00, 187500.00, 187500.00, -187500.02, -187500.02, -187500.02, 0.000, 0.000, 0.000, 22:57:39.251
227, 24493.06, 31372.95, 187500.00, 187500.00, 187500.00, -187500.02, -187500.02, -187500.02, 0.000, 0.000, 0.000, 22:57:39.251
228, 24355.40, 31534.22, 187500.00, 187500.00, 187500.00, -187500.02, -187500.02, -187500.02, 0.000, 0.000, 0.000, 22:57:39.251
229, 24485.11, 31248.23, 187500.00, 187500.00, 187500.00, -187500.02, -187500.02, -187500.02, 0.000, 0.000, 0.000, 22:57:39.252
230, 24684.08, 30985.28, 187500.00, 187500.00, 187500.00, -187500.02, -187500.02, -187500.02, 0.000, 0.000, 0.000, 22:57:39.252
231, 24506.63, 31225.92, 187500.00, 187500.00, 187500.00, -187500.02, -187500.02, -187500.02, 0.000, 0.000, 0.000, 22:57:39.252
232, 24314.43, 31444.59, 187500.00, 187500.00, 187500.00, -187500.02, -187500.02, -187500.02, 0.000, 0.000, 0.000, 22:57:39.252
233, 24522.46, 31285.04, 187500.00, 187500.00, 187500.00, -187500.02, -187500.02, -187500.02, 0.000, 0.000, 0.000, 22:57:39.252
234, 24744.34, 31077.30, 187500.00, 187500.00, 187500.00, -187500.02, -187500.02, -187500.02, 0.124, 1.002, -0.092, 22:57:39.252
235, 24590.36, 31220.18, 187500.00, 187500.00, 187500.00, -187500.02, -187500.02, -187500.02, 0.000, 0.000, 0.000, 22:57:39.252
236, 24378.06, 31426.31, 187500.00, 187500.00, 187500.00, -187500.02, -187500.02, -187500.02, 0.000, 0.000, 0.000, 22:57:39.253
237, 24457.26, 31328.12, 187500.00, 187500.00, 187500.00, -187500.02, -187500.02, -187500.02, 0.000, 0.000, 0.000, 22:57:39.253
238, 24693.98, 31148.03, 187500.00, 187500.00, 187500.00, -187500.02, -187500.02, -187500.02, 0.000, 0.000, 0.000, 22:57:39.253
239, 24661.89, 31204.89, 187500.00, 187500.00, 187500.00, -187500.02, -187500.02, -187500.02, 0.000, 0.000, 0.000, 22:57:39.253
240, 24386.85, 31382.05, 187500.00, 187500.00, 187500.00, -187500.02, -187500.02, -187500.02, 0.000, 0.000, 0.000, 22:57:39.253
241, 24452.90, 31352.32, 187500.00, 187500.00, 187500.00, -187500.02, -187500.02, -187500.02, 0.000, 0.000, 0.000, 22:57:39.703
242, 24757.08, 31185.35, 187500.00, 187500.00, 187500.00, -187500.02, -187500.02, -187500.02, 0.000, 0.000, 0.000, 22:57:39.703
243, 24719.75, 31140.83, 187500.00, 187500.00, 187500.00, -187500.02, -187500.02, -187500.02, 0.000, 0.000, 0.000, 22:57:39.703
244, 24369.97, 31282.81, 187500.00, 187500.00, 187500.00, -187500.02, -187500.02, -187500.02, 0.116, 1.008, -0.094, 22:57:39.703
245, 24364.09, 31288.78, 187500.00, 187500.00, 187500.00, -187500.02, -187500.02, -187500.02, 0.000, 0.000, 0.000, 22:57:39.704
246, 24703.24, 31218.12, 187500.00, 187500.00, 187500.00, -187500.02, -187500.02, -187500.02, 0.000, 0.000, 0.000, 22:57:39.704
247, 24809.74, 31207.24, 187500.00, 187500.00, 187500.00, -187500.02, -187500.02, -187500.02, 0.000, 0.000, 0.000, 22:57:39.704
248, 24448.36, 31288.31, 187500.00, 187500.00, 187500.00, -187500.02, -187500.02, -187500.02, 0.000, 0.000, 0.000, 22:57:39.704
249, 24364.72, 31285.15, 187500.00, 187500.00, 187500.00, -187500.02, -187500.02, -187500.02, 0.000, 0.000, 0.000, 22:57:39.704
250, 24646.62, 31232.85, 187500.00, 187500.00, 187500.00, -187500.02, -187500.02, -187500.02, 0.000, 0.000, 0.000, 22:57:39.704
251, 24800.47, 31193.20, 187500.00, 187500.00, 187500.00, -187500.02, -187500.02, -187500.02, 0.000, 0.000, 0.000, 22:57:39.704
252, 24487.65, 31214.97, 187500.00, 187500.00, 187500.00, -187500.02, -187500.02, -187500.02, 0.000, 0.000, 0.000, 22:57:39.704
253, 24308.06, 31220.71, 187500.00, 187500.00, 187500.00, -187500.02, -187500.02, -187500.02, 0.000, 0.000, 0.000, 22:57:39.705
254, 24648.47, 31227.60, 187500.00, 187500.00, 187500.00, -187500.02, -187500.02, -187500.02, 0.120, 0.998, -0.104, 22:57:39.705
255, 24904.89, 31241.61, 187500.00, 187500.00, 187500.00, -187500.02, -187500.02, -187500.02, 0.000, 0.000, 0.000, 22:57:39.705
0, 24570.38, 31234.44, 187500.00, 187500.00, 187500.00, -187500.02, -187500.02, -187500.02, 0.000, 0.000, 0.000, 22:57:39.705
1, 24269.26, 31180.88, 187500.00, 187500.00, 187500.00, -187500.02, -187500.02, -187500.02, 0.000, 0.000, 0.000, 22:57:39.706
2, 24486.25, 31203.73, 187500.00, 187500.00, 187500.00, -187500.02, -187500.02, -187500.02, 0.000, 0.000, 0.000, 22:57:39.706
3, 24857.26, 31255.65, 187500.00, 187500.00, 187500.00, -187500.02, -187500.02, -187500.02, 0.000, 0.000, 0.000, 22:57:39.706
4, 24626.32, 31172.03, 187500.00, 187500.00, 187500.00, -187500.02, -187500.02, -187500.02, 0.000, 0.000, 0.000, 22:57:39.707
5, 24243.66, 31099.30, 187500.00, 187500.00, 187500.00, -187500.02, -187500.02, -187500.02, 0.000, 0.000, 0.000, 22:57:39.707
6, 24483.07, 31173.73, 187500.00, 187500.00, 187500.00, -187500.02, -187500.02, -187500.02, 0.000, 0.000, 0.000, 22:57:39.707
7, 24947.63, 31284.57, 187500.00, 187500.00, 187500.00, -187500.02, -187500.02, -187500.02, 0.118, 1.004, -0.106, 22:57:39.707
8, 24784.48, 31231.60, 187500.00, 187500.00, 187500.00, -187500.02, -187500.02, -187500.02, 0.000, 0.000, 0.000, 22:57:39.707
9, 24273.55, 31090.07, 187500.00, 187500.00, 187500.00, -187500.02, -187500.02, -187500.02, 0.000, 0.000, 0.000, 22:57:39.708
10, 24375.25, 31088.50, 187500.00, 187500.00, 187500.00, -187500.02, -187500.02, -187500.02, 0.000, 0.000, 0.000, 22:57:39.708
11, 24879.10, 31240.90, 187500.00, 187500.00, 187500.00, -187500.02, -187500.02, -187500.02, 0.000, 0.000, 0.000, 22:57:39.708
12, 24883.37, 31265.33, 187500.00, 187500.00, 187500.00, -187500.02, -187500.02, -187500.02, 0.000, 0.000, 0.000, 22:57:39.708
13, 24315.19, 31053.66, 187500.00, 187500.00, 187500.00, -187500.02, -187500.02, -187500.02, 0.000, 0.000, 0.000, 22:57:39.709
14, 24350.82, 31039.33, 187500.00, 187500.00, 187500.00, -187500.02, -187500.02, -187500.02, 0.000, 0.000, 0.000, 22:57:39.709
15, 24891.39, 31273.71, 187500.00, 187500.00, 187500.00, -187500.02, -187500.02, -187500.02, 0.000, 0.000, 0.000, 22:57:39.709
16, 25017.93, 31354.98, 187500.00, 187500.00, 187500.00, -187500.02, -187500.02, -187500.02, 0.000, 0.000, 0.000, 22:57:39.709
17, 24429.61, 31123.19, 187500.00, 187500.00, 187500.00, -187500.02, -187500.02, -187500.02, 0.124, 1.006, -0.102, 22:57:39.710
18, 24229.67, 31006.67, 187500.00, 187500.00, 187500.00, -187500.02, -187500.02, -187500.02, 0.000, 0.000, 0.000, 22:57:39.710
19, 24695.28, 31230.41, 187500.00, 187500.00, 187500.00, -187500.02, -187500.02, -187500.02, 0.000, 0.000, 0.000, 22:57:39.710
20, 24958.56, 31377.33, 187500.00, 187500.00, 187500.00, -187500.02, -187500.02, -187500.02, 0.000, 0.000, 0.000, 22:57:39.710
21, 24401.22, 31088.04, 187500.00, 187500.00, 187500.00, -187500.02, -187500.02, -187500.02, 0.000, 0.000, 0.000, 22:57:39.711
22, 24107.83, 30953.72, 187500.00, 187500.00, 187500.00, -187500.02, -187500.02, -187500.02, 0.000, 0.000, 0.000, 22:57:39.711
23, 24617.09, 31223.60, 187500.00, 187500.00, 187500.00, -187500.02, -187500.02, -187500.02, 0.000, 0.000, 0.000, 22:57:39.711
24, 25092.54, 31460.64, 187500.00, 187500.00, 187500.00, -187500.02, -187500.02, -187500.02, 0.000, 0.000, 0.000, 22:57:39.711
25, 24604.60, 31173.37, 187500.00, 187500.00, 187500.00, -187500.02, -187500.02, -187500.02, 0.000, 0.000, 0.000, 22:57:39.711
26, 24096.83, 30849.63, 187500.00, 187500.00, 187500.00, -187500.02, -187500.02, -187500.02, 0.000, 0.000, 0.000, 22:57:39.712
27, 24468.48, 31090.81, 187500.00, 187500.00, 187500.00, -187500.02, -187500.02, -187500.02, 0.130, 1.008, -0.102, 22:57:39.712
28, 25093.28, 31454.31, 187500.00, 187500.00, 187500.00, -187500.02, -187500.02, -187500.02, 0.000, 0.000, 0.000, 22:57:39.712
29, 24796.91, 31297.56, 187500.00, 187500.00, 187500.00, -187500.02, -187500.02, -187500.02, 0.000, 0.000, 0.000, 22:57:39.712
30, 24172.65, 30917.94, 187500.00, 187500.00, 187500.00, -187500.02, -187500.02, -187500.02, 0.000, 0.000, 0.000, 22:57:39.712
31, 24438.39, 31016.80, 187500.00, 187500.00, 187500.00, -187500.02, -187500.02, -187500.02, 0.000, 0.000, 0.000, 22:57:39.712
32, 25121.59, 31438.51, 187500.00, 187500.00, 187500.00, -187500.02, -187500.02, -187500.02, 0.000, 0.000, 0.000, 22:57:39.712
33, 24961.53, 31370.31, 187500.00, 187500.00, 187500.00, -187500.02, -187500.02, -187500.02, 0.000, 0.000, 0.000, 22:57:39.713
34, 24195.94, 30912.39, 187500.00, 187500.00, 187500.00, -187500.02, -187500.02, -187500.02, 0.000, 0.000, 0.000, 22:57:39.713
35, 24295.41, 30948.45, 187500.00, 187500.00, 187500.00, -187500.02, -187500.02, -187500.02, 0.000, 0.000, 0.000, 22:57:39.713
36, 25042.76, 31405.25, 187500.00, 187500.00, 187500.00, -187500.02, -187500.02, -187500.02, 0.000, 0.000, 0.000, 22:57:39.713
37, 25086.17, 31483.24, 187500.00, 187500.00, 187500.00, -187500.02, -187500.02, -187500.02, 0.138, 1.004, -0.104, 22:57:39.713
38, 24264.07, 30981.42, 187500.00, 187500.00, 187500.00, -187500.02, -187500.02, -187500.02, 0.000, 0.000, 0.000, 22:57:39.713
39, 24184.68, 30918.94, 187500.00, 187500.00, 187500.00, -187500.02, -187500.02, -187500.02, 0.000, 0.000, 0.000, 22:57:39.714
40, 24917.30, 31399.48, 187500.00, 187500.00, 187500.00, -187500.02, -187500.02, -187500.02, 0.000, 0.000, 0.000, 22:57:39.714
41, 25167.97, 31588.42, 187500.00, 187500.00, 187500.00, -187500.02, -187500.02, -187500.02, 0.000, 0.000, 0.000, 22:57:39.714
42, 24299.43, 31005.06, 187500.00, 187500.00, 187500.00, -187500.02, -187500.02, -187500.02, 0.000, 0.000, 0.000, 22:57:39.714
43, 24026.16, 30768.16, 187500.00, 187500.00, 187500.00, -187500.02, -187500.02, -187500.02, 0.000, 0.000, 0.000, 22:57:39.714
44, 24767.23, 31226.15, 187500.00, 187500.00, 187500.00, -187500.02, -187500.02, -187500.02, 0.000, 0.000, 0.000, 22:57:39.714
45, 25222.96, 31541.37, 187500.00, 187500.00, 187500.00, -187500.02, -187500.02, -187500.02, 0.000, 0.000, 0.000, 22:57:39.714
46, 24503.52, 31080.41, 187500.00, 187500.00, 187500.00, -187500.02, -187500.02, -187500.02, 0.000, 0.000, 0.000, 22:57:39.714
47, 24047.39, 30752.00, 187500.00, 187500.00, 187500.00, -187500.02, -187500.02, -187500.02, 0.148, 1.004, -0.112, 22:57:39.715
48, 24668.41, 31134.39, 187500.00, 187500.00, 187500.00, -187500.02, -187500.02, -187500.02, 0.000, 0.000, 0.000, 22:57:39.715
49, 25296.63, 31609.39, 187500.00, 187500.00, 187500.00, -187500.02, -187500.02, -187500.02, 0.000, 0.000, 0.000, 22:57:39.715
50, 24673.84, 31219.35, 187500.00, 187500.00, 187500.00, -187500.02, -187500.02, -187500.02, 0.000, 0.000, 0.000, 22:57:39.715
51, 23973.99, 30687.11, 187500.00, 187500.00, 187500.00, -187500.02, -187500.02, -187500.02, 0.000, 0.000, 0.000, 22:57:39.715
52, 24447.87, 30997.49, 187500.00, 187500.00, 187500.00, -187500.02, -187500.02, -187500.02, 0.000, 0.000, 0.000, 22:57:39.715
53, 25304.68, 31570.88, 187500.00, 187500.00, 187500.00, -187500.02, -187500.02, -187500.02, 0.000, 0.000, 0.000, 22:57:39.716
54, 24903.33, 31315.64, 187500.00, 187500.00, 187500.00, -187500.02, -187500.02, -187500.02, 0.000, 0.000, 0.000, 22:57:39.716
55, 24017.53, 30683.00, 187500.00, 187500.00, 187500.00, -187500.02, -187500.02, -187500.02, 0.000, 0.000, 0.000, 22:57:39.716
56, 24324.17, 30904.28, 187500.00, 187500.00, 187500.00, -187500.02, -187500.02, -187500.02, 0.000, 0.000, 0.000, 22:57:39.716
57, 25233.49, 31621.95, 187500.00, 187500.00, 187500.00, -187500.02, -187500.02, -187500.02, 0.154, 1.010, -0.114, 22:57:39.716
58, 25059.72, 31536.72, 187500.00, 187500.00, 187500.00, -187500.02, -187500.02, -187500.02, 0.000, 0.000, 0.000, 22:57:39.716
59, 24045.18, 30770.06, 187500.00, 187500.00, 187500.00, -187500.02, -187500.02, -187500.02, 0.000, 0.000, 0.000, 22:57:39.717
60, 24125.04, 30809.17, 187500.00, 187500.00, 187500.00, -187500.02, -187500.02, -187500.02, 0.000, 0.000, 0.000, 22:57:39.717
61, 25052.08, 31522.17, 187500.00, 187500.00, 187500.00, -187500.02, -187500.02, -187500.02, 0.000, 0.000, 0.000, 22:57:39.717
62, 25183.96, 31665.40, 187500.00, 187500.00, 187500.00, -187500.02, -187500.02, -187500.02, 0.000, 0.000, 0.000, 22:57:39.717
63, 24179.83, 30920.13, 187500.00, 187500.00, 187500.00, -187500.02, -187500.02, -187500.02, 0.000, 0.000, 0.000, 22:57:39.717
64, 24014.06, 30765.77, 187500.00, 187500.00, 187500.00, -187500.02, -187500.02, -187500.02, 0.000, 0.000, 0.000, 22:57:39.717
65, 24922.89, 31406.01, 187500.00, 187500.00, 187500.00, -187500.02, -187500.02, -187500.02, 0.000, 0.000, 0.000, 22:57:39.717
66, 25313.51, 31713.95, 187500.00, 187500.00, 187500.00, -187500.02, -187500.02, -187500.02, 0.000, 0.000, 0.000, 22:57:39.718
67, 24284.05, 30987.52, 187500.00, 187500.00, 187500.00, -187500.02, -187500.02, -187500.02, 0.150, 1.010, -0.110, 22:57:39.718
68, 23899.18, 30638.85, 187500.00, 187500.00, 187500.00, -187500.02, -187500.02, -187500.02, 0.000, 0.000, 0.000, 22:57:39.718
69, 24749.73, 31264.26, 187500.00, 187500.00, 187500.00, -187500.02, -187500.02, -187500.02, 0.000, 0.000, 0.000, 22:57:39.718
70, 25404.48, 31758.12, 187500.00, 187500.00, 187500.00, -187500.02, -187500.02, -187500.02, 0.000, 0.000, 0.000, 22:57:39.718
71, 24503.32, 31119.28, 187500.00, 187500.00, 187500.00, -187500.02, -187500.02, -187500.02, 0.000, 0.000, 0.000, 22:57:39.718
72, 23824.16, 30563.69, 187500.00, 187500.00, 187500.00, -187500.02, -187500.02, -187500.02, 0.000, 0.000, 0.000, 22:57:39.718
73, 24547.47, 31074.62, 187500.00, 187500.00, 187500.00, -187500.02, -187500.02, -187500.02, 0.000, 0.000, 0.000, 22:57:39.718
74, 25411.00, 31737.78, 187500.00, 187500.00, 187500.00, -187500.02, -187500.02, -187500.02, 0.000, 0.000, 0.000, 22:57:39.718
75, 24738.15, 31258.62, 187500.00, 187500.00, 187500.00, -187500.02, -187500.02, -187500.02, 0.000, 0.000, 0.000, 22:57:39.719
76, 23830.40, 30571.35, 187500.00, 187500.00, 187500.00, -187500.02, -187500.02, -187500.02, 0.152, 1.014, -0.110, 22:57:39.719
77, 24321.00, 30932.38, 187500.00, 187500.00, 187500.00, -187500.02, -187500.02, -187500.02, 0.000, 0.000, 0.000, 22:57:39.719
78, 25354.68, 31716.52, 187500.00, 187500.00, 187500.00, -187500.02, -187500.02, -187500.02, 0.000, 0.000, 0.000, 22:57:39.719
79, 24969.71, 31438.91, 187500.00, 187500.00, 187500.00, -187500.02, -187500.02, -187500.02, 0.000, 0.000, 0.000, 22:57:39.719
80, 23911.58, 30614.22, 187500.00, 187500.00, 187500.00, -187500.02, -187500.02, -187500.02, 0.000, 0.000, 0.000, 22:57:39.719
81, 24221.42, 30839.08, 187500.00, 187500.00, 187500.00, -187500.02, -187500.02, -187500.02, 0.000, 0.000, 0.000, 22:57:39.719
82, 25279.02, 31656.55, 187500.00, 187500.00, 187500.00, -187500.02, -187500.02, -187500.02, 0.000, 0.000, 0.000, 22:57:39.720
83, 25179.46, 31589.90, 187500.00, 187500.00, 187500.00, -187500.02, -187500.02, -187500.02, 0.000, 0.000, 0.000, 22:57:39.720
84, 23992.00, 30694.82, 187500.00, 187500.00, 187500.00, -187500.02, -187500.02, -187500.02, 0.000, 0.000, 0.000, 22:57:39.720
85, 24010.18, 30674.62, 187500.00, 187500.00, 187500.00, -187500.02, -187500.02, -187500.02, 0.000, 0.000, 0.000, 22:57:39.720
86, 25115.67, 31523.76, 187500.00, 187500.00, 187500.00, -187500.02, -187500.02, -187500.02, 0.154, 1.006, -0.106, 22:57:39.720
87, 25394.17, 31785.16, 187500.00, 187500.00, 187500.00, -187500.02, -187500.02, -187500.02, 0.000, 0.000, 0.000, 22:57:39.720
88, 24153.21, 30875.98, 187500.00, 187500.00, 187500.00, -187500.02, -187500.02, -187500.02, 0.000, 0.000, 0.000, 22:57:39.720
89, 23904.29, 30640.55, 187500.00, 187500.00, 187500.00, -187500.02, -187500.02, -187500.02, 0.000, 0.000, 0.000, 22:57:39.720
90, 24951.56, 31439.70, 187500.00, 187500.00, 187500.00, -187500.02, -187500.02, -187500.02, 0.000, 0.000, 0.000, 22:57:39.721
91, 25472.67, 31874.19, 187500.00, 187500.00, 187500.00, -187500.02, -187500.02, -187500.02, 0.000, 0.000, 0.000, 22:57:39.721
92, 24329.09, 30983.67, 187500.00, 187500.00, 187500.00, -187500.02, -187500.02, -187500.02, 0.000, 0.000, 0.000, 22:57:39.721
93, 23783.80, 30523.14, 187500.00, 187500.00, 187500.00, -187500.02, -187500.02, -187500.02, 0.000, 0.000, 0.000, 22:57:39.721
94, 24728.45, 31231.78, 187500.00, 187500.00, 187500.00, -187500.02, -187500.02, -187500.02, 0.000, 0.000, 0.000, 22:57:39.721
95, 25529.96, 31874.28, 187500.00, 187500.00, 187500.00, -187500.02, -187500.02, -187500.02, 0.000, 0.000, 0.000, 22:57:39.721
96, 24551.36, 31139.91, 187500.00, 187500.00, 187500.00, -187500.02, -187500.02, -187500.02, 0.160, 1.006, -0.108, 22:57:39.722
97, 23709.97, 30441.49, 187500.00, 187500.00, 187500.00, -187500.02, -187500.02, -187500.02, 0.000, 0.000, 0.000, 22:57:39.722
98, 24483.50, 31022.12, 187500.00, 187500.00, 187500.00, -187500.02, -187500.02, -187500.02, 0.000, 0.000, 0.000, 22:57:39.722
99, 25505.11, 31842.63, 187500.00, 187500.00, 187500.00, -187500.02, -187500.02, -187500.02, 0.000, 0.000, 0.000, 22:57:39.722
100, 24802.03, 31308.96, 187500.00, 187500.00, 187500.00, -187500.02, -187500.02, -187500.02, 0.000, 0.000, 0.000, 22:57:39.722
101, 23729.57, 30420.23, 187500.00, 187500.00, 187500.00, -187500.02, -187500.02, -187500.02, 0.000, 0.000, 0.000, 22:57:39.723
102, 24298.71, 30841.23, 187500.00, 187500.00, 187500.00, -187500.02, -187500.02, -187500.02, 0.000, 0.000, 0.000, 22:57:39.723
103, 25481.50, 31813.08, 187500.00, 187500.00, 187500.00, -187500.02, -187500.02, -187500.02, 0.000, 0.000, 0.000, 22:57:39.723
104, 25075.77, 31546.96, 187500.00, 187500.00, 187500.00, -187500.02, -187500.02, -187500.02, 0.000, 0.000, 0.000, 22:57:39.723
105, 23785.05, 30499.38, 187500.00, 187500.00, 187500.00, -187500.02, -187500.02, -187500.02, 0.000, 0.000, 0.000, 22:57:40.183
106, 24104.50, 30695.56, 187500.00, 187500.00, 187500.00, -187500.02, -187500.02, -187500.02, 0.162, 1.010, -0.114, 22:57:40.183
107, 25363.84, 31735.47, 187500.00, 187500.00, 187500.00, -187500.02, -187500.02, -187500.02, 0.000, 0.000, 0.000, 22:57:40.183
108, 25318.69, 31755.93, 187500.00, 187500.00, 187500.00, -187500.02, -187500.02, -187500.02, 0.000, 0.000, 0.000, 22:57:40.184
109, 23901.26, 30575.71, 187500.00, 187500.00, 187500.00, -187500.02, -187500.02, -187500.02, 0.000, 0.000, 0.000, 22:57:40.184
110, 23870.30, 30475.44, 187500.00, 187500.00, 187500.00, -187500.02, -187500.02, -187500.02, 0.000, 0.000, 0.000, 22:57:40.184
111, 25172.29, 31589.29, 187500.00, 187500.00, 187500.00, -187500.02, -187500.02, -187500.02, 0.000, 0.000, 0.000, 22:57:40.184
112, 25508.44, 31961.45, 187500.00, 187500.00, 187500.00, -187500.02, -187500.02, -187500.02, 0.000, 0.000, 0.000, 22:57:40.184
113, 24062.26, 30783.00, 187500.00, 187500.00, 187500.00, -187500.02, -187500.02, -187500.02, 0.000, 0.000, 0.000, 22:57:40.184
114, 23731.32, 30422.91, 187500.00, 187500.00, 187500.00, -187500.02, -187500.02, -187500.02, 0.000, 0.000, 0.000, 22:57:40.184
115, 24957.69, 31422.53, 187500.00, 187500.00, 187500.00, -187500.02, -187500.02, -187500.02, 0.000, 0.000, 0.000, 22:57:40.184
116, 25681.17, 32082.20, 187500.00, 187500.00, 187500.00, -187500.02, -187500.02, -187500.02, 0.164, 1.006, -0.120, 22:57:40.185
117, 24323.97, 31016.35, 187500.00, 187500.00, 187500.00, -187500.02, -187500.02, -187500.02, 0.000, 0.000, 0.000, 22:57:40.185
118, 23560.93, 30366.27, 187500.00, 187500.00, 187500.00, -187500.02, -187500.02, -187500.02, 0.000, 0.000, 0.000, 22:57:40.185
119, 24704.38, 31252.72, 187500.00, 187500.00, 187500.00, -187500.02, -187500.02, -187500.02, 0.000, 0.000, 0.000, 22:57:40.185
120, 25776.01, 32154.57, 187500.00, 187500.00, 187500.00, -187500.02, -187500.02, -187500.02, 0.000, 0.000, 0.000, 22:57:40.185
121, 24671.54, 31259.76, 187500.00, 187500.00, 187500.00, -187500.02, -187500.02, -187500.02, 0.000, 0.000, 0.000, 22:57:40.185
122, 23540.63, 30292.63, 187500.00, 187500.00, 187500.00, -187500.02, -187500.02, -187500.02, 0.000, 0.000, 0.000, 22:57:40.185
123, 24422.95, 30982.89, 187500.00, 187500.00, 187500.00, -187500.02, -187500.02, -187500.02, 0.000, 0.000, 0.000, 22:57:40.185
124, 25739.82, 32096.72, 187500.00, 187500.00, 187500.00, -187500.02, -187500.02, -187500.02, 0.000, 0.000, 0.000, 22:57:40.186
125, 24958.49, 31496.78, 187500.00, 187500.00, 187500.00, -187500.02, -187500.02, -187500.02, 0.000, 0.000, 0.000, 22:57:40.186
126, 23507.91, 30281.11, 187500.00, 187500.00, 187500.00, -187500.02, -187500.02, -187500.02, 0.164, 1.000, -0.128, 22:57:40.186
127, 24139.39, 30756.42, 187500.00, 187500.00, 187500.00, -187500.02, -187500.02, -187500.02, 0.000, 0.000, 0.000, 22:57:40.186
128, 25689.33, 32074.60, 187500.00, 187500.00, 187500.00, -187500.02, -187500.02, -187500.02, 0.000, 0.000, 0.000, 22:57:40.186
129, 25269.00, 31814.40, 187500.00, 187500.00, 187500.00, -187500.02, -187500.02, -187500.02, 0.000, 0.000, 0.000, 22:57:40.186
130, 23511.93, 30353.62, 187500.00, 187500.00, 187500.00, -187500.02, -187500.02, -187500.02, 0.000, 0.000, 0.000, 22:57:40.186
131, 23873.54, 30549.76, 187500.00, 187500.00, 187500.00, -187500.02, -187500.02, -187500.02, 0.000, 0.000, 0.000, 22:57:40.187
132, 25559.31, 32003.21, 187500.00, 187500.00, 187500.00, -187500.02, -187500.02, -187500.02, 0.000, 0.000, 0.000, 22:57:40.187
133, 25617.65, 32147.57, 187500.00, 187500.00, 187500.00, -187500.02, -187500.02, -187500.02, 0.000, 0.000, 0.000, 22:57:40.187
134, 23723.92, 30556.15, 187500.00, 187500.00, 187500.00, -187500.02, -187500.02, -187500.02, 0.000, 0.000, 0.000, 22:57:40.187
135, 23606.35, 30390.08, 187500.00, 187500.00, 187500.00, -187500.02, -187500.02, -187500.02, 0.162, 1.004, -0.134, 22:57:40.187
136, 25277.83, 31786.73, 187500.00, 187500.00, 187500.00, -187500.02, -187500.02, -187500.02, 0.000, 0.000, 0.000, 22:57:40.187
137, 25896.19, 32329.52, 187500.00, 187500.00, 187500.00, -187500.02, -187500.02, -187500.02, 0.000, 0.000, 0.000, 22:57:40.189
138, 24000.27, 30750.61, 187500.00, 187500.00, 187500.00, -187500.02, -187500.02, -187500.02, 0.000, 0.000, 0.000, 22:57:40.190
139, 23354.40, 30158.63, 187500.00, 187500.00, 187500.00, -187500.02, -187500.02, -187500.02, 0.000, 0.000, 0.000, 22:57:40.190
140, 24983.42, 31494.81, 187500.00, 187500.00, 187500.00, -187500.02, -187500.02, -187500.02, 0.000, 0.000, 0.000, 22:57:40.190
141, 26103.77, 32462.00, 187500.00, 187500.00, 187500.00, -187500.02, -187500.02, -187500.02, 0.000, 0.000, 0.000, 22:57:40.191
142, 24315.05, 31030.88, 187500.00, 187500.00, 187500.00, -187500.02, -187500.02, -187500.02, 0.000, 0.000, 0.000, 22:57:40.191
143, 23198.79, 30018.01, 187500.00, 187500.00, 187500.00, -187500.02, -187500.02, -187500.02, 0.000, 0.000, 0.000, 22:57:40.191
144, 24656.01, 31160.14, 187500.00, 187500.00, 187500.00, -187500.02, -187500.02, -187500.02, 0.000, 0.000, 0.000, 22:57:40.192
145, 26197.65, 32478.27, 187500.00, 187500.00, 187500.00, -187500.02, -187500.02, -187500.02, 0.168, 0.998, -0.152, 22:57:40.192
146, 24715.08, 31312.71, 187500.00, 187500.00, 187500.00, -187500.02, -187500.02, -187500.02, 0.000, 0.000, 0.000, 22:57:40.193
147, 23063.33, 29870.29, 187500.00, 187500.00, 187500.00, -187500.02, -187500.02, -187500.02, 0.000, 0.000, 0.000, 22:57:40.195
148, 24266.26, 30795.34, 187500.00, 187500.00, 187500.00, -187500.02, -187500.02, -187500.02, 0.000, 0.000, 0.000, 22:57:40.195
149, 26231.51, 32477.91, 187500.00, 187500.00, 187500.00, -187500.02, -187500.02, -187500.02, 0.000, 0.000, 0.000, 22:57:40.196
150, 25218.33, 31704.47, 187500.00, 187500.00, 187500.00, -187500.02, -187500.02, -187500.02, 0.000, 0.000, 0.000, 22:57:40.196
151, 23091.70, 29830.37, 187500.00, 187500.00, 187500.00, -187500.02, -187500.02, -187500.02, 0.000, 0.000, 0.000, 22:57:40.196
152, 23899.56, 30422.58, 187500.00, 187500.00, 187500.00, -187500.02, -187500.02, -187500.02, 0.000, 0.000, 0.000, 22:57:40.196
153, 26106.37, 32381.33, 187500.00, 187500.00, 187500.00, -187500.02, -187500.02, -187500.02, 0.000, 0.000, 0.000, 22:57:40.197
154, 25706.00, 32130.99, 187500.00, 187500.00, 187500.00, -187500.02, -187500.02, -187500.02, 0.000, 0.000, 0.000, 22:57:40.197
155, 23255.78, 29984.15, 187500.00, 187500.00, 187500.00, -187500.02, -187500.02, -187500.02, 0.172, 1.000, -0.158, 22:57:40.197
156, 23539.02, 30113.90, 187500.00, 187500.00, 187500.00, -187500.02, -187500.02, -187500.02, 0.000, 0.000, 0.000, 22:57:40.197
157, 25870.15, 32163.91, 187500.00, 187500.00, 187500.00, -187500.02, -187500.02, -187500.02, 0.000, 0.000, 0.000, 22:57:40.198
158, 26156.03, 32550.62, 187500.00, 187500.00, 187500.00, -187500.02, -187500.02, -187500.02, 0.000, 0.000, 0.000, 22:57:40.198
159, 23520.27, 30213.52, 187500.00, 187500.00, 187500.00, -187500.02, -187500.02, -187500.02, 0.000, 0.000, 0.000, 22:57:40.198
160, 23184.99, 29791.74, 187500.00, 187500.00, 187500.00, -187500.02, -187500.02, -187500.02, 0.000, 0.000, 0.000, 22:57:40.198
161, 25509.84, 31894.28, 187500.00, 187500.00, 187500.00, -187500.02, -187500.02, -187500.02, 0.000, 0.000, 0.000, 22:57:40.199
162, 26487.87, 32912.36, 187500.00, 187500.00, 187500.00, -187500.02, -187500.02, -187500.02, 0.000, 0.000, 0.000, 22:57:40.199
163, 23915.27, 30558.83, 187500.00, 187500.00, 187500.00, -187500.02, -187500.02, -187500.02, 0.000, 0.000, 0.000, 22:57:40.199
164, 22928.60, 29504.99, 187500.00, 187500.00, 187500.00, -187500.02, -187500.02, -187500.02, 0.000, 0.000, 0.000, 22:57:40.200
165, 25093.25, 31486.97, 187500.00, 187500.00, 187500.00, -187500.02, -187500.02, -187500.02, 0.176, 1.002, -0.158, 22:57:40.200
166, 26704.66, 33149.63, 187500.00, 187500.00, 187500.00, -187500.02, -187500.02, -187500.02, 0.000, 0.000, 0.000, 22:57:40.201
167, 24390.98, 31025.70, 187500.00, 187500.00, 187500.00, -187500.02, -187500.02, -187500.02, 0.000, 0.000, 0.000, 22:57:40.202
168, 22741.80, 29294.15, 187500.00, 187500.00, 187500.00, -187500.02, -187500.02, -187500.02, 0.000, 0.000, 0.000, 22:57:40.202
169, 24611.04, 31021.18, 187500.00, 187500.00, 187500.00, -187500.02, -187500.02, -187500.02, 0.000, 0.000, 0.000, 22:57:40.202
170, 26750.50, 33258.99, 187500.00, 187500.00, 187500.00, -187500.02, -187500.02, -187500.02, 0.000, 0.000, 0.000, 22:57:40.202
171, 24964.19, 31620.30, 187500.00, 187500.00, 187500.00, -187500.02, -187500.02, -187500.02, 0.000, 0.000, 0.000, 22:57:40.202
172, 22679.40, 29237.02, 187500.00, 187500.00, 187500.00, -187500.02, -187500.02, -187500.02, 0.000, 0.000, 0.000, 22:57:40.203
173, 24089.90, 30510.42, 187500.00, 187500.00, 187500.00, -187500.02, -187500.02, -187500.02, 0.000, 0.000, 0.000, 22:57:40.203
174, 26614.04, 33167.33, 187500.00, 187500.00, 187500.00, -187500.02, -187500.02, -187500.02, 0.000, 0.000, 0.000, 22:57:40.203
175, 25554.46, 32228.71, 187500.00, 187500.00, 187500.00, -187500.02, -187500.02, -187500.02, 0.172, 1.002, -0.156, 22:57:40.203
176, 22835.08, 29341.76, 187500.00, 187500.00, 187500.00, -187500.02, -187500.02, -187500.02, 0.000, 0.000, 0.000, 22:57:40.204
177, 23658.79, 30048.30, 187500.00, 187500.00, 187500.00, -187500.02, -187500.02, -187500.02, 0.000, 0.000, 0.000, 22:57:40.204
178, 26397.25, 32966.61, 187500.00, 187500.00, 187500.00, -187500.02, -187500.02, -187500.02, 0.000, 0.000, 0.000, 22:57:40.204
179, 26079.77, 32831.70, 187500.00, 187500.00, 187500.00, -187500.02, -187500.02, -187500.02, 0.000, 0.000, 0.000, 22:57:40.204
180, 22993.75, 29564.18, 187500.00, 187500.00, 187500.00, -187500.02, -187500.02, -187500.02, 0.000, 0.000, 0.000, 22:57:40.205
181, 23202.61, 29607.10, 187500.00, 187500.00, 187500.00, -187500.02, -187500.02, -187500.02, 0.000, 0.000, 0.000, 22:57:40.205
182, 25994.65, 32579.50, 187500.00, 187500.00, 187500.00, -187500.02, -187500.02, -187500.02, 0.000, 0.000, 0.000, 22:57:40.205
183, 26525.17, 33342.39, 187500.00, 187500.00, 187500.00, -187500.02, -187500.02, -187500.02, 0.000, 0.000, 0.000, 22:57:40.205
184, 23402.52, 30036.63, 187500.00, 187500.00, 187500.00, -187500.02, -187500.02, -187500.02, 0.000, 0.000, 0.000, 22:57:40.205
185, 22856.67, 29240.53, 187500.00, 187500.00, 187500.00, -187500.02, -187500.02, -187500.02, 0.180, 0.996, -0.152, 22:57:40.206
186, 25559.80, 32054.17, 187500.00, 187500.00, 187500.00, -187500.02, -187500.02, -187500.02, 0.000, 0.000, 0.000, 22:57:40.206
187, 26877.90, 33650.64, 187500.00, 187500.00, 187500.00, -187500.02, -187500.02, -187500.02, 0.000, 0.000, 0.000, 22:57:40.206
188, 23908.25, 30553.22, 187500.00, 187500.00, 187500.00, -187500.02, -187500.02, -187500.02, 0.000, 0.000, 0.000, 22:57:40.206
189, 22602.42, 28921.30, 187500.00, 187500.00, 187500.00, -187500.02, -187500.02, -187500.02, 0.000, 0.000, 0.000, 22:57:40.206
190, 25014.84, 31455.74, 187500.00, 187500.00, 187500.00, -187500.02, -187500.02, -187500.02, 0.000, 0.000, 0.000, 22:57:40.206
191, 26977.88, 33845.73, 187500.00, 187500.00, 187500.00, -187500.02, -187500.02, -187500.02, 0.000, 0.000, 0.000, 22:57:40.207
192, 24469.86, 31220.29, 187500.00, 187500.00, 187500.00, -187500.02, -187500.02, -187500.02, 0.000, 0.000, 0.000, 22:57:40.207
193, 22425.75, 28741.57, 187500.00, 187500.00, 187500.00, -187500.02, -187500.02, -187500.02, 0.000, 0.000, 0.000, 22:57:40.207
194, 24477.44, 30832.17, 187500.00, 187500.00, 187500.00, -187500.02, -187500.02, -187500.02, 0.180, 0.994, -0.160, 22:57:40.207
195, 27043.84, 33878.67, 187500.00, 187500.00, 187500.00, -187500.02, -187500.02, -187500.02, 0.000, 0.000, 0.000, 22:57:40.207
196, 25144.62, 31956.42, 187500.00, 187500.00, 187500.00, -187500.02, -187500.02, -187500.02, 0.000, 0.000, 0.000, 22:57:40.217
197, 22446.92, 28692.26, 187500.00, 187500.00, 187500.00, -187500.02, -187500.02, -187500.02, 0.000, 0.000, 0.000, 22:57:40.217
198, 23907.09, 30167.68, 187500.00, 187500.00, 187500.00, -187500.02, -187500.02, -187500.02, 0.000, 0.000, 0.000, 22:57:40.218
199, 26860.40, 33760.43, 187500.00, 187500.00, 187500.00, -187500.02, -187500.02, -187500.02, 0.000, 0.000, 0.000, 22:57:40.218
200, 25797.67, 32794.77, 187500.00, 187500.00, 187500.00, -187500.02, -187500.02, -187500.02, 0.000, 0.000, 0.000, 22:57:40.218
201, 22583.87, 28831.92, 187500.00, 187500.00, 187500.00, -187500.02, -187500.02, -187500.02, 0.000, 0.000, 0.000, 22:57:40.218
202, 23353.46, 29491.31, 187500.00, 187500.00, 187500.00, -187500.02, -187500.02, -187500.02, 0.000, 0.000, 0.000, 22:57:40.218
203, 26514.62, 33385.93, 187500.00, 187500.00, 187500.00, -187500.02, -187500.02, -187500.02, 0.000, 0.000, 0.000, 22:57:40.219
204, 26392.04, 33524.62, 187500.00, 187500.00, 187500.00, -187500.02, -187500.02, -187500.02, 0.184, 0.990, -0.166, 22:57:40.219
205, 22923.41, 29134.60, 187500.00, 187500.00, 187500.00, -187500.02, -187500.02, -187500.02, 0.000, 0.000, 0.000, 22:57:40.219
206, 22949.34, 28872.39, 187500.00, 187500.00, 187500.00, -187500.02, -187500.02, -187500.02, 0.000, 0.000, 0.000, 22:57:40.219
207, 26092.71, 32863.16, 187500.00, 187500.00, 187500.00, -187500.02, -187500.02, -187500.02, 0.000, 0.000, 0.000, 22:57:40.219
208, 26891.94, 34210.93, 187500.00, 187500.00, 187500.00, -187500.02, -187500.02, -187500.02, 0.000, 0.000, 0.000, 22:57:40.219
209, 23369.89, 29725.34, 187500.00, 187500.00, 187500.00, -187500.02, -187500.02, -187500.02, 0.000, 0.000, 0.000, 22:57:40.220
210, 22566.30, 28322.97, 187500.00, 187500.00, 187500.00, -187500.02, -187500.02, -187500.02, 0.000, 0.000, 0.000, 22:57:40.220
211, 25558.30, 32144.74, 187500.00, 187500.00, 187500.00, -187500.02, -187500.02, -187500.02, 0.000, 0.000, 0.000, 22:57:40.220
212, 27216.13, 34670.28, 187500.00, 187500.00, 187500.00, -187500.02, -187500.02, -187500.02, 0.000, 0.000, 0.000, 22:57:40.220
213, 24000.16, 30508.74, 187500.00, 187500.00, 187500.00, -187500.02, -187500.02, -187500.02, 0.000, 0.000, 0.000, 22:57:40.220
214, 22330.29, 27917.55, 187500.00, 187500.00, 187500.00, -187500.02, -187500.02, -187500.02, 0.182, 0.994, -0.162, 22:57:40.221
215, 24952.97, 31260.03, 187500.00, 187500.00, 187500.00, -187500.02, -187500.02, -187500.02, 0.000, 0.000, 0.000, 22:57:40.221
216, 27338.78, 34825.16, 187500.00, 187500.00, 187500.00, -187500.02, -187500.02, -187500.02, 0.000, 0.000, 0.000, 22:57:40.221
217, 24672.84, 31452.41, 187500.00, 187500.00, 187500.00, -187500.02, -187500.02, -187500.02, 0.000, 0.000, 0.000, 22:57:40.221
218, 22201.16, 27778.61, 187500.00, 187500.00, 187500.00, -187500.02, -187500.02, -187500.02, 0.000, 0.000, 0.000, 22:57:40.221
219, 24324.71, 30451.57, 187500.00, 187500.00, 187500.00, -187500.02, -187500.02, -187500.02, 0.000, 0.000, 0.000, 22:57:40.222
220, 27296.93, 34792.30, 187500.00, 187500.00, 187500.00, -187500.02, -187500.02, -187500.02, 0.000, 0.000, 0.000, 22:57:40.222
221, 25366.66, 32483.70, 187500.00, 187500.00, 187500.00, -187500.02, -187500.02, -187500.02, 0.000, 0.000, 0.000, 22:57:40.222
222, 22232.10, 27837.38, 187500.00, 187500.00, 187500.00, -187500.02, -187500.02, -187500.02, 0.000, 0.000, 0.000, 22:57:40.222
223, 23732.79, 29552.87, 187500.00, 187500.00, 187500.00, -187500.02, -187500.02, -187500.02, 0.000, 0.000, 0.000, 22:57:40.222
224, 27083.90, 34387.69, 187500.00, 187500.00, 187500.00, -187500.02, -187500.02, -187500.02, 0.186, 0.996, -0.166, 22:57:40.223
225, 26109.56, 33458.14, 187500.00, 187500.00, 187500.00, -187500.02, -187500.02, -187500.02, 0.000, 0.000, 0.000, 22:57:40.667
226, 22458.90, 28204.82, 187500.00, 187500.00, 187500.00, -187500.02, -187500.02, -187500.02, 0.000, 0.000, 0.000, 22:57:40.667
227, 23167.43, 28851.72, 187500.00, 187500.00, 187500.00, -187500.02, -187500.02, -187500.02, 0.000, 0.000, 0.000, 22:57:40.667
228, 26637.04, 33892.64, 187500.00, 187500.00, 187500.00, -187500.02, -187500.02, -187500.02, 0.000, 0.000, 0.000, 22:57:40.668
229, 26706.09, 34428.68, 187500.00, 187500.00, 187500.00, -187500.02, -187500.02, -187500.02, 0.000, 0.000, 0.000, 22:57:40.668
230, 22865.39, 28858.47, 187500.00, 187500.00, 187500.00, -187500.02, -187500.02, -187500.02, 0.000, 0.000, 0.000, 22:57:40.668
231, 22709.77, 28141.27, 187500.00, 187500.00, 187500.00, -187500.02, -187500.02, -187500.02, 0.000, 0.000, 0.000, 22:57:40.668
232, 26107.80, 32949.13, 187500.00, 187500.00, 187500.00, -187500.02, -187500.02, -187500.02, 0.000, 0.000, 0.000, 22:57:40.668
233, 27172.93, 34919.55, 187500.00, 187500.00, 187500.00, -187500.02, -187500.02, -187500.02, 0.000, 0.000, 0.000, 22:57:40.668
234, 23424.92, 29643.58, 187500.00, 187500.00, 187500.00, -187500.02, -187500.02, -187500.02, 0.188, 1.000, -0.156, 22:57:40.668
235, 22379.28, 27666.36, 187500.00, 187500.00, 187500.00, -187500.02, -187500.02, -187500.02, 0.000, 0.000, 0.000, 22:57:40.669
236, 25499.34, 32018.52, 187500.00, 187500.00, 187500.00, -187500.02, -187500.02, -187500.02, 0.000, 0.000, 0.000, 22:57:40.669
237, 27427.49, 35223.60, 187500.00, 187500.00, 187500.00, -187500.02, -187500.02, -187500.02, 0.000, 0.000, 0.000, 22:57:40.669
238, 24056.29, 30570.77, 187500.00, 187500.00, 187500.00, -187500.02, -187500.02, -187500.02, 0.000, 0.000, 0.000, 22:57:40.669
239, 22125.50, 27327.55, 187500.00, 187500.00, 187500.00, -187500.02, -187500.02, -187500.02, 0.000, 0.000, 0.000, 22:57:40.669
240, 24801.90, 30965.90, 187500.00, 187500.00, 187500.00, -187500.02, -187500.02, -187500.02, 0.000, 0.000, 0.000, 22:57:40.669
241, 27466.18, 35206.54, 187500.00, 187500.00, 187500.00, -187500.02, -187500.02, -187500.02, 0.000, 0.000, 0.000, 22:57:40.669
242, 24824.21, 31678.99, 187500.00, 187500.00, 187500.00, -187500.02, -187500.02, -187500.02, 0.000, 0.000, 0.000, 22:57:40.669
243, 22068.73, 27320.04, 187500.00, 187500.00, 187500.00, -187500.02, -187500.02, -187500.02, 0.000, 0.000, 0.000, 22:57:40.669
244, 24168.76, 30054.22, 187500.00, 187500.00, 187500.00, -187500.02, -187500.02, -187500.02, 0.186, 0.998, -0.158, 22:57:40.670
245, 27346.33, 34983.77, 187500.00, 187500.00, 187500.00, -187500.02, -187500.02, -187500.02, 0.000, 0.000, 0.000, 22:57:40.670
246, 25587.99, 32818.26, 187500.00, 187500.00, 187500.00, -187500.02, -187500.02, -187500.02, 0.000, 0.000, 0.000, 22:57:40.670
247, 22179.95, 27580.55, 187500.00, 187500.00, 187500.00, -187500.02, -187500.02, -187500.02, 0.000, 0.000, 0.000, 22:57:40.670
248, 23521.81, 29170.99, 187500.00, 187500.00, 187500.00, -187500.02, -187500.02, -187500.02, 0.000, 0.000, 0.000, 22:57:40.670
249, 26984.88, 34445.18, 187500.00, 187500.00, 187500.00, -187500.02, -187500.02, -187500.02, 0.000, 0.000, 0.000, 22:57:40.670
250, 26242.73, 33830.79, 187500.00, 187500.00, 187500.00, -187500.02, -187500.02, -187500.02, 0.000, 0.000, 0.000, 22:57:40.671
251, 22447.10, 28080.58, 187500.00, 187500.00, 187500.00, -187500.02, -187500.02, -187500.02, 0.000, 0.000, 0.000, 22:57:40.671
252, 23004.62, 28427.35, 187500.00, 187500.00, 187500.00, -187500.02, -187500.02, -187500.02, 0.000, 0.000, 0.000, 22:57:40.671
253, 26537.69, 33741.48, 187500.00, 187500.00, 187500.00, -187500.02, -187500.02, -187500.02, 0.000, 0.000, 0.000, 22:57:40.671
254, 26826.41, 34668.79, 187500.00, 187500.00, 187500.00, -187500.02, -187500.02, -187500.02, 0.186, 0.992, -0.164, 22:57:40.672
255, 22922.56, 28852.88, 187500.00, 187500.00, 187500.00, -187500.02, -187500.02, -187500.02, 0.000, 0.000, 0.000, 22:57:40.672
0, 22564.64, 27821.69, 187500.00, 187500.00, 187500.00, -187500.02, -187500.02, -187500.02, 0.000, 0.000, 0.000, 22:57:40.672
1, 25949.37, 32810.30, 187500.00, 187500.00, 187500.00, -187500.02, -187500.02, -187500.02, 0.000, 0.000, 0.000, 22:57:40.672
2, 27216.47, 35224.76, 187500.00, 187500.00, 187500.00, -187500.02, -187500.02, -187500.02, 0.000, 0.000, 0.000, 22:57:40.672
3, 23493.89, 29799.37, 187500.00, 187500.00, 187500.00, -187500.02, -187500.02, -187500.02, 0.000, 0.000, 0.000, 22:57:40.672
4, 22252.28, 27401.36, 187500.00, 187500.00, 187500.00, -187500.02, -187500.02, -187500.02, 0.000, 0.000, 0.000, 22:57:40.673
5, 25303.69, 31830.49, 187500.00, 187500.00, 187500.00, -187500.02, -187500.02, -187500.02, 0.000, 0.000, 0.000, 22:57:40.673
6, 27451.47, 35507.80, 187500.00, 187500.00, 187500.00, -187500.02, -187500.02, -187500.02, 0.000, 0.000, 0.000, 22:57:40.673
7, 24220.71, 30912.26, 187500.00, 187500.00, 187500.00, -187500.02, -187500.02, -187500.02, 0.186, 0.992, -0.170, 22:57:40.673
8, 22065.39, 27236.70, 187500.00, 187500.00, 187500.00, -187500.02, -187500.02, -187500.02, 0.000, 0.000, 0.000, 22:57:40.673
9, 24632.07, 30826.74, 187500.00, 187500.00, 187500.00, -187500.02, -187500.02, -187500.02, 0.000, 0.000, 0.000, 22:57:40.673
10, 27443.56, 35404.36, 187500.00, 187500.00, 187500.00, -187500.02, -187500.02, -187500.02, 0.000, 0.000, 0.000, 22:57:40.674
11, 24969.38, 32053.41, 187500.00, 187500.00, 187500.00, -187500.02, -187500.02, -187500.02, 0.000, 0.000, 0.000, 22:57:40.674
12, 22069.84, 27322.79, 187500.00, 187500.00, 187500.00, -187500.02, -187500.02, -187500.02, 0.000, 0.000, 0.000, 22:57:40.674
13, 24007.76, 29875.43, 187500.00, 187500.00, 187500.00, -187500.02, -187500.02, -187500.02, 0.000, 0.000, 0.000, 22:57:40.674
14, 27302.45, 35054.51, 187500.00, 187500.00, 187500.00, -187500.02, -187500.02, -187500.02, 0.000, 0.000, 0.000, 22:57:40.674
15, 25726.52, 33164.82, 187500.00, 187500.00, 187500.00, -187500.02, -187500.02, -187500.02, 0.000, 0.000, 0.000, 22:57:40.674
16, 22194.54, 27649.84, 187500.00, 187500.00, 187500.00, -187500.02, -187500.02, -187500.02, 0.000, 0.000, 0.000, 22:57:40.674
17, 23411.02, 29010.26, 187500.00, 187500.00, 187500.00, -187500.02, -187500.02, -187500.02, 0.182, 0.994, -0.180, 22:57:40.675
18, 26914.81, 34421.26, 187500.00, 187500.00, 187500.00, -187500.02, -187500.02, -187500.02, 0.000, 0.000, 0.000, 22:57:40.675
19, 26412.18, 34170.38, 187500.00, 187500.00, 187500.00, -187500.02, -187500.02, -187500.02, 0.000, 0.000, 0.000, 22:57:40.675
20, 22562.65, 28270.17, 187500.00, 187500.00, 187500.00, -187500.02, -187500.02, -187500.02, 0.000, 0.000, 0.000, 22:57:40.675
21, 22884.43, 28275.80, 187500.00, 187500.00, 187500.00, -187500.02, -187500.02, -187500.02, 0.000, 0.000, 0.000, 22:57:40.676
22, 26426.60, 33618.99, 187500.00, 187500.00, 187500.00, -187500.02, -187500.02, -187500.02, 0.000, 0.000, 0.000, 22:57:40.676
23, 26991.03, 34937.61, 187500.00, 187500.00, 187500.00, -187500.02, -187500.02, -187500.02, 0.000, 0.000, 0.000, 22:57:40.676
24, 23078.33, 29092.49, 187500.00, 187500.00, 187500.00, -187500.02, -187500.02, -187500.02, 0.000, 0.000, 0.000, 22:57:40.676
25, 22480.76, 27727.90, 187500.00, 187500.00, 187500.00, -187500.02, -187500.02, -187500.02, 0.000, 0.000, 0.000, 22:57:40.676
26, 25826.90, 32671.48, 187500.00, 187500.00, 187500.00, -187500.02, -187500.02, -187500.02, 0.000, 0.000, 0.000, 22:57:40.676
27, 27348.92, 35419.85, 187500.00, 187500.00, 187500.00, -187500.02, -187500.02, -187500.02, 0.178, 0.996, -0.176, 22:57:40.677
28, 23686.01, 30136.19, 187500.00, 187500.00, 187500.00, -187500.02, -187500.02, -187500.02, 0.000, 0.000, 0.000, 22:57:40.677
29, 22190.05, 27414.64, 187500.00, 187500.00, 187500.00, -187500.02, -187500.02, -187500.02, 0.000, 0.000, 0.000, 22:57:40.677
30, 25180.71, 31686.64, 187500.00, 187500.00, 187500.00, -187500.02, -187500.02, -187500.02, 0.000, 0.000, 0.000, 22:57:40.677
31, 27513.79, 35621.59, 187500.00, 187500.00, 187500.00, -187500.02, -187500.02, -187500.02, 0.000, 0.000, 0.000, 22:57:40.677
32, 24400.86, 31234.46, 187500.00, 187500.00, 187500.00, -187500.02, -187500.02, -187500.02, 0.000, 0.000, 0.000, 22:57:40.677
33, 22040.32, 27256.14, 187500.00, 187500.00, 187500.00, -187500.02, -187500.02, -187500.02, 0.000, 0.000, 0.000, 22:57:40.678
34, 24474.73, 30646.21, 187500.00, 187500.00, 187500.00, -187500.02, -187500.02, -187500.02, 0.000, 0.000, 0.000, 22:57:40.678
35, 27436.52, 35454.43, 187500.00, 187500.00, 187500.00, -187500.02, -187500.02, -187500.02, 0.000, 0.000, 0.000, 22:57:40.678
36, 25158.54, 32413.25, 187500.00, 187500.00, 187500.00, -187500.02, -187500.02, -187500.02, 0.000, 0.000, 0.000, 22:57:40.678
37, 22080.62, 27418.57, 187500.00, 187500.00, 187500.00, -187500.02, -187500.02, -187500.02, 0.184, 0.992, -0.180, 22:57:40.678
38, 23835.41, 29741.54, 187500.00, 187500.00, 187500.00, -187500.02, -187500.02, -187500.02, 0.000, 0.000, 0.000, 22:57:40.679
39, 27180.55, 35044.14, 187500.00, 187500.00, 187500.00, -187500.02, -187500.02, -187500.02, 0.000, 0.000, 0.000, 22:57:40.679
40, 25892.51, 33526.59, 187500.00, 187500.00, 187500.00, -187500.02, -187500.02, -187500.02, 0.000, 0.000, 0.000, 22:57:40.679
41, 22301.47, 27819.43, 187500.00, 187500.00, 187500.00, -187500.02, -187500.02, -187500.02, 0.000, 0.000, 0.000, 22:57:40.679
42, 23265.62, 28856.26, 187500.00, 187500.00, 187500.00, -187500.02, -187500.02, -187500.02, 0.000, 0.000, 0.000, 22:57:40.679
43, 26757.14, 34396.20, 187500.00, 187500.00, 187500.00, -187500.02, -187500.02, -187500.02, 0.000, 0.000, 0.000, 22:57:40.679
44, 26504.54, 34512.41, 187500.00, 187500.00, 187500.00, -187500.02, -187500.02, -187500.02, 0.000, 0.000, 0.000, 22:57:40.679
45, 22659.06, 28501.04, 187500.00, 187500.00, 187500.00, -187500.02, -187500.02, -187500.02, 0.000, 0.000, 0.000, 22:57:40.680
46, 22776.94, 28191.94, 187500.00, 187500.00, 187500.00, -187500.02, -187500.02, -187500.02, 0.000, 0.000, 0.000, 22:57:40.680
47, 26206.26, 33500.44, 187500.00, 187500.00, 187500.00, -187500.02, -187500.02, -187500.02, 0.192, 0.988, -0.180, 22:57:40.680
48, 26973.21, 35179.03, 187500.00, 187500.00, 187500.00, -187500.02, -187500.02, -187500.02, 0.000, 0.000, 0.000, 22:57:40.680
49, 23213.94, 29363.60, 187500.00, 187500.00, 187500.00, -187500.02, -187500.02, -187500.02, 0.000, 0.000, 0.000, 22:57:40.680
50, 22445.58, 27663.26, 187500.00, 187500.00, 187500.00, -187500.02, -187500.02, -187500.02, 0.000, 0.000, 0.000, 22:57:40.680
51, 25648.18, 32522.19, 187500.00, 187500.00, 187500.00, -187500.02, -187500.02, -187500.02, 0.000, 0.000, 0.000, 22:57:40.680
52, 27318.55, 35604.61, 187500.00, 187500.00, 187500.00, -187500.02, -187500.02, -187500.02, 0.000, 0.000, 0.000, 22:57:40.681
53, 23837.64, 30404.32, 187500.00, 187500.00, 187500.00, -187500.02, -187500.02, -187500.02, 0.000, 0.000, 0.000, 22:57:40.681
54, 22184.62, 27334.71, 187500.00, 187500.00, 187500.00, -187500.02, -187500.02, -187500.02, 0.000, 0.000, 0.000, 22:57:40.681
55, 24993.83, 31474.36, 187500.00, 187500.00, 187500.00, -187500.02, -187500.02, -187500.02, 0.000, 0.000, 0.000, 22:57:40.681
56, 27419.71, 35668.38, 187500.00, 187500.00, 187500.00, -187500.02, -187500.02, -187500.02, 0.000, 0.000, 0.000, 22:57:40.681
57, 24547.31, 31515.89, 187500.00, 187500.00, 187500.00, -187500.02, -187500.02, -187500.02, 0.186, 0.996, -0.190, 22:57:40.681
58, 22076.41, 27223.73, 187500.00, 187500.00, 187500.00, -187500.02, -187500.02, -187500.02, 0.000, 0.000, 0.000, 22:57:40.681
59, 24345.83, 30414.76, 187500.00, 187500.00, 187500.00, -187500.02, -187500.02, -187500.02, 0.000, 0.000, 0.000, 22:57:40.682
60, 27350.58, 35433.30, 187500.00, 187500.00, 187500.00, -187500.02, -187500.02, -187500.02, 0.000, 0.000, 0.000, 22:57:40.682
61, 25297.79, 32697.67, 187500.00, 187500.00, 187500.00, -187500.02, -187500.02, -187500.02, 0.000, 0.000, 0.000, 22:57:40.682
62, 22120.16, 27468.93, 187500.00, 187500.00, 187500.00, -187500.02, -187500.02, -187500.02, 0.000, 0.000, 0.000, 22:57:40.682
63, 23714.37, 29515.77, 187500.00, 187500.00, 187500.00, -187500.02, -187500.02, -187500.02, 0.000, 0.000, 0.000, 22:57:40.683
64, 27062.73, 34931.71, 187500.00, 187500.00, 187500.00, -187500.02, -187500.02, -187500.02, 0.000, 0.000, 0.000, 22:57:40.683
65, 25992.98, 33785.35, 187500.00, 187500.00, 187500.00, -187500.02, -187500.02, -187500.02, 0.000, 0.000, 0.000, 22:57:40.683
66, 22351.83, 27968.20, 187500.00, 187500.00, 187500.00, -187500.02, -187500.02, -187500.02, 0.194, 0.984, -0.184, 22:57:40.683
67, 23154.13, 28728.67, 187500.00, 187500.00, 187500.00, -187500.02, -187500.02, -187500.02, 0.000, 0.000, 0.000, 22:57:40.683
68, 26636.89, 34175.70, 187500.00, 187500.00, 187500.00, -187500.02, -187500.02, -187500.02, 0.000, 0.000, 0.000, 22:57:40.683
69, 26597.32, 34605.39, 187500.00, 187500.00, 187500.00, -187500.02, -187500.02, -187500.02, 0.000, 0.000, 0.000, 22:57:40.684
70, 22743.64, 28643.89, 187500.00, 187500.00, 187500.00, -187500.02, -187500.02, -187500.02, 0.000, 0.000, 0.000, 22:57:40.684
71, 22696.83, 28061.09, 187500.00, 187500.00, 187500.00, -187500.02, -187500.02, -187500.02, 0.000, 0.000, 0.000, 22:57:40.684
72, 26113.72, 33260.02, 187500.00, 187500.00, 187500.00, -187500.02, -187500.02, -187500.02, 0.000, 0.000, 0.000, 22:57:40.684
73, 27074.40, 35238.29, 187500.00, 187500.00, 187500.00, -187500.02, -187500.02, -187500.02, 0.000, 0.000, 0.000, 22:57:40.684
74, 23305.52, 29593.53, 187500.00, 187500.00, 187500.00, -187500.02, -187500.02, -187500.02, 0.000, 0.000, 0.000, 22:57:40.684
75, 22348.90, 27643.36, 187500.00, 187500.00, 187500.00, -187500.02, -187500.02, -187500.02, 0.000, 0.000, 0.000, 22:57:40.685
76, 25502.85, 32246.82, 187500.00, 187500.00, 187500.00, -187500.02, -187500.02, -187500.02, 0.196, 0.970, -0.182, 22:57:40.685
77, 27370.07, 35495.26, 187500.00, 187500.00, 187500.00, -187500.02, -187500.02, -187500.02, 0.000, 0.000, 0.000, 22:57:40.685
78, 23997.50, 30647.97, 187500.00, 187500.00, 187500.00, -187500.02, -187500.02, -187500.02, 0.000, 0.000, 0.000, 22:57:40.685
79, 22149.59, 27419.09, 187500.00, 187500.00, 187500.00, -187500.02, -187500.02, -187500.02, 0.000, 0.000, 0.000, 22:57:40.685
80, 24866.61, 31211.57, 187500.00, 187500.00, 187500.00, -187500.02, -187500.02, -187500.02, 0.000, 0.000, 0.000, 22:57:40.686
81, 27457.35, 35399.64, 187500.00, 187500.00, 187500.00, -187500.02, -187500.02, -187500.02, 0.000, 0.000, 0.000, 22:57:40.686
82, 24740.94, 31704.00, 187500.00, 187500.00, 187500.00, -187500.02, -187500.02, -187500.02, 0.000, 0.000, 0.000, 22:57:40.686
83, 22052.28, 27397.63, 187500.00, 187500.00, 187500.00, -187500.02, -187500.02, -187500.02, 0.000, 0.000, 0.000, 22:57:40.686
84, 24207.41, 30192.94, 187500.00, 187500.00, 187500.00, -187500.02, -187500.02, -187500.02, 0.000, 0.000, 0.000, 22:57:40.686
85, 27362.87, 35034.66, 187500.00, 187500.00, 187500.00, -187500.02, -187500.02, -187500.02, 0.000, 0.000, 0.000, 22:57:40.686
86, 25515.83, 32731.29, 187500.00, 187500.00, 187500.00, -187500.02, -187500.02, -187500.02, 0.194, 0.988, -0.182, 22:57:40.686
87, 22179.26, 27620.12, 187500.00, 187500.00, 187500.00, -187500.02, -187500.02, -187500.02, 0.000, 0.000, 0.000, 22:57:40.687
88, 23600.29, 29314.71, 187500.00, 187500.00, 187500.00, -187500.02, -187500.02, -187500.02, 0.000, 0.000, 0.000, 22:57:40.687
89, 27040.51, 34453.80, 187500.00, 187500.00, 187500.00, -187500.02, -187500.02, -187500.02, 0.000, 0.000, 0.000, 22:57:40.687
90, 26198.08, 33695.68, 187500.00, 187500.00, 187500.00, -187500.02, -187500.02, -187500.02, 0.000, 0.000, 0.000, 22:57:41.146
91, 22435.59, 28176.38, 187500.00, 187500.00, 187500.00, -187500.02, -187500.02, -187500.02, 0.000, 0.000, 0.000, 22:57:41.146
92, 23043.33, 28622.21, 187500.00, 187500.00, 187500.00, -187500.02, -187500.02, -187500.02, 0.000, 0.000, 0.000, 22:57:41.147
93, 26545.22, 33708.24, 187500.00, 187500.00, 187500.00, -187500.02, -187500.02, -187500.02, 0.000, 0.000, 0.000, 22:57:41.147
94, 26761.81, 34458.21, 187500.00, 187500.00, 187500.00, -187500.02, -187500.02, -187500.02, 0.000, 0.000, 0.000, 22:57:41.147
95, 22902.92, 28915.62, 187500.00, 187500.00, 187500.00, -187500.02, -187500.02, -187500.02, 0.000, 0.000, 0.000, 22:57:41.147
96, 22630.47, 28105.98, 187500.00, 187500.00, 187500.00, -187500.02, -187500.02, -187500.02, 0.192, 0.988, -0.180, 22:57:41.148
97, 26005.54, 32873.67, 187500.00, 187500.00, 187500.00, -187500.02, -187500.02, -187500.02, 0.000, 0.000, 0.000, 22:57:41.148
98, 27202.94, 34990.56, 187500.00, 187500.00, 187500.00, -187500.02, -187500.02, -187500.02, 0.000, 0.000, 0.000, 22:57:41.148
99, 23457.04, 29852.68, 187500.00, 187500.00, 187500.00, -187500.02, -187500.02, -187500.02, 0.000, 0.000, 0.000, 22:57:41.148
100, 22277.83, 27777.63, 187500.00, 187500.00, 187500.00, -187500.02, -187500.02, -187500.02, 0.000, 0.000, 0.000, 22:57:41.149
101, 25369.10, 31963.08, 187500.00, 187500.00, 187500.00, -187500.02, -187500.02, -187500.02, 0.000, 0.000, 0.000, 22:57:41.149
102, 27437.03, 35215.89, 187500.00, 187500.00, 187500.00, -187500.02, -187500.02, -187500.02, 0.000, 0.000, 0.000, 22:57:41.149
103, 24162.77, 30878.53, 187500.00, 187500.00, 187500.00, -187500.02, -187500.02, -187500.02, 0.000, 0.000, 0.000, 22:57:41.149
104, 22073.04, 27612.14, 187500.00, 187500.00, 187500.00, -187500.02, -187500.02, -187500.02, 0.000, 0.000, 0.000, 22:57:41.149
105, 24696.31, 31013.11, 187500.00, 187500.00, 187500.00, -187500.02, -187500.02, -187500.02, 0.000, 0.000, 0.000, 22:57:41.150
106, 27477.02, 35132.36, 187500.00, 187500.00, 187500.00, -187500.02, -187500.02, -187500.02, 0.188, 0.996, -0.168, 22:57:41.150
107, 24904.18, 31885.92, 187500.00, 187500.00, 187500.00, -187500.02, -187500.02, -187500.02, 0.000, 0.000, 0.000, 22:57:41.150
108, 22027.44, 27632.25, 187500.00, 187500.00, 187500.00, -187500.02, -187500.02, -187500.02, 0.000, 0.000, 0.000, 22:57:41.150
109, 24015.76, 30101.83, 187500.00, 187500.00, 187500.00, -187500.02, -187500.02, -187500.02, 0.000, 0.000, 0.000, 22:57:41.150
110, 27256.74, 34788.16, 187500.00, 187500.00, 187500.00, -187500.02, -187500.02, -187500.02, 0.000, 0.000, 0.000, 22:57:41.151
111, 25667.76, 32919.02, 187500.00, 187500.00, 187500.00, -187500.02, -187500.02, -187500.02, 0.000, 0.000, 0.000, 22:57:41.151
112, 22190.72, 27939.26, 187500.00, 187500.00, 187500.00, -187500.02, -187500.02, -187500.02, 0.000, 0.000, 0.000, 22:57:41.151
113, 23422.48, 29288.21, 187500.00, 187500.00, 187500.00, -187500.02, -187500.02, -187500.02, 0.000, 0.000, 0.000, 22:57:41.151
114, 26931.64, 34222.66, 187500.00, 187500.00, 187500.00, -187500.02, -187500.02, -187500.02, 0.000, 0.000, 0.000, 22:57:41.151
115, 26327.16, 33823.42, 187500.00, 187500.00, 187500.00, -187500.02, -187500.02, -187500.02, 0.000, 0.000, 0.000, 22:57:41.151
116, 22488.16, 28483.97, 187500.00, 187500.00, 187500.00, -187500.02, -187500.02, -187500.02, 0.188, 0.992, -0.168, 22:57:41.152
117, 22908.84, 28631.18, 187500.00, 187500.00, 187500.00, -187500.02, -187500.02, -187500.02, 0.000, 0.000, 0.000, 22:57:41.152
118, 26417.95, 33471.73, 187500.00, 187500.00, 187500.00, -187500.02, -187500.02, -187500.02, 0.000, 0.000, 0.000, 22:57:41.152
119, 26895.27, 34500.83, 187500.00, 187500.00, 187500.00, -187500.02, -187500.02, -187500.02, 0.000, 0.000, 0.000, 22:57:41.152
120, 22996.01, 29168.82, 187500.00, 187500.00, 187500.00, -187500.02, -187500.02, -187500.02, 0.000, 0.000, 0.000, 22:57:41.152
121, 22497.83, 28095.49, 187500.00, 187500.00, 187500.00, -187500.02, -187500.02, -187500.02, 0.000, 0.000, 0.000, 22:57:41.152
122, 25867.56, 32656.90, 187500.00, 187500.00, 187500.00, -187500.02, -187500.02, -187500.02, 0.000, 0.000, 0.000, 22:57:41.153
123, 27274.92, 34992.04, 187500.00, 187500.00, 187500.00, -187500.02, -187500.02, -187500.02, 0.000, 0.000, 0.000, 22:57:41.153
124, 23582.27, 30089.27, 187500.00, 187500.00, 187500.00, -187500.02, -187500.02, -187500.02, 0.000, 0.000, 0.000, 22:57:41.153
125, 22198.66, 27784.65, 187500.00, 187500.00, 187500.00, -187500.02, -187500.02, -187500.02, 0.000, 0.000, 0.000, 22:57:41.153
126, 25215.52, 31740.04, 187500.00, 187500.00, 187500.00, -187500.02, -187500.02, -187500.02, 0.194, 0.994, -0.162, 22:57:41.153
127, 27475.72, 35185.51, 187500.00, 187500.00, 187500.00, -187500.02, -187500.02, -187500.02, 0.000, 0.000, 0.000, 22:57:41.153
128, 24314.52, 31142.53, 187500.00, 187500.00, 187500.00, -187500.02, -187500.02, -187500.02, 0.000, 0.000, 0.000, 22:57:41.154
129, 22044.29, 27691.91, 187500.00, 187500.00, 187500.00, -187500.02, -187500.02, -187500.02, 0.000, 0.000, 0.000, 22:57:41.154
130, 24526.08, 30832.42, 187500.00, 187500.00, 187500.00, -187500.02, -187500.02, -187500.02, 0.000, 0.000, 0.000, 22:57:41.154
131, 27437.19, 35082.54, 187500.00, 187500.00, 187500.00, -187500.02, -187500.02, -187500.02, 0.000, 0.000, 0.000, 22:57:41.154
132, 25092.60, 32198.56, 187500.00, 187500.00, 187500.00, -187500.02, -187500.02, -187500.02, 0.000, 0.000, 0.000, 22:57:41.154
133, 22062.65, 27800.23, 187500.00, 187500.00, 187500.00, -187500.02, -187500.02, -187500.02, 0.000, 0.000, 0.000, 22:57:41.154
134, 23907.45, 29996.64, 187500.00, 187500.00, 187500.00, -187500.02, -187500.02, -187500.02, 0.000, 0.000, 0.000, 22:57:41.154
135, 27255.18, 34741.09, 187500.00, 187500.00, 187500.00, -187500.02, -187500.02, -187500.02, 0.192, 0.994, -0.172, 22:57:41.155
136, 25829.52, 33198.73, 187500.00, 187500.00, 187500.00, -187500.02, -187500.02, -187500.02, 0.000, 0.000, 0.000, 22:57:41.155
137, 22267.79, 28144.62, 187500.00, 187500.00, 187500.00, -187500.02, -187500.02, -187500.02, 0.000, 0.000, 0.000, 22:57:41.155
138, 23338.82, 29238.41, 187500.00, 187500.00, 187500.00, -187500.02, -187500.02, -187500.02, 0.000, 0.000, 0.000, 22:57:41.155
139, 26848.87, 34131.29, 187500.00, 187500.00, 187500.00, -187500.02, -187500.02, -187500.02, 0.000, 0.000, 0.000, 22:57:41.155
140, 26502.06, 34049.30, 187500.00, 187500.00, 187500.00, -187500.02, -187500.02, -187500.02, 0.000, 0.000, 0.000, 22:57:41.155
141, 22630.22, 28709.47, 187500.00, 187500.00, 187500.00, -187500.02, -187500.02, -187500.02, 0.000, 0.000, 0.000, 22:57:41.156
142, 22841.76, 28595.79, 187500.00, 187500.00, 187500.00, -187500.02, -187500.02, -187500.02, 0.000, 0.000, 0.000, 22:57:41.156
143, 26356.71, 33372.27, 187500.00, 187500.00, 187500.00, -187500.02, -187500.02, -187500.02, 0.000, 0.000, 0.000, 22:57:41.156
144, 27029.99, 34689.62, 187500.00, 187500.00, 187500.00, -187500.02, -187500.02, -187500.02, 0.000, 0.000, 0.000, 22:57:41.156
145, 23136.49, 29460.67, 187500.00, 187500.00, 187500.00, -187500.02, -187500.02, -187500.02, 0.198, 0.986, -0.174, 22:57:41.157
146, 22436.10, 28096.30, 187500.00, 187500.00, 187500.00, -187500.02, -187500.02, -187500.02, 0.000, 0.000, 0.000, 22:57:41.157
147, 25729.63, 32490.40, 187500.00, 187500.00, 187500.00, -187500.02, -187500.02, -187500.02, 0.000, 0.000, 0.000, 22:57:41.157
148, 27371.63, 35080.12, 187500.00, 187500.00, 187500.00, -187500.02, -187500.02, -187500.02, 0.000, 0.000, 0.000, 22:57:41.157
149, 23793.50, 30363.48, 187500.00, 187500.00, 187500.00, -187500.02, -187500.02, -187500.02, 0.000, 0.000, 0.000, 22:57:41.158
150, 22163.50, 27773.96, 187500.00, 187500.00, 187500.00, -187500.02, -187500.02, -187500.02, 0.000, 0.000, 0.000, 22:57:41.158
151, 25048.50, 31523.87, 187500.00, 187500.00, 187500.00, -187500.02, -187500.02, -187500.02, 0.000, 0.000, 0.000, 22:57:41.158
152, 27497.63, 35163.29, 187500.00, 187500.00, 187500.00, -187500.02, -187500.02, -187500.02, 0.000, 0.000, 0.000, 22:57:41.158
153, 24523.51, 31371.54, 187500.00, 187500.00, 187500.00, -187500.02, -187500.02, -187500.02, 0.000, 0.000, 0.000, 22:57:41.159
154, 22053.41, 27729.89, 187500.00, 187500.00, 187500.00, -187500.02, -187500.02, -187500.02, 0.000, 0.000, 0.000, 22:57:41.159
155, 24421.45, 30672.61, 187500.00, 187500.00, 187500.00, -187500.02, -187500.02, -187500.02, 0.204, 0.988, -0.174, 22:57:41.159
156, 27472.86, 35024.00, 187500.00, 187500.00, 187500.00, -187500.02, -187500.02, -187500.02, 0.000, 0.000, 0.000, 22:57:41.159
157, 25257.89, 32416.87, 187500.00, 187500.00, 187500.00, -187500.02, -187500.02, -187500.02, 0.000, 0.000, 0.000, 22:57:41.160
158, 22082.61, 27853.71, 187500.00, 187500.00, 187500.00, -187500.02, -187500.02, -187500.02, 0.000, 0.000, 0.000, 22:57:41.160
159, 23794.04, 29829.79, 187500.00, 187500.00, 187500.00, -187500.02, -187500.02, -187500.02, 0.000, 0.000, 0.000, 22:57:41.160
160, 27205.36, 34618.98, 187500.00, 187500.00, 187500.00, -187500.02, -187500.02, -187500.02, 0.000, 0.000, 0.000, 22:57:41.160
161, 26025.28, 33397.33, 187500.00, 187500.00, 187500.00, -187500.02, -187500.02, -187500.02, 0.000, 0.000, 0.000, 22:57:41.161
162, 22309.66, 28235.21, 187500.00, 187500.00, 187500.00, -187500.02, -187500.02, -187500.02, 0.000, 0.000, 0.000, 22:57:41.161
163, 23200.26, 29054.23, 187500.00, 187500.00, 187500.00, -187500.02, -187500.02, -187500.02, 0.000, 0.000, 0.000, 22:57:41.161
164, 26818.72, 33980.82, 187500.00, 187500.00, 187500.00, -187500.02, -187500.02, -187500.02, 0.000, 0.000, 0.000, 22:57:41.161
165, 26689.50, 34238.20, 187500.00, 187500.00, 187500.00, -187500.02, -187500.02, -187500.02, 0.190, 0.990, -0.180, 22:57:41.162
166, 22694.35, 28837.57, 187500.00, 187500.00, 187500.00, -187500.02, -187500.02, -187500.02, 0.000, 0.000, 0.000, 22:57:41.162
167, 22654.70, 28434.79, 187500.00, 187500.00, 187500.00, -187500.02, -187500.02, -187500.02, 0.000, 0.000, 0.000, 22:57:41.162
168, 26221.12, 33182.97, 187500.00, 187500.00, 187500.00, -187500.02, -187500.02, -187500.02, 0.000, 0.000, 0.000, 22:57:41.162
169, 27176.72, 34795.52, 187500.00, 187500.00, 187500.00, -187500.02, -187500.02, -187500.02, 0.000, 0.000, 0.000, 22:57:41.163
170, 23277.91, 29615.79, 187500.00, 187500.00, 187500.00, -187500.02, -187500.02, -187500.02, 0.000, 0.000, 0.000, 22:57:41.163
171, 22349.40, 28000.39, 187500.00, 187500.00, 187500.00, -187500.02, -187500.02, -187500.02, 0.000, 0.000, 0.000, 22:57:41.163
172, 25611.81, 32311.37, 187500.00, 187500.00, 187500.00, -187500.02, -187500.02, -187500.02, 0.000, 0.000, 0.000, 22:57:41.164
173, 27466.25, 35148.07, 187500.00, 187500.00, 187500.00, -187500.02, -187500.02, -187500.02, 0.000, 0.000, 0.000, 22:57:41.164
174, 23920.57, 30564.36, 187500.00, 187500.00, 187500.00, -187500.02, -187500.02, -187500.02, 0.000, 0.000, 0.000, 22:57:41.164
175, 22093.92, 27739.32, 187500.00, 187500.00, 187500.00, -187500.02, -187500.02, -187500.02, 0.186, 0.978, -0.190, 22:57:41.164
176, 24954.43, 31375.46, 187500.00, 187500.00, 187500.00, -187500.02, -187500.02, -187500.02, 0.000, 0.000, 0.000, 22:57:41.164
177, 27521.43, 35210.39, 187500.00, 187500.00, 187500.00, -187500.02, -187500.02, -187500.02, 0.000, 0.000, 0.000, 22:57:41.165
178, 24667.12, 31607.02, 187500.00, 187500.00, 187500.00, -187500.02, -187500.02, -187500.02, 0.000, 0.000, 0.000, 22:57:41.165
179, 22083.19, 27700.09, 187500.00, 187500.00, 187500.00, -187500.02, -187500.02, -187500.02, 0.000, 0.000, 0.000, 22:57:41.165
180, 24329.07, 30480.25, 187500.00, 187500.00, 187500.00, -187500.02, -187500.02, -187500.02, 0.000, 0.000, 0.000, 22:57:41.165
181, 27470.20, 35001.29, 187500.00, 187500.00, 187500.00, -187500.02, -187500.02, -187500.02, 0.000, 0.000, 0.000, 22:57:41.166
182, 25467.87, 32666.87, 187500.00, 187500.00, 187500.00, -187500.02, -187500.02, -187500.02, 0.000, 0.000, 0.000, 22:57:41.166
183, 22097.65, 27901.35, 187500.00, 187500.00, 187500.00, -187500.02, -187500.02, -187500.02, 0.000, 0.000, 0.000, 22:57:41.166
184, 23642.40, 29598.36, 187500.00, 187500.00, 187500.00, -187500.02, -187500.02, -187500.02, 0.000, 0.000, 0.000, 22:57:41.166
185, 27154.60, 34455.01, 187500.00, 187500.00, 187500.00, -187500.02, -187500.02, -187500.02, 0.190, 1.002, -0.190, 22:57:41.167
186, 26158.67, 33564.21, 187500.00, 187500.00, 187500.00, -187500.02, -187500.02, -187500.02, 0.000, 0.000, 0.000, 22:57:41.167
187, 22363.17, 28297.49, 187500.00, 187500.00, 187500.00, -187500.02, -187500.02, -187500.02, 0.000, 0.000, 0.000, 22:57:41.167
188, 23094.47, 28881.72, 187500.00, 187500.00, 187500.00, -187500.02, -187500.02, -187500.02, 0.000, 0.000, 0.000, 22:57:41.167
189, 26701.82, 33838.71, 187500.00, 187500.00, 187500.00, -187500.02, -187500.02, -187500.02, 0.000, 0.000, 0.000, 22:57:41.168
190, 26792.97, 34390.91, 187500.00, 187500.00, 187500.00, -187500.02, -187500.02, -187500.02, 0.000, 0.000, 0.000, 22:57:41.168
191, 22754.72, 28924.72, 187500.00, 187500.00, 187500.00, -187500.02, -187500.02, -187500.02, 0.000, 0.000, 0.000, 22:57:41.168
192, 22566.90, 28264.18, 187500.00, 187500.00, 187500.00, -187500.02, -187500.02, -187500.02, 0.000, 0.000, 0.000, 22:57:41.168
193, 26131.24, 32993.54, 187500.00, 187500.00, 187500.00, -187500.02, -187500.02, -187500.02, 0.000, 0.000, 0.000, 22:57:41.168
194, 27250.31, 34922.07, 187500.00, 187500.00, 187500.00, -187500.02, -187500.02, -187500.02, 0.190, 0.988, -0.190, 22:57:41.169
195, 23374.29, 29792.08, 187500.00, 187500.00, 187500.00, -187500.02, -187500.02, -187500.02, 0.000, 0.000, 0.000, 22:57:41.169
196, 22225.63, 27866.12, 187500.00, 187500.00, 187500.00, -187500.02, -187500.02, -187500.02, 0.000, 0.000, 0.000, 22:57:41.169
197, 25435.26, 32066.01, 187500.00, 187500.00, 187500.00, -187500.02, -187500.02, -187500.02, 0.000, 0.000, 0.000, 22:57:41.169
198, 27509.43, 35194.45, 187500.00, 187500.00, 187500.00, -187500.02, -187500.02, -187500.02, 0.000, 0.000, 0.000, 22:57:41.169
199, 24087.89, 30782.62, 187500.00, 187500.00, 187500.00, -187500.02, -187500.02, -187500.02, 0.000, 0.000, 0.000, 22:57:41.169
200, 22037.95, 27664.06, 187500.00, 187500.00, 187500.00, -187500.02, -187500.02, -187500.02, 0.000, 0.000, 0.000, 22:57:41.169
201, 24791.64, 31140.29, 187500.00, 187500.00, 187500.00, -187500.02, -187500.02, -187500.02, 0.000, 0.000, 0.000, 22:57:41.170
202, 27578.23, 35191.32, 187500.00, 187500.00, 187500.00, -187500.02, -187500.02, -187500.02, 0.000, 0.000, 0.000, 22:57:41.170
203, 24857.02, 31837.62, 187500.00, 187500.00, 187500.00, -187500.02, -187500.02, -187500.02, 0.000, 0.000, 0.000, 22:57:41.170
204, 22006.16, 27667.57, 187500.00, 187500.00, 187500.00, -187500.02, -187500.02, -187500.02, 0.192, 0.994, -0.184, 22:57:41.170
205, 24121.96, 30223.02, 187500.00, 187500.00, 187500.00, -187500.02, -187500.02, -187500.02, 0.000, 0.000, 0.000, 22:57:41.170
206, 27427.62, 34916.69, 187500.00, 187500.00, 187500.00, -187500.02, -187500.02, -187500.02, 0.000, 0.000, 0.000, 22:57:41.170
207, 25644.98, 32875.64, 187500.00, 187500.00, 187500.00, -187500.02, -187500.02, -187500.02, 0.000, 0.000, 0.000, 22:57:41.170
208, 22065.22, 27882.19, 187500.00, 187500.00, 187500.00, -187500.02, -187500.02, -187500.02, 0.000, 0.000, 0.000, 22:57:41.171
209, 23403.84, 29372.85, 187500.00, 187500.00, 187500.00, -187500.02, -187500.02, -187500.02, 0.000, 0.000, 0.000, 22:57:41.171
210, 27062.96, 34380.76, 187500.00, 187500.00, 187500.00, -187500.02, -187500.02, -187500.02, 0.000, 0.000, 0.000, 22:57:41.625
211, 26357.47, 33820.27, 187500.00, 187500.00, 187500.00, -187500.02, -187500.02, -187500.02, 0.000, 0.000, 0.000, 22:57:41.626
212, 22402.33, 28389.04, 187500.00, 187500.00, 187500.00, -187500.02, -187500.02, -187500.02, 0.000, 0.000, 0.000, 22:57:41.626
213, 22907.36, 28671.61, 187500.00, 187500.00, 187500.00, -187500.02, -187500.02, -187500.02, 0.000, 0.000, 0.000, 22:57:41.626
214, 26573.05, 33645.66, 187500.00, 187500.00, 187500.00, -187500.02, -187500.02, -187500.02, 0.194, 0.992, -0.184, 22:57:41.626
215, 26911.92, 34506.89, 187500.00, 187500.00, 187500.00, -187500.02, -187500.02, -187500.02, 0.000, 0.000, 0.000, 22:57:41.627
216, 22879.45, 29047.39, 187500.00, 187500.00, 187500.00, -187500.02, -187500.02, -187500.02, 0.000, 0.000, 0.000, 22:57:41.627
217, 22492.07, 28101.86, 187500.00, 187500.00, 187500.00, -187500.02, -187500.02, -187500.02, 0.000, 0.000, 0.000, 22:57:41.627
218, 25996.46, 32776.75, 187500.00, 187500.00, 187500.00, -187500.02, -187500.02, -187500.02, 0.000, 0.000, 0.000, 22:57:41.627
219, 27370.85, 35036.94, 187500.00, 187500.00, 187500.00, -187500.02, -187500.02, -187500.02, 0.000, 0.000, 0.000, 22:57:41.628
220, 23528.76, 29974.87, 187500.00, 187500.00, 187500.00, -187500.02, -187500.02, -187500.02, 0.000, 0.000, 0.000, 22:57:41.628
221, 22165.20, 27724.05, 187500.00, 187500.00, 187500.00, -187500.02, -187500.02, -187500.02, 0.000, 0.000, 0.000, 22:57:41.628
222, 25307.63, 31831.25, 187500.00, 187500.00, 187500.00, -187500.02, -187500.02, -187500.02, 0.000, 0.000, 0.000, 22:57:41.628
223, 27566.70, 35247.25, 187500.00, 187500.00, 187500.00, -187500.02, -187500.02, -187500.02, 0.000, 0.000, 0.000, 22:57:41.628
224, 24257.43, 30997.38, 187500.00, 187500.00, 187500.00, -187500.02, -187500.02, -187500.02, 0.194, 0.996, -0.178, 22:57:41.628
225, 22002.52, 27580.60, 187500.00, 187500.00, 187500.00, -187500.02, -187500.02, -187500.02, 0.000, 0.000, 0.000, 22:57:41.628
226, 24628.49, 30916.69, 187500.00, 187500.00, 187500.00, -187500.02, -187500.02, -187500.02, 0.000, 0.000, 0.000, 22:57:41.629
227, 27564.13, 35205.63, 187500.00, 187500.00, 187500.00, -187500.02, -187500.02, -187500.02, 0.000, 0.000, 0.000, 22:57:41.629
228, 25039.61, 32092.66, 187500.00, 187500.00, 187500.00, -187500.02, -187500.02, -187500.02, 0.000, 0.000, 0.000, 22:57:41.629
229, 21992.24, 27631.45, 187500.00, 187500.00, 187500.00, -187500.02, -187500.02, -187500.02, 0.000, 0.000, 0.000, 22:57:41.629
230, 23947.12, 29993.98, 187500.00, 187500.00, 187500.00, -187500.02, -187500.02, -187500.02, 0.000, 0.000, 0.000, 22:57:41.629
231, 27351.67, 34852.85, 187500.00, 187500.00, 187500.00, -187500.02, -187500.02, -187500.02, 0.000, 0.000, 0.000, 22:57:41.629
232, 25803.93, 33131.09, 187500.00, 187500.00, 187500.00, -187500.02, -187500.02, -187500.02, 0.000, 0.000, 0.000, 22:57:41.630
233, 22165.93, 27952.87, 187500.00, 187500.00, 187500.00, -187500.02, -187500.02, -187500.02, 0.000, 0.000, 0.000, 22:57:41.630
234, 23359.81, 29205.84, 187500.00, 187500.00, 187500.00, -187500.02, -187500.02, -187500.02, 0.202, 0.988, -0.184, 22:57:41.630
235, 26992.84, 34298.80, 187500.00, 187500.00, 187500.00, -187500.02, -187500.02, -187500.02, 0.000, 0.000, 0.000, 22:57:41.630
236, 26513.21, 34072.02, 187500.00, 187500.00, 187500.00, -187500.02, -187500.02, -187500.02, 0.000, 0.000, 0.000, 22:57:41.630
237, 22519.00, 28524.38, 187500.00, 187500.00, 187500.00, -187500.02, -187500.02, -187500.02, 0.000, 0.000, 0.000, 22:57:41.630
238, 22826.72, 28529.63, 187500.00, 187500.00, 187500.00, -187500.02, -187500.02, -187500.02, 0.000, 0.000, 0.000, 22:57:41.630
239, 26483.02, 33545.86, 187500.00, 187500.00, 187500.00, -187500.02, -187500.02, -187500.02, 0.000, 0.000, 0.000, 22:57:41.631
240, 27083.85, 34796.66, 187500.00, 187500.00, 187500.00, -187500.02, -187500.02, -187500.02, 0.000, 0.000, 0.000, 22:57:41.631
241, 23025.49, 29307.65, 187500.00, 187500.00, 187500.00, -187500.02, -187500.02, -187500.02, 0.000, 0.000, 0.000, 22:57:41.631
242, 22388.49, 28025.15, 187500.00, 187500.00, 187500.00, -187500.02, -187500.02, -187500.02, 0.000, 0.000, 0.000, 22:57:41.631
243, 25833.50, 32647.02, 187500.00, 187500.00, 187500.00, -187500.02, -187500.02, -187500.02, 0.000, 0.000, 0.000, 22:57:41.631
244, 27431.04, 35238.08, 187500.00, 187500.00, 187500.00, -187500.02, -187500.02, -187500.02, 0.206, 0.984, -0.184, 22:57:41.631
245, 23680.51, 30228.90, 187500.00, 187500.00, 187500.00, -187500.02, -187500.02, -187500.02, 0.000, 0.000, 0.000, 22:57:41.631
246, 22106.77, 27669.49, 187500.00, 187500.00, 187500.00, -187500.02, -187500.02, -187500.02, 0.000, 0.000, 0.000, 22:57:41.632
247, 25181.54, 31710.71, 187500.00, 187500.00, 187500.00, -187500.02, -187500.02, -187500.02, 0.000, 0.000, 0.000, 22:57:41.632
248, 27639.96, 35389.94, 187500.00, 187500.00, 187500.00, -187500.02, -187500.02, -187500.02, 0.000, 0.000, 0.000, 22:57:41.632
249, 24450.82, 31278.27, 187500.00, 187500.00, 187500.00, -187500.02, -187500.02, -187500.02, 0.000, 0.000, 0.000, 22:57:41.632
250, 21975.32, 27529.26, 187500.00, 187500.00, 187500.00, -187500.02, -187500.02, -187500.02, 0.000, 0.000, 0.000, 22:57:41.632
251, 24488.30, 30714.83, 187500.00, 187500.00, 187500.00, -187500.02, -187500.02, -187500.02, 0.000, 0.000, 0.000, 22:57:41.632
252, 27587.84, 35251.47, 187500.00, 187500.00, 187500.00, -187500.02, -187500.02, -187500.02, 0.000, 0.000, 0.000, 22:57:41.632
253, 25239.68, 32366.98, 187500.00, 187500.00, 187500.00, -187500.02, -187500.02, -187500.02, 0.210, 0.984, -0.186, 22:57:41.633
254, 21988.71, 27629.55, 187500.00, 187500.00, 187500.00, -187500.02, -187500.02, -187500.02, 0.000, 0.000, 0.000, 22:57:41.633
255, 23805.43, 29788.93, 187500.00, 187500.00, 187500.00, -187500.02, -187500.02, -187500.02, 0.000, 0.000, 0.000, 22:57:41.633
0, 27327.09, 34799.27, 187500.00, 187500.00, 187500.00, -187500.02, -187500.02, -187500.02, 0.000, 0.000, 0.000, 22:57:41.633
1, 26000.02, 33390.87, 187500.00, 187500.00, 187500.00, -187500.02, -187500.02, -187500.02, 0.000, 0.000, 0.000, 22:57:41.633
2, 22188.20, 27992.43, 187500.00, 187500.00, 187500.00, -187500.02, -187500.02, -187500.02, 0.000, 0.000, 0.000, 22:57:41.633
3, 23178.09, 28975.97, 187500.00, 187500.00, 187500.00, -187500.02, -187500.02, -187500.02, 0.000, 0.000, 0.000, 22:57:41.633
4, 26888.12, 34176.26, 187500.00, 187500.00, 187500.00, -187500.02, -187500.02, -187500.02, 0.000, 0.000, 0.000, 22:57:41.634
5, 26659.33, 34285.18, 187500.00, 187500.00, 187500.00, -187500.02, -187500.02, -187500.02, 0.000, 0.000, 0.000, 22:57:41.634
6, 22542.72, 28593.20, 187500.00, 187500.00, 187500.00, -187500.02, -187500.02, -187500.02, 0.000, 0.000, 0.000, 22:57:41.634
7, 22672.33, 28315.01, 187500.00, 187500.00, 187500.00, -187500.02, -187500.02, -187500.02, 0.208, 0.992, -0.182, 22:57:41.634
8, 26354.31, 33367.13, 187500.00, 187500.00, 187500.00, -187500.02, -187500.02, -187500.02, 0.000, 0.000, 0.000, 22:57:41.634
9, 27185.20, 34950.41, 187500.00, 187500.00, 187500.00, -187500.02, -187500.02, -187500.02, 0.000, 0.000, 0.000, 22:57:41.634
10, 23135.55, 29412.12, 187500.00, 187500.00, 187500.00, -187500.02, -187500.02, -187500.02, 0.000, 0.000, 0.000, 22:57:41.634
11, 22287.33, 27799.00, 187500.00, 187500.00, 187500.00, -187500.02, -187500.02, -187500.02, 0.000, 0.000, 0.000, 22:57:41.634
12, 25690.04, 32406.94, 187500.00, 187500.00, 187500.00, -187500.02, -187500.02, -187500.02, 0.000, 0.000, 0.000, 22:57:41.634
13, 27499.35, 35332.65, 187500.00, 187500.00, 187500.00, -187500.02, -187500.02, -187500.02, 0.000, 0.000, 0.000, 22:57:41.635
14, 23799.87, 30400.07, 187500.00, 187500.00, 187500.00, -187500.02, -187500.02, -187500.02, 0.000, 0.000, 0.000, 22:57:41.635
15, 22008.15, 27484.35, 187500.00, 187500.00, 187500.00, -187500.02, -187500.02, -187500.02, 0.000, 0.000, 0.000, 22:57:41.635
16, 25009.59, 31427.47, 187500.00, 187500.00, 187500.00, -187500.02, -187500.02, -187500.02, 0.000, 0.000, 0.000, 22:57:41.635
17, 27646.34, 35438.64, 187500.00, 187500.00, 187500.00, -187500.02, -187500.02, -187500.02, 0.198, 1.000, -0.182, 22:57:41.635
18, 24590.56, 31493.41, 187500.00, 187500.00, 187500.00, -187500.02, -187500.02, -187500.02, 0.000, 0.000, 0.000, 22:57:41.635
19, 21889.51, 27405.05, 187500.00, 187500.00, 187500.00, -187500.02, -187500.02, -187500.02, 0.000, 0.000, 0.000, 22:57:41.635
20, 24275.20, 30446.05, 187500.00, 187500.00, 187500.00, -187500.02, -187500.02, -187500.02, 0.000, 0.000, 0.000, 22:57:41.635
21, 27514.50, 35205.83, 187500.00, 187500.00, 187500.00, -187500.02, -187500.02, -187500.02, 0.000, 0.000, 0.000, 22:57:41.636
22, 25369.88, 32605.47, 187500.00, 187500.00, 187500.00, -187500.02, -187500.02, -187500.02, 0.000, 0.000, 0.000, 22:57:41.636
23, 21972.50, 27604.87, 187500.00, 187500.00, 187500.00, -187500.02, -187500.02, -187500.02, 0.000, 0.000, 0.000, 22:57:41.636
24, 23636.66, 29550.59, 187500.00, 187500.00, 187500.00, -187500.02, -187500.02, -187500.02, 0.000, 0.000, 0.000, 22:57:41.636
25, 27230.01, 34726.16, 187500.00, 187500.00, 187500.00, -187500.02, -187500.02, -187500.02, 0.000, 0.000, 0.000, 22:57:41.636
26, 26120.43, 33622.36, 187500.00, 187500.00, 187500.00, -187500.02, -187500.02, -187500.02, 0.000, 0.000, 0.000, 22:57:41.637
27, 22224.65, 28043.10, 187500.00, 187500.00, 187500.00, -187500.02, -187500.02, -187500.02, 0.194, 1.000, -0.172, 22:57:41.637
28, 23039.89, 28765.33, 187500.00, 187500.00, 187500.00, -187500.02, -187500.02, -187500.02, 0.000, 0.000, 0.000, 22:57:41.637
29, 26731.54, 34021.28, 187500.00, 187500.00, 187500.00, -187500.02, -187500.02, -187500.02, 0.000, 0.000, 0.000, 22:57:41.637
30, 26723.21, 34472.18, 187500.00, 187500.00, 187500.00, -187500.02, -187500.02, -187500.02, 0.000, 0.000, 0.000, 22:57:41.637
31, 22638.47, 28700.89, 187500.00, 187500.00, 187500.00, -187500.02, -187500.02, -187500.02, 0.000, 0.000, 0.000, 22:57:41.638
32, 22537.91, 28099.47, 187500.00, 187500.00, 187500.00, -187500.02, -187500.02, -187500.02, 0.000, 0.000, 0.000, 22:57:41.638
33, 26181.74, 33154.36, 187500.00, 187500.00, 187500.00, -187500.02, -187500.02, -187500.02, 0.000, 0.000, 0.000, 22:57:41.638
34, 27232.18, 35091.21, 187500.00, 187500.00, 187500.00, -187500.02, -187500.02, -187500.02, 0.000, 0.000, 0.000, 22:57:41.638
35, 23240.90, 29612.17, 187500.00, 187500.00, 187500.00, -187500.02, -187500.02, -187500.02, 0.000, 0.000, 0.000, 22:57:41.638
36, 22196.60, 27705.70, 187500.00, 187500.00, 187500.00, -187500.02, -187500.02, -187500.02, 0.000, 0.000, 0.000, 22:57:41.638
37, 25502.58, 32214.07, 187500.00, 187500.00, 187500.00, -187500.02, -187500.02, -187500.02, 0.198, 0.992, -0.172, 22:57:41.638
38, 27497.29, 35413.34, 187500.00, 187500.00, 187500.00, -187500.02, -187500.02, -187500.02, 0.000, 0.000, 0.000, 22:57:41.638
39, 23941.94, 30641.92, 187500.00, 187500.00, 187500.00, -187500.02, -187500.02, -187500.02, 0.000, 0.000, 0.000, 22:57:41.639
40, 21956.65, 27437.28, 187500.00, 187500.00, 187500.00, -187500.02, -187500.02, -187500.02, 0.000, 0.000, 0.000, 22:57:41.639
41, 24801.29, 31194.27, 187500.00, 187500.00, 187500.00, -187500.02, -187500.02, -187500.02, 0.000, 0.000, 0.000, 22:57:41.639
42, 27559.12, 35416.54, 187500.00, 187500.00, 187500.00, -187500.02, -187500.02, -187500.02, 0.000, 0.000, 0.000, 22:57:41.639
43, 24721.36, 31759.50, 187500.00, 187500.00, 187500.00, -187500.02, -187500.02, -187500.02, 0.000, 0.000, 0.000, 22:57:41.639
44, 21883.65, 27430.87, 187500.00, 187500.00, 187500.00, -187500.02, -187500.02, -187500.02, 0.000, 0.000, 0.000, 22:57:41.639
45, 24100.32, 30249.98, 187500.00, 187500.00, 187500.00, -187500.02, -187500.02, -187500.02, 0.000, 0.000, 0.000, 22:57:41.640
46, 27409.85, 35143.45, 187500.00, 187500.00, 187500.00, -187500.02, -187500.02, -187500.02, 0.000, 0.000, 0.000, 22:57:41.640
47, 25506.31, 32836.81, 187500.00, 187500.00, 187500.00, -187500.02, -187500.02, -187500.02, 0.208, 0.986, -0.182, 22:57:41.640
48, 22021.05, 27685.79, 187500.00, 187500.00, 187500.00, -187500.02, -187500.02, -187500.02, 0.000, 0.000, 0.000, 22:57:41.640
49, 23489.69, 29378.84, 187500.00, 187500.00, 187500.00, -187500.02, -187500.02, -187500.02, 0.000, 0.000, 0.000, 22:57:41.641
50, 27101.62, 34598.11, 187500.00, 187500.00, 187500.00, -187500.02, -187500.02, -187500.02, 0.000, 0.000, 0.000, 22:57:41.641
51, 26258.05, 33824.25, 187500.00, 187500.00, 187500.00, -187500.02, -187500.02, -187500.02, 0.000, 0.000, 0.000, 22:57:41.641
52, 22319.15, 28184.99, 187500.00, 187500.00, 187500.00, -187500.02, -187500.02, -187500.02, 0.000, 0.000, 0.000, 22:57:41.641
53, 22912.19, 28627.53, 187500.00, 187500.00, 187500.00, -187500.02, -187500.02, -187500.02, 0.000, 0.000, 0.000, 22:57:41.642
54, 26589.43, 33837.97, 187500.00, 187500.00, 187500.00, -187500.02, -187500.02, -187500.02, 0.000, 0.000, 0.000, 22:57:41.642
55, 26838.43, 34620.13, 187500.00, 187500.00, 187500.00, -187500.02, -187500.02, -187500.02, 0.000, 0.000, 0.000, 22:57:41.642
56, 22772.58, 28891.55, 187500.00, 187500.00, 187500.00, -187500.02, -187500.02, -187500.02, 0.000, 0.000, 0.000, 22:57:41.642
57, 22475.37, 28007.65, 187500.00, 187500.00, 187500.00, -187500.02, -187500.02, -187500.02, 0.204, 0.988, -0.190, 22:57:41.642
58, 26013.27, 32935.38, 187500.00, 187500.00, 187500.00, -187500.02, -187500.02, -187500.02, 0.000, 0.000, 0.000, 22:57:41.642
59, 27286.05, 35159.92, 187500.00, 187500.00, 187500.00, -187500.02, -187500.02, -187500.02, 0.000, 0.000, 0.000, 22:57:41.642
60, 23410.32, 29800.87, 187500.00, 187500.00, 187500.00, -187500.02, -187500.02, -187500.02, 0.000, 0.000, 0.000, 22:57:41.642
61, 22147.52, 27581.52, 187500.00, 187500.00, 187500.00, -187500.02, -187500.02, -187500.02, 0.000, 0.000, 0.000, 22:57:41.643
62, 25346.50, 31940.40, 187500.00, 187500.00, 187500.00, -187500.02, -187500.02, -187500.02, 0.000, 0.000, 0.000, 22:57:41.643
63, 27508.47, 35383.48, 187500.00, 187500.00, 187500.00, -187500.02, -187500.02, -187500.02, 0.000, 0.000, 0.000, 22:57:41.643
64, 24118.87, 30847.44, 187500.00, 187500.00, 187500.00, -187500.02, -187500.02, -187500.02, 0.000, 0.000, 0.000, 22:57:41.643
65, 21941.12, 27398.77, 187500.00, 187500.00, 187500.00, -187500.02, -187500.02, -187500.02, 0.000, 0.000, 0.000, 22:57:41.643
66, 24659.47, 30962.71, 187500.00, 187500.00, 187500.00, -187500.02, -187500.02, -187500.02, 0.200, 0.992, -0.180, 22:57:41.643
67, 27542.38, 35351.43, 187500.00, 187500.00, 187500.00, -187500.02, -187500.02, -187500.02, 0.000, 0.000, 0.000, 22:57:41.644
68, 24900.69, 31953.70, 187500.00, 187500.00, 187500.00, -187500.02, -187500.02, -187500.02, 0.000, 0.000, 0.000, 22:57:41.644
69, 21923.44, 27447.54, 187500.00, 187500.00, 187500.00, -187500.02, -187500.02, -187500.02, 0.000, 0.000, 0.000, 22:57:41.644
70, 23974.08, 30017.07, 187500.00, 187500.00, 187500.00, -187500.02, -187500.02, -187500.02, 0.000, 0.000, 0.000, 22:57:41.644
71, 27354.58, 34992.53, 187500.00, 187500.00, 187500.00, -187500.02, -187500.02, -187500.02, 0.000, 0.000, 0.000, 22:57:41.644
72, 25683.00, 33038.94, 187500.00, 187500.00, 187500.00, -187500.02, -187500.02, -187500.02, 0.000, 0.000, 0.000, 22:57:41.644
73, 22102.39, 27759.59, 187500.00, 187500.00, 187500.00, -187500.02, -187500.02, -187500.02, 0.000, 0.000, 0.000, 22:57:41.644
74, 23386.90, 29191.00, 187500.00, 187500.00, 187500.00, -187500.02, -187500.02, -187500.02, 0.000, 0.000, 0.000, 22:57:42.104
75, 26994.11, 34411.76, 187500.00, 187500.00, 187500.00, -187500.02, -187500.02, -187500.02, 0.000, 0.000, 0.000, 22:57:42.105
76, 26389.34, 33995.08, 187500.00, 187500.00, 187500.00, -187500.02, -187500.02, -187500.02, 0.194, 0.992, -0.180, 22:57:42.105
77, 22435.70, 28314.16, 187500.00, 187500.00, 187500.00, -187500.02, -187500.02, -187500.02, 0.000, 0.000, 0.000, 22:57:42.105
78, 22839.71, 28478.76, 187500.00, 187500.00, 187500.00, -187500.02, -187500.02, -187500.02, 0.000, 0.000, 0.000, 22:57:42.105
79, 26478.61, 33634.03, 187500.00, 187500.00, 187500.00, -187500.02, -187500.02, -187500.02, 0.000, 0.000, 0.000, 22:57:42.105
80, 26961.81, 34747.08, 187500.00, 187500.00, 187500.00, -187500.02, -187500.02, -187500.02, 0.000, 0.000, 0.000, 22:57:42.105
81, 22931.53, 29106.37, 187500.00, 187500.00, 187500.00, -187500.02, -187500.02, -187500.02, 0.000, 0.000, 0.000, 22:57:42.105
82, 22415.38, 27924.53, 187500.00, 187500.00, 187500.00, -187500.02, -187500.02, -187500.02, 0.000, 0.000, 0.000, 22:57:42.106
83, 25864.19, 32701.61, 187500.00, 187500.00, 187500.00, -187500.02, -187500.02, -187500.02, 0.000, 0.000, 0.000, 22:57:42.106
84, 27345.97, 35203.91, 187500.00, 187500.00, 187500.00, -187500.02, -187500.02, -187500.02, 0.000, 0.000, 0.000, 22:57:42.106
85, 23567.14, 30045.35, 187500.00, 187500.00, 187500.00, -187500.02, -187500.02, -187500.02, 0.000, 0.000, 0.000, 22:57:42.106
86, 22093.34, 27564.33, 187500.00, 187500.00, 187500.00, -187500.02, -187500.02, -187500.02, 0.190, 0.986, -0.184, 22:57:42.106
87, 25201.23, 31730.71, 187500.00, 187500.00, 187500.00, -187500.02, -187500.02, -187500.02, 0.000, 0.000, 0.000, 22:57:42.106
88, 27548.19, 35368.93, 187500.00, 187500.00, 187500.00, -187500.02, -187500.02, -187500.02, 0.000, 0.000, 0.000, 22:57:42.107
89, 24328.82, 31118.97, 187500.00, 187500.00, 187500.00, -187500.02, -187500.02, -187500.02, 0.000, 0.000, 0.000, 22:57:42.107
90, 21973.84, 27455.81, 187500.00, 187500.00, 187500.00, -187500.02, -187500.02, -187500.02, 0.000, 0.000, 0.000, 22:57:42.107
91, 24517.40, 30781.88, 187500.00, 187500.00, 187500.00, -187500.02, -187500.02, -187500.02, 0.000, 0.000, 0.000, 22:57:42.107
92, 27493.34, 35268.23, 187500.00, 187500.00, 187500.00, -187500.02, -187500.02, -187500.02, 0.000, 0.000, 0.000, 22:57:42.107
93, 25092.43, 32224.08, 187500.00, 187500.00, 187500.00, -187500.02, -187500.02, -187500.02, 0.000, 0.000, 0.000, 22:57:42.107
94, 21998.09, 27573.58, 187500.00, 187500.00, 187500.00, -187500.02, -187500.02, -187500.02, 0.000, 0.000, 0.000, 22:57:42.108
95, 23862.12, 29870.96, 187500.00, 187500.00, 187500.00, -187500.02, -187500.02, -187500.02, 0.000, 0.000, 0.000, 22:57:42.108
96, 27248.92, 34871.98, 187500.00, 187500.00, 187500.00, -187500.02, -187500.02, -187500.02, 0.194, 0.986, -0.184, 22:57:42.108
97, 25831.08, 33271.20, 187500.00, 187500.00, 187500.00, -187500.02, -187500.02, -187500.02, 0.000, 0.000, 0.000, 22:57:42.108
98, 22189.72, 27918.20, 187500.00, 187500.00, 187500.00, -187500.02, -187500.02, -187500.02, 0.000, 0.000, 0.000, 22:57:42.108
99, 23271.03, 29059.30, 187500.00, 187500.00, 187500.00, -187500.02, -187500.02, -187500.02, 0.000, 0.000, 0.000, 22:57:42.109
100, 26875.04, 34271.10, 187500.00, 187500.00, 187500.00, -187500.02, -187500.02, -187500.02, 0.000, 0.000, 0.000, 22:57:42.109
101, 26512.72, 34189.70, 187500.00, 187500.00, 187500.00, -187500.02, -187500.02, -187500.02, 0.000, 0.000, 0.000, 22:57:42.109
102, 22559.06, 28521.14, 187500.00, 187500.00, 187500.00, -187500.02, -187500.02, -187500.02, 0.000, 0.000, 0.000, 22:57:42.109
103, 22762.97, 28378.85, 187500.00, 187500.00, 187500.00, -187500.02, -187500.02, -187500.02, 0.000, 0.000, 0.000, 22:57:42.109
104, 26344.62, 33442.75, 187500.00, 187500.00, 187500.00, -187500.02, -187500.02, -187500.02, 0.000, 0.000, 0.000, 22:57:42.109
105, 27038.28, 34872.36, 187500.00, 187500.00, 187500.00, -187500.02, -187500.02, -187500.02, 0.000, 0.000, 0.000, 22:57:42.110
106, 23089.53, 29327.52, 187500.00, 187500.00, 187500.00, -187500.02, -187500.02, -187500.02, 0.200, 0.990, -0.192, 22:57:42.110
107, 22364.35, 27878.46, 187500.00, 187500.00, 187500.00, -187500.02, -187500.02, -187500.02, 0.000, 0.000, 0.000, 22:57:42.110
108, 25714.65, 32532.07, 187500.00, 187500.00, 187500.00, -187500.02, -187500.02, -187500.02, 0.000, 0.000, 0.000, 22:57:42.110
109, 27372.66, 35279.72, 187500.00, 187500.00, 187500.00, -187500.02, -187500.02, -187500.02, 0.000, 0.000, 0.000, 22:57:42.110
110, 23734.11, 30291.78, 187500.00, 187500.00, 187500.00, -187500.02, -187500.02, -187500.02, 0.000, 0.000, 0.000, 22:57:42.111
111, 22103.37, 27559.95, 187500.00, 187500.00, 187500.00, -187500.02, -187500.02, -187500.02, 0.000, 0.000, 0.000, 22:57:42.111
112, 25053.35, 31536.28, 187500.00, 187500.00, 187500.00, -187500.02, -187500.02, -187500.02, 0.000, 0.000, 0.000, 22:57:42.111
113, 27522.33, 35387.79, 187500.00, 187500.00, 187500.00, -187500.02, -187500.02, -187500.02, 0.000, 0.000, 0.000, 22:57:42.111
114, 24487.70, 31367.56, 187500.00, 187500.00, 187500.00, -187500.02, -187500.02, -187500.02, 0.000, 0.000, 0.000, 22:57:42.111
115, 21978.78, 27481.51, 187500.00, 187500.00, 187500.00, -187500.02, -187500.02, -187500.02, 0.000, 0.000, 0.000, 22:57:42.111
116, 24376.21, 30603.98, 187500.00, 187500.00, 187500.00, -187500.02, -187500.02, -187500.02, 0.196, 0.994, -0.190, 22:57:42.111
117, 27459.14, 35239.27, 187500.00, 187500.00, 187500.00, -187500.02, -187500.02, -187500.02, 0.000, 0.000, 0.000, 22:57:42.112
118, 25264.76, 32476.37, 187500.00, 187500.00, 187500.00, -187500.02, -187500.02, -187500.02, 0.000, 0.000, 0.000, 22:57:42.112
119, 22037.12, 27615.47, 187500.00, 187500.00, 187500.00, -187500.02, -187500.02, -187500.02, 0.000, 0.000, 0.000, 22:57:42.112
120, 23733.04, 29679.94, 187500.00, 187500.00, 187500.00, -187500.02, -187500.02, -187500.02, 0.000, 0.000, 0.000, 22:57:42.112
121, 27191.14, 34768.09, 187500.00, 187500.00, 187500.00, -187500.02, -187500.02, -187500.02, 0.000, 0.000, 0.000, 22:57:42.112
122, 25995.88, 33492.39, 187500.00, 187500.00, 187500.00, -187500.02, -187500.02, -187500.02, 0.000, 0.000, 0.000, 22:57:42.112
123, 22260.62, 28020.73, 187500.00, 187500.00, 187500.00, -187500.02, -187500.02, -187500.02, 0.000, 0.000, 0.000, 22:57:42.112
124, 23152.54, 28897.21, 187500.00, 187500.00, 187500.00, -187500.02, -187500.02, -187500.02, 0.000, 0.000, 0.000, 22:57:42.112
125, 26751.19, 34126.11, 187500.00, 187500.00, 187500.00, -187500.02, -187500.02, -187500.02, 0.192, 0.994, -0.182, 22:57:42.113
126, 26620.61, 34370.54, 187500.00, 187500.00, 187500.00, -187500.02, -187500.02, -187500.02, 0.000, 0.000, 0.000, 22:57:42.113
127, 22645.56, 28623.84, 187500.00, 187500.00, 187500.00, -187500.02, -187500.02, -187500.02, 0.000, 0.000, 0.000, 22:57:42.113
128, 22664.18, 28212.84, 187500.00, 187500.00, 187500.00, -187500.02, -187500.02, -187500.02, 0.000, 0.000, 0.000, 22:57:42.113
129, 26219.67, 33264.96, 187500.00, 187500.00, 187500.00, -187500.02, -187500.02, -187500.02, 0.000, 0.000, 0.000, 22:57:42.113
130, 27135.22, 35006.21, 187500.00, 187500.00, 187500.00, -187500.02, -187500.02, -187500.02, 0.000, 0.000, 0.000, 22:57:42.113
131, 23200.84, 29492.03, 187500.00, 187500.00, 187500.00, -187500.02, -187500.02, -187500.02, 0.000, 0.000, 0.000, 22:57:42.114
132, 22296.51, 27752.21, 187500.00, 187500.00, 187500.00, -187500.02, -187500.02, -187500.02, 0.000, 0.000, 0.000, 22:57:42.114
133, 25596.41, 32337.99, 187500.00, 187500.00, 187500.00, -187500.02, -187500.02, -187500.02, 0.000, 0.000, 0.000, 22:57:42.114
134, 27443.07, 35361.55, 187500.00, 187500.00, 187500.00, -187500.02, -187500.02, -187500.02, 0.000, 0.000, 0.000, 22:57:42.114
135, 23899.80, 30490.04, 187500.00, 187500.00, 187500.00, -187500.02, -187500.02, -187500.02, 0.194, 0.996, -0.170, 22:57:42.114
136, 22057.35, 27469.53, 187500.00, 187500.00, 187500.00, -187500.02, -187500.02, -187500.02, 0.000, 0.000, 0.000, 22:57:42.114
137, 24905.30, 31344.59, 187500.00, 187500.00, 187500.00, -187500.02, -187500.02, -187500.02, 0.000, 0.000, 0.000, 22:57:42.114
138, 27510.06, 35428.27, 187500.00, 187500.00, 187500.00, -187500.02, -187500.02, -187500.02, 0.000, 0.000, 0.000, 22:57:42.114
139, 24627.24, 31592.45, 187500.00, 187500.00, 187500.00, -187500.02, -187500.02, -187500.02, 0.000, 0.000, 0.000, 22:57:42.114
140, 21964.46, 27414.66, 187500.00, 187500.00, 187500.00, -187500.02, -187500.02, -187500.02, 0.000, 0.000, 0.000, 22:57:42.115
141, 24236.53, 30358.29, 187500.00, 187500.00, 187500.00, -187500.02, -187500.02, -187500.02, 0.000, 0.000, 0.000, 22:57:42.115
142, 27427.91, 35189.56, 187500.00, 187500.00, 187500.00, -187500.02, -187500.02, -187500.02, 0.000, 0.000, 0.000, 22:57:42.115
143, 25434.79, 32719.09, 187500.00, 187500.00, 187500.00, -187500.02, -187500.02, -187500.02, 0.000, 0.000, 0.000, 22:57:42.115
144, 22072.95, 27659.97, 187500.00, 187500.00, 187500.00, -187500.02, -187500.02, -187500.02, 0.000, 0.000, 0.000, 22:57:42.115
145, 23609.32, 29492.41, 187500.00, 187500.00, 187500.00, -187500.02, -187500.02, -187500.02, 0.194, 0.992, -0.174, 22:57:42.115
146, 27116.80, 34674.26, 187500.00, 187500.00, 187500.00, -187500.02, -187500.02, -187500.02, 0.000, 0.000, 0.000, 22:57:42.115
147, 26138.80, 33690.47, 187500.00, 187500.00, 187500.00, -187500.02, -187500.02, -187500.02, 0.000, 0.000, 0.000, 22:57:42.115
148, 22308.65, 28068.31, 187500.00, 187500.00, 187500.00, -187500.02, -187500.02, -187500.02, 0.000, 0.000, 0.000, 22:57:42.116
149, 23035.48, 28683.95, 187500.00, 187500.00, 187500.00, -187500.02, -187500.02, -187500.02, 0.000, 0.000, 0.000, 22:57:42.116
150, 26664.76, 33936.74, 187500.00, 187500.00, 187500.00, -187500.02, -187500.02, -187500.02, 0.000, 0.000, 0.000, 22:57:42.116
151, 26755.53, 34525.71, 187500.00, 187500.00, 187500.00, -187500.02, -187500.02, -187500.02, 0.000, 0.000, 0.000, 22:57:42.116
152, 22755.77, 28776.64, 187500.00, 187500.00, 187500.00, -187500.02, -187500.02, -187500.02, 0.000, 0.000, 0.000, 22:57:42.116
153, 22555.77, 28065.47, 187500.00, 187500.00, 187500.00, -187500.02, -187500.02, -187500.02, 0.000, 0.000, 0.000, 22:57:42.116
154, 26065.11, 33064.91, 187500.00, 187500.00, 187500.00, -187500.02, -187500.02, -187500.02, 0.000, 0.000, 0.000, 22:57:42.116
155, 27196.06, 35116.27, 187500.00, 187500.00, 187500.00, -187500.02, -187500.02, -187500.02, 0.196, 0.988, -0.176, 22:57:42.117
156, 23329.23, 29675.22, 187500.00, 187500.00, 187500.00, -187500.02, -187500.02, -187500.02, 0.000, 0.000, 0.000, 22:57:42.117
157, 22226.44, 27644.93, 187500.00, 187500.00, 187500.00, -187500.02, -187500.02, -187500.02, 0.000, 0.000, 0.000, 22:57:42.117
158, 25447.15, 32122.90, 187500.00, 187500.00, 187500.00, -187500.02, -187500.02, -187500.02, 0.000, 0.000, 0.000, 22:57:42.117
159, 27468.06, 35423.29, 187500.00, 187500.00, 187500.00, -187500.02, -187500.02, -187500.02, 0.000, 0.000, 0.000, 22:57:42.117
160, 24011.94, 30704.28, 187500.00, 187500.00, 187500.00, -187500.02, -187500.02, -187500.02, 0.000, 0.000, 0.000, 22:57:42.117
161, 21992.64, 27398.54, 187500.00, 187500.00, 187500.00, -187500.02, -187500.02, -187500.02, 0.000, 0.000, 0.000, 22:57:42.117
162, 24737.19, 31102.74, 187500.00, 187500.00, 187500.00, -187500.02, -187500.02, -187500.02, 0.000, 0.000, 0.000, 22:57:42.117
163, 27501.56, 35396.94, 187500.00, 187500.00, 187500.00, -187500.02, -187500.02, -187500.02, 0.000, 0.000, 0.000, 22:57:42.117
164, 24794.97, 31824.97, 187500.00, 187500.00, 187500.00, -187500.02, -187500.02, -187500.02, 0.000, 0.000, 0.000, 22:57:42.117
165, 21966.56, 27430.66, 187500.00, 187500.00, 187500.00, -187500.02, -187500.02, -187500.02, 0.198, 0.994, -0.170, 22:57:42.118
166, 24086.02, 30157.26, 187500.00, 187500.00, 187500.00, -187500.02, -187500.02, -187500.02, 0.000, 0.000, 0.000, 22:57:42.118
167, 27366.58, 35091.63, 187500.00, 187500.00, 187500.00, -187500.02, -187500.02, -187500.02, 0.000, 0.000, 0.000, 22:57:42.118
168, 25582.26, 32915.76, 187500.00, 187500.00, 187500.00, -187500.02, -187500.02, -187500.02, 0.000, 0.000, 0.000, 22:57:42.118
169, 22108.47, 27699.49, 187500.00, 187500.00, 187500.00, -187500.02, -187500.02, -187500.02, 0.000, 0.000, 0.000, 22:57:42.118
