%OpenBCI Raw EEG Data
%
%Sample Rate = 250.0 Hz
%First Column = SampleIndex
%Last Column = Timestamp 
%Other Columns = EEG data in microvolts followed by Accel Data (in G) interleaved with Aux Data
0, 0.00, 0.00, 0.00, 0.00, 0.00, 0.00, 0.00, 0.00, 0.054, 1.012, -0.050, 22:51:53.328
1, 17893.31, 25187.38, 187500.00, 187500.00, 187500.00, -187500.02, -187500.02, -187500.02, 0.000, 0.000, 0.000, 22:51:53.807
2, 17661.59, 25402.18, 187500.00, 187500.00, 187500.00, -187500.02, -187500.02, -187500.02, 0.000, 0.000, 0.000, 22:51:53.807
3, 17728.35, 25378.59, 187500.00, 187500.00, 187500.00, -187500.02, -187500.02, -187500.02, 0.000, 0.000, 0.000, 22:51:53.807
4, 17951.20, 25204.25, 187500.00, 187500.00, 187500.00, -187500.02, -187500.02, -187500.02, 0.000, 0.000, 0.000, 22:51:53.808
5, 17925.85, 25156.35, 187500.00, 187500.00, 187500.00, -187500.02, -187500.02, -187500.02, 0.000, 0.000, 0.000, 22:51:53.808
6, 17668.56, 25371.89, 187500.00, 187500.00, 187500.00, -187500.02, -187500.02, -187500.02, 0.000, 0.000, 0.000, 22:51:53.808
7, 17674.04, 25424.73, 187500.00, 187500.00, 187500.00, -187500.02, -187500.02, -187500.02, 0.000, 0.000, 0.000, 22:51:53.808
8, 17906.50, 25275.42, 187500.00, 187500.00, 187500.00, -187500.02, -187500.02, -187500.02, 0.034, 1.010, -0.032, 22:51:53.808
9, 17956.14, 25149.15, 187500.00, 187500.00, 187500.00, -187500.02, -187500.02, -187500.02, 0.000, 0.000, 0.000, 22:51:53.808
10, 17687.74, 25313.82, 187500.00, 187500.00, 187500.00, -187500.02, -187500.02, -187500.02, 0.000, 0.000, 0.000, 22:51:53.808
11, 17638.01, 25376.70, 187500.00, 187500.00, 187500.00, -187500.02, -187500.02, -187500.02, 0.000, 0.000, 0.000, 22:51:53.808
12, 17857.41, 25246.38, 187500.00, 187500.00, 187500.00, -187500.02, -187500.02, -187500.02, 0.000, 0.000, 0.000, 22:51:53.808
13, 17993.31, 25114.89, 187500.00, 187500.00, 187500.00, -187500.02, -187500.02, -187500.02, 0.000, 0.000, 0.000, 22:51:53.808
14, 17753.70, 25284.74, 187500.00, 187500.00, 187500.00, -187500.02, -187500.02, -187500.02, 0.000, 0.000, 0.000, 22:51:53.808
15, 17643.21, 25429.11, 187500.00, 187500.00, 187500.00, -187500.02, -187500.02, -187500.02, 0.000, 0.000, 0.000, 22:51:53.809
16, 17843.64, 25335.50, 187500.00, 187500.00, 187500.00, -187500.02, -187500.02, -187500.02, 0.000, 0.000, 0.000, 22:51:53.809
17, 18008.55, 25161.80, 187500.00, 187500.00, 187500.00, -187500.02, -187500.02, -187500.02, 0.026, 1.010, -0.020, 22:51:53.809
18, 17784.52, 25237.09, 187500.00, 187500.00, 187500.00, -187500.02, -187500.02, -187500.02, 0.000, 0.000, 0.000, 22:51:53.809
19, 17588.56, 25368.29, 187500.00, 187500.00, 187500.00, -187500.02, -187500.02, -187500.02, 0.000, 0.000, 0.000, 22:51:53.809
20, 17768.16, 25289.50, 187500.00, 187500.00, 187500.00, -187500.02, -187500.02, -187500.02, 0.000, 0.000, 0.000, 22:51:53.809
21, 17998.32, 25125.53, 187500.00, 187500.00, 187500.00, -187500.02, -187500.02, -187500.02, 0.000, 0.000, 0.000, 22:51:53.809
22, 17858.93, 25163.35, 187500.00, 187500.00, 187500.00, -187500.02, -187500.02, -187500.02, 0.000, 0.000, 0.000, 22:51:53.809
23, 17628.02, 25338.88, 187500.00, 187500.00, 187500.00, -187500.02, -187500.02, -187500.02, 0.000, 0.000, 0.000, 22:51:53.809
24, 17736.47, 25303.67, 187500.00, 187500.00, 187500.00, -187500.02, -187500.02, -187500.02, 0.000, 0.000, 0.000, 22:51:53.809
25, 17959.31, 25142.02, 187500.00, 187500.00, 187500.00, -187500.02, -187500.02, -187500.02, 0.000, 0.000, 0.000, 22:51:53.809
26, 17877.01, 25116.39, 187500.00, 187500.00, 187500.00, -187500.02, -187500.02, -187500.02, 0.000, 0.000, 0.000, 22:51:53.809
27, 17607.38, 25296.05, 187500.00, 187500.00, 187500.00, -187500.02, -187500.02, -187500.02, 0.022, 1.016, -0.014, 22:51:53.809
28, 17671.54, 25305.50, 187500.00, 187500.00, 187500.00, -187500.02, -187500.02, -187500.02, 0.000, 0.000, 0.000, 22:51:53.810
29, 17913.49, 25162.03, 187500.00, 187500.00, 187500.00, -187500.02, -187500.02, -187500.02, 0.000, 0.000, 0.000, 22:51:53.810
30, 17891.63, 25079.15, 187500.00, 187500.00, 187500.00, -187500.02, -187500.02, -187500.02, 0.000, 0.000, 0.000, 22:51:53.810
31, 17615.70, 25250.85, 187500.00, 187500.00, 187500.00, -187500.02, -187500.02, -187500.02, 0.000, 0.000, 0.000, 22:51:53.810
32, 17628.80, 25295.67, 187500.00, 187500.00, 187500.00, -187500.02, -187500.02, -187500.02, 0.000, 0.000, 0.000, 22:51:53.810
33, 17849.90, 25171.71, 187500.00, 187500.00, 187500.00, -187500.02, -187500.02, -187500.02, 0.000, 0.000, 0.000, 22:51:53.810
34, 17899.81, 25061.63, 187500.00, 187500.00, 187500.00, -187500.02, -187500.02, -187500.02, 0.000, 0.000, 0.000, 22:51:53.810
35, 17666.51, 25215.02, 187500.00, 187500.00, 187500.00, -187500.02, -187500.02, -187500.02, 0.000, 0.000, 0.000, 22:51:53.810
36, 17631.97, 25309.26, 187500.00, 187500.00, 187500.00, -187500.02, -187500.02, -187500.02, 0.000, 0.000, 0.000, 22:51:53.810
37, 17865.17, 25214.69, 187500.00, 187500.00, 187500.00, -187500.02, -187500.02, -187500.02, 0.028, 1.018, -0.014, 22:51:53.810
38, 17995.41, 25078.46, 187500.00, 187500.00, 187500.00, -187500.02, -187500.02, -187500.02, 0.000, 0.000, 0.000, 22:51:53.810
39, 17743.39, 25188.65, 187500.00, 187500.00, 187500.00, -187500.02, -187500.02, -187500.02, 0.000, 0.000, 0.000, 22:51:53.810
40, 17629.04, 25288.56, 187500.00, 187500.00, 187500.00, -187500.02, -187500.02, -187500.02, 0.000, 0.000, 0.000, 22:51:53.810
41, 17844.49, 25226.69, 187500.00, 187500.00, 187500.00, -187500.02, -187500.02, -187500.02, 0.000, 0.000, 0.000, 22:51:53.810
42, 18029.83, 25109.01, 187500.00, 187500.00, 187500.00, -187500.02, -187500.02, -187500.02, 0.000, 0.000, 0.000, 22:51:53.811
43, 17817.69, 25169.65, 187500.00, 187500.00, 187500.00, -187500.02, -187500.02, -187500.02, 0.000, 0.000, 0.000, 22:51:53.811
44, 17641.96, 25321.08, 187500.00, 187500.00, 187500.00, -187500.02, -187500.02, -187500.02, 0.000, 0.000, 0.000, 22:51:53.811
45, 17800.77, 25254.34, 187500.00, 187500.00, 187500.00, -187500.02, -187500.02, -187500.02, 0.000, 0.000, 0.000, 22:51:53.811
46, 18024.85, 25098.10, 187500.00, 187500.00, 187500.00, -187500.02, -187500.02, -187500.02, 0.000, 0.000, 0.000, 22:51:53.811
47, 17890.74, 25131.29, 187500.00, 187500.00, 187500.00, -187500.02, -187500.02, -187500.02, 0.024, 1.012, -0.020, 22:51:53.811
48, 17652.24, 25292.52, 187500.00, 187500.00, 187500.00, -187500.02, -187500.02, -187500.02, 0.000, 0.000, 0.000, 22:51:53.811
49, 17769.99, 25262.14, 187500.00, 187500.00, 187500.00, -187500.02, -187500.02, -187500.02, 0.000, 0.000, 0.000, 22:51:53.811
50, 17999.77, 25111.96, 187500.00, 187500.00, 187500.00, -187500.02, -187500.02, -187500.02, 0.000, 0.000, 0.000, 22:51:53.811
51, 17929.32, 25078.59, 187500.00, 187500.00, 187500.00, -187500.02, -187500.02, -187500.02, 0.000, 0.000, 0.000, 22:51:53.811
52, 17671.38, 25261.67, 187500.00, 187500.00, 187500.00, -187500.02, -187500.02, -187500.02, 0.000, 0.000, 0.000, 22:51:53.811
53, 17709.49, 25270.37, 187500.00, 187500.00, 187500.00, -187500.02, -187500.02, -187500.02, 0.000, 0.000, 0.000, 22:51:53.811
54, 17937.30, 25123.34, 187500.00, 187500.00, 187500.00, -187500.02, -187500.02, -187500.02, 0.000, 0.000, 0.000, 22:51:53.811
55, 17959.58, 25048.12, 187500.00, 187500.00, 187500.00, -187500.02, -187500.02, -187500.02, 0.000, 0.000, 0.000, 22:51:53.812
56, 17682.82, 25230.29, 187500.00, 187500.00, 187500.00, -187500.02, -187500.02, -187500.02, 0.000, 0.000, 0.000, 22:51:53.812
57, 17676.68, 25284.49, 187500.00, 187500.00, 187500.00, -187500.02, -187500.02, -187500.02, 0.034, 1.012, -0.026, 22:51:53.812
58, 17912.60, 25151.43, 187500.00, 187500.00, 187500.00, -187500.02, -187500.02, -187500.02, 0.000, 0.000, 0.000, 22:51:53.812
59, 17986.29, 25018.98, 187500.00, 187500.00, 187500.00, -187500.02, -187500.02, -187500.02, 0.000, 0.000, 0.000, 22:51:53.813
60, 17716.97, 25208.50, 187500.00, 187500.00, 187500.00, -187500.02, -187500.02, -187500.02, 0.000, 0.000, 0.000, 22:51:53.813
61, 17637.72, 25330.25, 187500.00, 187500.00, 187500.00, -187500.02, -187500.02, -187500.02, 0.000, 0.000, 0.000, 22:51:53.813
62, 17843.60, 25181.70, 187500.00, 187500.00, 187500.00, -187500.02, -187500.02, -187500.02, 0.000, 0.000, 0.000, 22:51:53.813
63, 17974.60, 24985.58, 187500.00, 187500.00, 187500.00, -187500.02, -187500.02, -187500.02, 0.000, 0.000, 0.000, 22:51:53.813
64, 17746.19, 25166.37, 187500.00, 187500.00, 187500.00, -187500.02, -187500.02, -187500.02, 0.000, 0.000, 0.000, 22:51:53.814
65, 17646.37, 25355.68, 187500.00, 187500.00, 187500.00, -187500.02, -187500.02, -187500.02, 0.000, 0.000, 0.000, 22:51:53.816
66, 17834.86, 25241.53, 187500.00, 187500.00, 187500.00, -187500.02, -187500.02, -187500.02, 0.000, 0.000, 0.000, 22:51:53.816
67, 18007.23, 25039.12, 187500.00, 187500.00, 187500.00, -187500.02, -187500.02, -187500.02, 0.028, 1.020, -0.028, 22:51:53.816
68, 17845.25, 25143.10, 187500.00, 187500.00, 187500.00, -187500.02, -187500.02, -187500.02, 0.000, 0.000, 0.000, 22:51:53.816
69, 17670.37, 25352.85, 187500.00, 187500.00, 187500.00, -187500.02, -187500.02, -187500.02, 0.000, 0.000, 0.000, 22:51:53.816
70, 17806.94, 25279.04, 187500.00, 187500.00, 187500.00, -187500.02, -187500.02, -187500.02, 0.000, 0.000, 0.000, 22:51:53.816
71, 17988.35, 25045.53, 187500.00, 187500.00, 187500.00, -187500.02, -187500.02, -187500.02, 0.000, 0.000, 0.000, 22:51:53.816
72, 17870.91, 25063.77, 187500.00, 187500.00, 187500.00, -187500.02, -187500.02, -187500.02, 0.000, 0.000, 0.000, 22:51:53.817
73, 17667.64, 25315.94, 187500.00, 187500.00, 187500.00, -187500.02, -187500.02, -187500.02, 0.000, 0.000, 0.000, 22:51:53.817
74, 17761.95, 25294.89, 187500.00, 187500.00, 187500.00, -187500.02, -187500.02, -187500.02, 0.000, 0.000, 0.000, 22:51:53.817
75, 17969.73, 25075.48, 187500.00, 187500.00, 187500.00, -187500.02, -187500.02, -187500.02, 0.000, 0.000, 0.000, 22:51:53.817
76, 17927.71, 25028.41, 187500.00, 187500.00, 187500.00, -187500.02, -187500.02, -187500.02, 0.024, 1.016, -0.030, 22:51:53.817
77, 17686.96, 25275.58, 187500.00, 187500.00, 187500.00, -187500.02, -187500.02, -187500.02, 0.000, 0.000, 0.000, 22:51:53.817
78, 17724.89, 25291.74, 187500.00, 187500.00, 187500.00, -187500.02, -187500.02, -187500.02, 0.000, 0.000, 0.000, 22:51:53.817
79, 17937.50, 25093.54, 187500.00, 187500.00, 187500.00, -187500.02, -187500.02, -187500.02, 0.000, 0.000, 0.000, 22:51:53.817
80, 17971.29, 24994.77, 187500.00, 187500.00, 187500.00, -187500.02, -187500.02, -187500.02, 0.000, 0.000, 0.000, 22:51:53.817
81, 17704.39, 25233.20, 187500.00, 187500.00, 187500.00, -187500.02, -187500.02, -187500.02, 0.000, 0.000, 0.000, 22:51:53.817
82, 17645.74, 25300.74, 187500.00, 187500.00, 187500.00, -187500.02, -187500.02, -187500.02, 0.000, 0.000, 0.000, 22:51:53.817
83, 17872.97, 25145.13, 187500.00, 187500.00, 187500.00, -187500.02, -187500.02, -187500.02, 0.000, 0.000, 0.000, 22:51:53.818
84, 17950.82, 24988.98, 187500.00, 187500.00, 187500.00, -187500.02, -187500.02, -187500.02, 0.000, 0.000, 0.000, 22:51:53.818
85, 17714.52, 25163.95, 187500.00, 187500.00, 187500.00, -187500.02, -187500.02, -187500.02, 0.000, 0.000, 0.000, 22:51:53.818
86, 17691.29, 25315.79, 187500.00, 187500.00, 187500.00, -187500.02, -187500.02, -187500.02, 0.024, 1.016, -0.032, 22:51:53.818
87, 17879.79, 25200.34, 187500.00, 187500.00, 187500.00, -187500.02, -187500.02, -187500.02, 0.000, 0.000, 0.000, 22:51:53.818
88, 18001.02, 25016.90, 187500.00, 187500.00, 187500.00, -187500.02, -187500.02, -187500.02, 0.000, 0.000, 0.000, 22:51:53.818
89, 17774.02, 25164.49, 187500.00, 187500.00, 187500.00, -187500.02, -187500.02, -187500.02, 0.000, 0.000, 0.000, 22:51:53.818
90, 17626.03, 25342.38, 187500.00, 187500.00, 187500.00, -187500.02, -187500.02, -187500.02, 0.000, 0.000, 0.000, 22:51:53.818
91, 17804.86, 25248.75, 187500.00, 187500.00, 187500.00, -187500.02, -187500.02, -187500.02, 0.000, 0.000, 0.000, 22:51:53.818
92, 18009.72, 25068.08, 187500.00, 187500.00, 187500.00, -187500.02, -187500.02, -187500.02, 0.000, 0.000, 0.000, 22:51:53.818
93, 17842.12, 25143.77, 187500.00, 187500.00, 187500.00, -187500.02, -187500.02, -187500.02, 0.000, 0.000, 0.000, 22:51:53.819
94, 17641.81, 25331.37, 187500.00, 187500.00, 187500.00, -187500.02, -187500.02, -187500.02, 0.000, 0.000, 0.000, 22:51:53.819
95, 17783.99, 25272.51, 187500.00, 187500.00, 187500.00, -187500.02, -187500.02, -187500.02, 0.000, 0.000, 0.000, 22:51:53.819
96, 18005.20, 25097.30, 187500.00, 187500.00, 187500.00, -187500.02, -187500.02, -187500.02, 0.028, 1.008, -0.032, 22:51:53.819
97, 17888.75, 25107.51, 187500.00, 187500.00, 187500.00, -187500.02, -187500.02, -187500.02, 0.000, 0.000, 0.000, 22:51:53.819
98, 17638.54, 25295.89, 187500.00, 187500.00, 187500.00, -187500.02, -187500.02, -187500.02, 0.000, 0.000, 0.000, 22:51:53.819
99, 17728.75, 25287.82, 187500.00, 187500.00, 187500.00, -187500.02, -187500.02, -187500.02, 0.000, 0.000, 0.000, 22:51:53.819
100, 17989.49, 25149.13, 187500.00, 187500.00, 187500.00, -187500.02, -187500.02, -187500.02, 0.000, 0.000, 0.000, 22:51:53.819
101, 17962.91, 25095.20, 187500.00, 187500.00, 187500.00, -187500.02, -187500.02, -187500.02, 0.000, 0.000, 0.000, 22:51:53.819
102, 17669.86, 25286.42, 187500.00, 187500.00, 187500.00, -187500.02, -187500.02, -187500.02, 0.000, 0.000, 0.000, 22:51:53.819
103, 17703.77, 25321.64, 187500.00, 187500.00, 187500.00, -187500.02, -187500.02, -187500.02, 0.000, 0.000, 0.000, 22:51:53.819
104, 17926.93, 25182.03, 187500.00, 187500.00, 187500.00, -187500.02, -187500.02, -187500.02, 0.000, 0.000, 0.000, 22:51:53.819
105, 17922.05, 25070.32, 187500.00, 187500.00, 187500.00, -187500.02, -187500.02, -187500.02, 0.000, 0.000, 0.000, 22:51:53.819
106, 17644.71, 25239.50, 187500.00, 187500.00, 187500.00, -187500.02, -187500.02, -187500.02, 0.026, 1.022, -0.048, 22:51:53.820
107, 17615.37, 25327.70, 187500.00, 187500.00, 187500.00, -187500.02, -187500.02, -187500.02, 0.000, 0.000, 0.000, 22:51:53.820
108, 17871.00, 25238.54, 187500.00, 187500.00, 187500.00, -187500.02, -187500.02, -187500.02, 0.000, 0.000, 0.000, 22:51:53.820
109, 17990.49, 25107.02, 187500.00, 187500.00, 187500.00, -187500.02, -187500.02, -187500.02, 0.000, 0.000, 0.000, 22:51:53.820
110, 17714.47, 25205.93, 187500.00, 187500.00, 187500.00, -187500.02, -187500.02, -187500.02, 0.000, 0.000, 0.000, 22:51:53.820
111, 17585.95, 25340.55, 187500.00, 187500.00, 187500.00, -187500.02, -187500.02, -187500.02, 0.000, 0.000, 0.000, 22:51:53.820
112, 17803.79, 25290.91, 187500.00, 187500.00, 187500.00, -187500.02, -187500.02, -187500.02, 0.000, 0.000, 0.000, 22:51:53.820
113, 18002.36, 25154.05, 187500.00, 187500.00, 187500.00, -187500.02, -187500.02, -187500.02, 0.000, 0.000, 0.000, 22:51:53.820
114, 17794.47, 25234.36, 187500.00, 187500.00, 187500.00, -187500.02, -187500.02, -187500.02, 0.000, 0.000, 0.000, 22:51:53.820
115, 17603.12, 25352.51, 187500.00, 187500.00, 187500.00, -187500.02, -187500.02, -187500.02, 0.000, 0.000, 0.000, 22:51:53.820
116, 17779.16, 25295.87, 187500.00, 187500.00, 187500.00, -187500.02, -187500.02, -187500.02, 0.030, 1.024, -0.046, 22:51:53.820
117, 18009.83, 25135.81, 187500.00, 187500.00, 187500.00, -187500.02, -187500.02, -187500.02, 0.000, 0.000, 0.000, 22:51:53.821
118, 17831.97, 25146.18, 187500.00, 187500.00, 187500.00, -187500.02, -187500.02, -187500.02, 0.000, 0.000, 0.000, 22:51:53.821
119, 17631.90, 25302.02, 187500.00, 187500.00, 187500.00, -187500.02, -187500.02, -187500.02, 0.000, 0.000, 0.000, 22:51:53.821
120, 17782.55, 25303.31, 187500.00, 187500.00, 187500.00, -187500.02, -187500.02, -187500.02, 0.000, 0.000, 0.000, 22:51:53.821
121, 18022.23, 25175.73, 187500.00, 187500.00, 187500.00, -187500.02, -187500.02, -187500.02, 0.000, 0.000, 0.000, 22:51:54.287
122, 17938.46, 25156.78, 187500.00, 187500.00, 187500.00, -187500.02, -187500.02, -187500.02, 0.000, 0.000, 0.000, 22:51:54.288
123, 17649.96, 25291.47, 187500.00, 187500.00, 187500.00, -187500.02, -187500.02, -187500.02, 0.000, 0.000, 0.000, 22:51:54.288
124, 17733.45, 25304.01, 187500.00, 187500.00, 187500.00, -187500.02, -187500.02, -187500.02, 0.000, 0.000, 0.000, 22:51:54.288
125, 18017.03, 25186.91, 187500.00, 187500.00, 187500.00, -187500.02, -187500.02, -187500.02, 0.000, 0.000, 0.000, 22:51:54.289
126, 17990.05, 25137.91, 187500.00, 187500.00, 187500.00, -187500.02, -187500.02, -187500.02, 0.032, 1.016, -0.052, 22:51:54.289
127, 17668.14, 25267.33, 187500.00, 187500.00, 187500.00, -187500.02, -187500.02, -187500.02, 0.000, 0.000, 0.000, 22:51:54.289
128, 17670.13, 25294.22, 187500.00, 187500.00, 187500.00, -187500.02, -187500.02, -187500.02, 0.000, 0.000, 0.000, 22:51:54.289
129, 17951.87, 25209.73, 187500.00, 187500.00, 187500.00, -187500.02, -187500.02, -187500.02, 0.000, 0.000, 0.000, 22:51:54.289
130, 18016.87, 25124.12, 187500.00, 187500.00, 187500.00, -187500.02, -187500.02, -187500.02, 0.000, 0.000, 0.000, 22:51:54.290
131, 17703.54, 25230.58, 187500.00, 187500.00, 187500.00, -187500.02, -187500.02, -187500.02, 0.000, 0.000, 0.000, 22:51:54.290
132, 17666.33, 25303.38, 187500.00, 187500.00, 187500.00, -187500.02, -187500.02, -187500.02, 0.000, 0.000, 0.000, 22:51:54.290
133, 17907.35, 25243.54, 187500.00, 187500.00, 187500.00, -187500.02, -187500.02, -187500.02, 0.000, 0.000, 0.000, 22:51:54.290
134, 18021.47, 25150.76, 187500.00, 187500.00, 187500.00, -187500.02, -187500.02, -187500.02, 0.000, 0.000, 0.000, 22:51:54.290
135, 17710.11, 25199.47, 187500.00, 187500.00, 187500.00, -187500.02, -187500.02, -187500.02, 0.000, 0.000, 0.000, 22:51:54.290
136, 17584.29, 25256.71, 187500.00, 187500.00, 187500.00, -187500.02, -187500.02, -187500.02, 0.032, 1.014, -0.046, 22:51:54.290
137, 17835.19, 25248.75, 187500.00, 187500.00, 187500.00, -187500.02, -187500.02, -187500.02, 0.000, 0.000, 0.000, 22:51:54.290
138, 18039.62, 25178.79, 187500.00, 187500.00, 187500.00, -187500.02, -187500.02, -187500.02, 0.000, 0.000, 0.000, 22:51:54.290
139, 17757.34, 25173.67, 187500.00, 187500.00, 187500.00, -187500.02, -187500.02, -187500.02, 0.000, 0.000, 0.000, 22:51:54.291
140, 17536.28, 25218.04, 187500.00, 187500.00, 187500.00, -187500.02, -187500.02, -187500.02, 0.000, 0.000, 0.000, 22:51:54.291
141, 17749.81, 25243.77, 187500.00, 187500.00, 187500.00, -187500.02, -187500.02, -187500.02, 0.000, 0.000, 0.000, 22:51:54.291
142, 18018.48, 25227.88, 187500.00, 187500.00, 187500.00, -187500.02, -187500.02, -187500.02, 0.000, 0.000, 0.000, 22:51:54.291
143, 17857.77, 25192.70, 187500.00, 187500.00, 187500.00, -187500.02, -187500.02, -187500.02, 0.000, 0.000, 0.000, 22:51:54.291
144, 17552.73, 25156.02, 187500.00, 187500.00, 187500.00, -187500.02, -187500.02, -187500.02, 0.000, 0.000, 0.000, 22:51:54.291
145, 17714.40, 25214.31, 187500.00, 187500.00, 187500.00, -187500.02, -187500.02, -187500.02, 0.042, 1.002, -0.040, 22:51:54.291
146, 18078.27, 25329.82, 187500.00, 187500.00, 187500.00, -187500.02, -187500.02, -187500.02, 0.000, 0.000, 0.000, 22:51:54.291
147, 17972.50, 25287.56, 187500.00, 187500.00, 187500.00, -187500.02, -187500.02, -187500.02, 0.000, 0.000, 0.000, 22:51:54.291
148, 17552.49, 25088.69, 187500.00, 187500.00, 187500.00, -187500.02, -187500.02, -187500.02, 0.000, 0.000, 0.000, 22:51:54.291
149, 17612.01, 25093.25, 187500.00, 187500.00, 187500.00, -187500.02, -187500.02, -187500.02, 0.000, 0.000, 0.000, 22:51:54.291
150, 18035.78, 25368.27, 187500.00, 187500.00, 187500.00, -187500.02, -187500.02, -187500.02, 0.000, 0.000, 0.000, 22:51:54.291
151, 18091.61, 25406.02, 187500.00, 187500.00, 187500.00, -187500.02, -187500.02, -187500.02, 0.000, 0.000, 0.000, 22:51:54.292
152, 17591.04, 24999.31, 187500.00, 187500.00, 187500.00, -187500.02, -187500.02, -187500.02, 0.000, 0.000, 0.000, 22:51:54.292
153, 17560.18, 24937.24, 187500.00, 187500.00, 187500.00, -187500.02, -187500.02, -187500.02, 0.000, 0.000, 0.000, 22:51:54.292
154, 18003.88, 25353.87, 187500.00, 187500.00, 187500.00, -187500.02, -187500.02, -187500.02, 0.000, 0.000, 0.000, 22:51:54.292
155, 18159.07, 25546.17, 187500.00, 187500.00, 187500.00, -187500.02, -187500.02, -187500.02, 0.044, 1.004, -0.050, 22:51:54.292
156, 17594.22, 25007.53, 187500.00, 187500.00, 187500.00, -187500.02, -187500.02, -187500.02, 0.000, 0.000, 0.000, 22:51:54.292
157, 17423.61, 24783.68, 187500.00, 187500.00, 187500.00, -187500.02, -187500.02, -187500.02, 0.000, 0.000, 0.000, 22:51:54.292
158, 17875.38, 25247.81, 187500.00, 187500.00, 187500.00, -187500.02, -187500.02, -187500.02, 0.000, 0.000, 0.000, 22:51:54.292
159, 18196.76, 25642.50, 187500.00, 187500.00, 187500.00, -187500.02, -187500.02, -187500.02, 0.000, 0.000, 0.000, 22:51:54.292
160, 17660.87, 25107.02, 187500.00, 187500.00, 187500.00, -187500.02, -187500.02, -187500.02, 0.000, 0.000, 0.000, 22:51:54.292
161, 17327.70, 24699.50, 187500.00, 187500.00, 187500.00, -187500.02, -187500.02, -187500.02, 0.000, 0.000, 0.000, 22:51:54.292
162, 17722.12, 25105.01, 187500.00, 187500.00, 187500.00, -187500.02, -187500.02, -187500.02, 0.000, 0.000, 0.000, 22:51:54.292
163, 18221.54, 25677.75, 187500.00, 187500.00, 187500.00, -187500.02, -187500.02, -187500.02, 0.000, 0.000, 0.000, 22:51:54.293
164, 17817.09, 25247.93, 187500.00, 187500.00, 187500.00, -187500.02, -187500.02, -187500.02, 0.000, 0.000, 0.000, 22:51:54.293
165, 17341.53, 24654.29, 187500.00, 187500.00, 187500.00, -187500.02, -187500.02, -187500.02, 0.044, 1.008, -0.044, 22:51:54.293
166, 17689.44, 25010.06, 187500.00, 187500.00, 187500.00, -187500.02, -187500.02, -187500.02, 0.000, 0.000, 0.000, 22:51:54.293
167, 18235.54, 25721.07, 187500.00, 187500.00, 187500.00, -187500.02, -187500.02, -187500.02, 0.000, 0.000, 0.000, 22:51:54.293
168, 17911.59, 25420.10, 187500.00, 187500.00, 187500.00, -187500.02, -187500.02, -187500.02, 0.000, 0.000, 0.000, 22:51:54.293
169, 17293.52, 24668.61, 187500.00, 187500.00, 187500.00, -187500.02, -187500.02, -187500.02, 0.000, 0.000, 0.000, 22:51:54.293
170, 17574.53, 24934.26, 187500.00, 187500.00, 187500.00, -187500.02, -187500.02, -187500.02, 0.000, 0.000, 0.000, 22:51:54.293
171, 18219.98, 25699.57, 187500.00, 187500.00, 187500.00, -187500.02, -187500.02, -187500.02, 0.000, 0.000, 0.000, 22:51:54.293
172, 18086.25, 25599.34, 187500.00, 187500.00, 187500.00, -187500.02, -187500.02, -187500.02, 0.000, 0.000, 0.000, 22:51:54.293
173, 17275.28, 24693.18, 187500.00, 187500.00, 187500.00, -187500.02, -187500.02, -187500.02, 0.000, 0.000, 0.000, 22:51:54.294
174, 17363.59, 24776.35, 187500.00, 187500.00, 187500.00, -187500.02, -187500.02, -187500.02, 0.000, 0.000, 0.000, 22:51:54.294
175, 18140.45, 25591.61, 187500.00, 187500.00, 187500.00, -187500.02, -187500.02, -187500.02, 0.050, 1.000, -0.050, 22:51:54.294
176, 18244.86, 25733.21, 187500.00, 187500.00, 187500.00, -187500.02, -187500.02, -187500.02, 0.000, 0.000, 0.000, 22:51:54.294
177, 17364.53, 24802.68, 187500.00, 187500.00, 187500.00, -187500.02, -187500.02, -187500.02, 0.000, 0.000, 0.000, 22:51:54.294
178, 17307.94, 24721.30, 187500.00, 187500.00, 187500.00, -187500.02, -187500.02, -187500.02, 0.000, 0.000, 0.000, 22:51:54.294
179, 18048.00, 25505.55, 187500.00, 187500.00, 187500.00, -187500.02, -187500.02, -187500.02, 0.000, 0.000, 0.000, 22:51:54.294
180, 18323.89, 25852.50, 187500.00, 187500.00, 187500.00, -187500.02, -187500.02, -187500.02, 0.000, 0.000, 0.000, 22:51:54.294
181, 17431.79, 24963.01, 187500.00, 187500.00, 187500.00, -187500.02, -187500.02, -187500.02, 0.000, 0.000, 0.000, 22:51:54.295
182, 17195.29, 24646.44, 187500.00, 187500.00, 187500.00, -187500.02, -187500.02, -187500.02, 0.000, 0.000, 0.000, 22:51:54.295
183, 17941.14, 25375.78, 187500.00, 187500.00, 187500.00, -187500.02, -187500.02, -187500.02, 0.000, 0.000, 0.000, 22:51:54.295
184, 18474.70, 25958.82, 187500.00, 187500.00, 187500.00, -187500.02, -187500.02, -187500.02, 0.000, 0.000, 0.000, 22:51:54.295
185, 17627.90, 25135.56, 187500.00, 187500.00, 187500.00, -187500.02, -187500.02, -187500.02, 0.060, 0.998, -0.050, 22:51:54.295
186, 17091.02, 24569.66, 187500.00, 187500.00, 187500.00, -187500.02, -187500.02, -187500.02, 0.000, 0.000, 0.000, 22:51:54.295
187, 17755.51, 25243.21, 187500.00, 187500.00, 187500.00, -187500.02, -187500.02, -187500.02, 0.000, 0.000, 0.000, 22:51:54.295
188, 18501.32, 25990.94, 187500.00, 187500.00, 187500.00, -187500.02, -187500.02, -187500.02, 0.000, 0.000, 0.000, 22:51:54.296
189, 17804.79, 25364.67, 187500.00, 187500.00, 187500.00, -187500.02, -187500.02, -187500.02, 0.000, 0.000, 0.000, 22:51:54.296
190, 17051.54, 24613.47, 187500.00, 187500.00, 187500.00, -187500.02, -187500.02, -187500.02, 0.000, 0.000, 0.000, 22:51:54.296
191, 17626.79, 25145.80, 187500.00, 187500.00, 187500.00, -187500.02, -187500.02, -187500.02, 0.000, 0.000, 0.000, 22:51:54.296
192, 18548.42, 26043.13, 187500.00, 187500.00, 187500.00, -187500.02, -187500.02, -187500.02, 0.000, 0.000, 0.000, 22:51:54.297
193, 18083.25, 25641.43, 187500.00, 187500.00, 187500.00, -187500.02, -187500.02, -187500.02, 0.000, 0.000, 0.000, 22:51:54.297
194, 17017.25, 24646.40, 187500.00, 187500.00, 187500.00, -187500.02, -187500.02, -187500.02, 0.000, 0.000, 0.000, 22:51:54.297
195, 17408.92, 24929.44, 187500.00, 187500.00, 187500.00, -187500.02, -187500.02, -187500.02, 0.054, 1.004, -0.052, 22:51:54.297
196, 18476.76, 25864.68, 187500.00, 187500.00, 187500.00, -187500.02, -187500.02, -187500.02, 0.000, 0.000, 0.000, 22:51:54.297
197, 18306.21, 25720.82, 187500.00, 187500.00, 187500.00, -187500.02, -187500.02, -187500.02, 0.000, 0.000, 0.000, 22:51:54.297
198, 17040.81, 24593.09, 187500.00, 187500.00, 187500.00, -187500.02, -187500.02, -187500.02, 0.000, 0.000, 0.000, 22:51:54.297
199, 17207.02, 24745.15, 187500.00, 187500.00, 187500.00, -187500.02, -187500.02, -187500.02, 0.000, 0.000, 0.000, 22:51:54.298
200, 18363.99, 25780.99, 187500.00, 187500.00, 187500.00, -187500.02, -187500.02, -187500.02, 0.000, 0.000, 0.000, 22:51:54.298
201, 18559.95, 25938.28, 187500.00, 187500.00, 187500.00, -187500.02, -187500.02, -187500.02, 0.000, 0.000, 0.000, 22:51:54.298
202, 17189.14, 24741.88, 187500.00, 187500.00, 187500.00, -187500.02, -187500.02, -187500.02, 0.000, 0.000, 0.000, 22:51:54.298
203, 17050.71, 24596.93, 187500.00, 187500.00, 187500.00, -187500.02, -187500.02, -187500.02, 0.000, 0.000, 0.000, 22:51:54.298
204, 18228.50, 25569.08, 187500.00, 187500.00, 187500.00, -187500.02, -187500.02, -187500.02, 0.052, 1.008, -0.052, 22:51:54.298
205, 18806.94, 26049.46, 187500.00, 187500.00, 187500.00, -187500.02, -187500.02, -187500.02, 0.000, 0.000, 0.000, 22:51:54.298
206, 17444.17, 24880.11, 187500.00, 187500.00, 187500.00, -187500.02, -187500.02, -187500.02, 0.000, 0.000, 0.000, 22:51:54.298
207, 16921.07, 24406.88, 187500.00, 187500.00, 187500.00, -187500.02, -187500.02, -187500.02, 0.000, 0.000, 0.000, 22:51:54.299
208, 17996.86, 25310.40, 187500.00, 187500.00, 187500.00, -187500.02, -187500.02, -187500.02, 0.000, 0.000, 0.000, 22:51:54.299
209, 18959.15, 26094.32, 187500.00, 187500.00, 187500.00, -187500.02, -187500.02, -187500.02, 0.000, 0.000, 0.000, 22:51:54.299
210, 17757.28, 25066.83, 187500.00, 187500.00, 187500.00, -187500.02, -187500.02, -187500.02, 0.000, 0.000, 0.000, 22:51:54.299
211, 16881.58, 24283.36, 187500.00, 187500.00, 187500.00, -187500.02, -187500.02, -187500.02, 0.000, 0.000, 0.000, 22:51:54.299
212, 17852.31, 25135.38, 187500.00, 187500.00, 187500.00, -187500.02, -187500.02, -187500.02, 0.000, 0.000, 0.000, 22:51:54.299
213, 19031.46, 26251.25, 187500.00, 187500.00, 187500.00, -187500.02, -187500.02, -187500.02, 0.000, 0.000, 0.000, 22:51:54.299
214, 18067.67, 25420.39, 187500.00, 187500.00, 187500.00, -187500.02, -187500.02, -187500.02, 0.056, 1.002, -0.052, 22:51:54.299
215, 16832.61, 24231.62, 187500.00, 187500.00, 187500.00, -187500.02, -187500.02, -187500.02, 0.000, 0.000, 0.000, 22:51:54.299
216, 17606.98, 24920.38, 187500.00, 187500.00, 187500.00, -187500.02, -187500.02, -187500.02, 0.000, 0.000, 0.000, 22:51:54.300
217, 19011.37, 26305.46, 187500.00, 187500.00, 187500.00, -187500.02, -187500.02, -187500.02, 0.000, 0.000, 0.000, 22:51:54.300
218, 18476.55, 25812.82, 187500.00, 187500.00, 187500.00, -187500.02, -187500.02, -187500.02, 0.000, 0.000, 0.000, 22:51:54.300
219, 16975.05, 24241.81, 187500.00, 187500.00, 187500.00, -187500.02, -187500.02, -187500.02, 0.000, 0.000, 0.000, 22:51:54.300
220, 17505.60, 24666.85, 187500.00, 187500.00, 187500.00, -187500.02, -187500.02, -187500.02, 0.000, 0.000, 0.000, 22:51:54.300
221, 19023.81, 26249.11, 187500.00, 187500.00, 187500.00, -187500.02, -187500.02, -187500.02, 0.000, 0.000, 0.000, 22:51:54.300
222, 18887.89, 26219.31, 187500.00, 187500.00, 187500.00, -187500.02, -187500.02, -187500.02, 0.000, 0.000, 0.000, 22:51:54.300
223, 17132.68, 24336.22, 187500.00, 187500.00, 187500.00, -187500.02, -187500.02, -187500.02, 0.000, 0.000, 0.000, 22:51:54.300
224, 17279.22, 24372.54, 187500.00, 187500.00, 187500.00, -187500.02, -187500.02, -187500.02, 0.060, 0.996, -0.064, 22:51:54.301
225, 18796.27, 26087.93, 187500.00, 187500.00, 187500.00, -187500.02, -187500.02, -187500.02, 0.000, 0.000, 0.000, 22:51:54.301
226, 19132.27, 26630.85, 187500.00, 187500.00, 187500.00, -187500.02, -187500.02, -187500.02, 0.000, 0.000, 0.000, 22:51:54.301
227, 17376.27, 24619.75, 187500.00, 187500.00, 187500.00, -187500.02, -187500.02, -187500.02, 0.000, 0.000, 0.000, 22:51:54.301
228, 17080.91, 24156.38, 187500.00, 187500.00, 187500.00, -187500.02, -187500.02, -187500.02, 0.000, 0.000, 0.000, 22:51:54.301
229, 18497.50, 25848.70, 187500.00, 187500.00, 187500.00, -187500.02, -187500.02, -187500.02, 0.000, 0.000, 0.000, 22:51:54.302
230, 19263.22, 26890.53, 187500.00, 187500.00, 187500.00, -187500.02, -187500.02, -187500.02, 0.000, 0.000, 0.000, 22:51:54.302
231, 17624.44, 24895.62, 187500.00, 187500.00, 187500.00, -187500.02, -187500.02, -187500.02, 0.000, 0.000, 0.000, 22:51:54.302
232, 16989.81, 23878.75, 187500.00, 187500.00, 187500.00, -187500.02, -187500.02, -187500.02, 0.000, 0.000, 0.000, 22:51:54.302
233, 18386.19, 25407.94, 187500.00, 187500.00, 187500.00, -187500.02, -187500.02, -187500.02, 0.000, 0.000, 0.000, 22:51:54.302
234, 19557.82, 26873.03, 187500.00, 187500.00, 187500.00, -187500.02, -187500.02, -187500.02, 0.060, 0.996, -0.086, 22:51:54.302
235, 18214.82, 25241.82, 187500.00, 187500.00, 187500.00, -187500.02, -187500.02, -187500.02, 0.000, 0.000, 0.000, 22:51:54.302
236, 17084.96, 23752.88, 187500.00, 187500.00, 187500.00, -187500.02, -187500.02, -187500.02, 0.000, 0.000, 0.000, 22:51:54.302
237, 18174.11, 25064.82, 187500.00, 187500.00, 187500.00, -187500.02, -187500.02, -187500.02, 0.000, 0.000, 0.000, 22:51:54.302
238, 19614.57, 26956.83, 187500.00, 187500.00, 187500.00, -187500.02, -187500.02, -187500.02, 0.000, 0.000, 0.000, 22:51:54.303
239, 18511.09, 25810.92, 187500.00, 187500.00, 187500.00, -187500.02, -187500.02, -187500.02, 0.000, 0.000, 0.000, 22:51:54.303
240, 16971.16, 23806.02, 187500.00, 187500.00, 187500.00, -187500.02, -187500.02, -187500.02, 0.000, 0.000, 0.000, 22:51:54.303
241, 17827.21, 24747.38, 187500.00, 187500.00, 187500.00, -187500.02, -187500.02, -187500.02, 0.000, 0.000, 0.000, 22:51:54.767
242, 19464.88, 26855.22, 187500.00, 187500.00, 187500.00, -187500.02, -187500.02, -187500.02, 0.000, 0.000, 0.000, 22:51:54.768
243, 18863.60, 26250.45, 187500.00, 187500.00, 187500.00, -187500.02, -187500.02, -187500.02, 0.000, 0.000, 0.000, 22:51:54.768
244, 16992.44, 23828.57, 187500.00, 187500.00, 187500.00, -187500.02, -187500.02, -187500.02, 0.064, 1.016, -0.102, 22:51:54.768
245, 17440.10, 24255.06, 187500.00, 187500.00, 187500.00, -187500.02, -187500.02, -187500.02, 0.000, 0.000, 0.000, 22:51:54.768
246, 19117.31, 26436.37, 187500.00, 187500.00, 187500.00, -187500.02, -187500.02, -187500.02, 0.000, 0.000, 0.000, 22:51:54.768
247, 19035.26, 26532.46, 187500.00, 187500.00, 187500.00, -187500.02, -187500.02, -187500.02, 0.000, 0.000, 0.000, 22:51:54.768
248, 16989.45, 23950.29, 187500.00, 187500.00, 187500.00, -187500.02, -187500.02, -187500.02, 0.000, 0.000, 0.000, 22:51:54.768
249, 17044.23, 23903.65, 187500.00, 187500.00, 187500.00, -187500.02, -187500.02, -187500.02, 0.000, 0.000, 0.000, 22:51:54.768
250, 18723.59, 26113.23, 187500.00, 187500.00, 187500.00, -187500.02, -187500.02, -187500.02, 0.000, 0.000, 0.000, 22:51:54.769
251, 19217.43, 26916.37, 187500.00, 187500.00, 187500.00, -187500.02, -187500.02, -187500.02, 0.000, 0.000, 0.000, 22:51:54.769
252, 17281.00, 24371.38, 187500.00, 187500.00, 187500.00, -187500.02, -187500.02, -187500.02, 0.000, 0.000, 0.000, 22:51:54.769
253, 16916.16, 23698.21, 187500.00, 187500.00, 187500.00, -187500.02, -187500.02, -187500.02, 0.000, 0.000, 0.000, 22:51:54.769
254, 18437.37, 25703.10, 187500.00, 187500.00, 187500.00, -187500.02, -187500.02, -187500.02, 0.072, 1.020, -0.096, 22:51:54.769
255, 19432.34, 27075.81, 187500.00, 187500.00, 187500.00, -187500.02, -187500.02, -187500.02, 0.000, 0.000, 0.000, 22:51:54.769
0, 17670.71, 24795.64, 187500.00, 187500.00, 187500.00, -187500.02, -187500.02, -187500.02, 0.000, 0.000, 0.000, 22:51:54.770
1, 16807.42, 23465.71, 187500.00, 187500.00, 187500.00, -187500.02, -187500.02, -187500.02, 0.000, 0.000, 0.000, 22:51:54.770
2, 18233.79, 25255.53, 187500.00, 187500.00, 187500.00, -187500.02, -187500.02, -187500.02, 0.000, 0.000, 0.000, 22:51:54.770
3, 19569.02, 27127.71, 187500.00, 187500.00, 187500.00, -187500.02, -187500.02, -187500.02, 0.000, 0.000, 0.000, 22:51:54.770
4, 18077.87, 25227.61, 187500.00, 187500.00, 187500.00, -187500.02, -187500.02, -187500.02, 0.000, 0.000, 0.000, 22:51:54.770
5, 16783.99, 23318.63, 187500.00, 187500.00, 187500.00, -187500.02, -187500.02, -187500.02, 0.000, 0.000, 0.000, 22:51:54.770
6, 17938.01, 24732.18, 187500.00, 187500.00, 187500.00, -187500.02, -187500.02, -187500.02, 0.000, 0.000, 0.000, 22:51:54.770
7, 19547.47, 26972.41, 187500.00, 187500.00, 187500.00, -187500.02, -187500.02, -187500.02, 0.064, 1.026, -0.096, 22:51:54.770
8, 18458.05, 25735.55, 187500.00, 187500.00, 187500.00, -187500.02, -187500.02, -187500.02, 0.000, 0.000, 0.000, 22:51:54.770
9, 16616.93, 23306.99, 187500.00, 187500.00, 187500.00, -187500.02, -187500.02, -187500.02, 0.000, 0.000, 0.000, 22:51:54.770
10, 17438.34, 24298.36, 187500.00, 187500.00, 187500.00, -187500.02, -187500.02, -187500.02, 0.000, 0.000, 0.000, 22:51:54.770
11, 19245.43, 26756.33, 187500.00, 187500.00, 187500.00, -187500.02, -187500.02, -187500.02, 0.000, 0.000, 0.000, 22:51:54.771
12, 18768.63, 26245.95, 187500.00, 187500.00, 187500.00, -187500.02, -187500.02, -187500.02, 0.000, 0.000, 0.000, 22:51:54.771
13, 16715.68, 23485.89, 187500.00, 187500.00, 187500.00, -187500.02, -187500.02, -187500.02, 0.000, 0.000, 0.000, 22:51:54.771
14, 17133.44, 23904.94, 187500.00, 187500.00, 187500.00, -187500.02, -187500.02, -187500.02, 0.000, 0.000, 0.000, 22:51:54.771
15, 18962.46, 26447.23, 187500.00, 187500.00, 187500.00, -187500.02, -187500.02, -187500.02, 0.000, 0.000, 0.000, 22:51:54.771
16, 18987.61, 26776.54, 187500.00, 187500.00, 187500.00, -187500.02, -187500.02, -187500.02, 0.000, 0.000, 0.000, 22:51:54.771
17, 16776.97, 23908.86, 187500.00, 187500.00, 187500.00, -187500.02, -187500.02, -187500.02, 0.058, 1.018, -0.094, 22:51:54.771
18, 16733.50, 23705.95, 187500.00, 187500.00, 187500.00, -187500.02, -187500.02, -187500.02, 0.000, 0.000, 0.000, 22:51:54.771
19, 18537.35, 26131.94, 187500.00, 187500.00, 187500.00, -187500.02, -187500.02, -187500.02, 0.000, 0.000, 0.000, 22:51:54.771
20, 19151.18, 27151.24, 187500.00, 187500.00, 187500.00, -187500.02, -187500.02, -187500.02, 0.000, 0.000, 0.000, 22:51:54.771
21, 16986.32, 24366.62, 187500.00, 187500.00, 187500.00, -187500.02, -187500.02, -187500.02, 0.000, 0.000, 0.000, 22:51:54.771
22, 16431.37, 23487.17, 187500.00, 187500.00, 187500.00, -187500.02, -187500.02, -187500.02, 0.000, 0.000, 0.000, 22:51:54.771
23, 18103.86, 25699.45, 187500.00, 187500.00, 187500.00, -187500.02, -187500.02, -187500.02, 0.000, 0.000, 0.000, 22:51:54.772
24, 19222.59, 27325.01, 187500.00, 187500.00, 187500.00, -187500.02, -187500.02, -187500.02, 0.000, 0.000, 0.000, 22:51:54.772
25, 17333.02, 24909.10, 187500.00, 187500.00, 187500.00, -187500.02, -187500.02, -187500.02, 0.000, 0.000, 0.000, 22:51:54.772
26, 16275.09, 23345.95, 187500.00, 187500.00, 187500.00, -187500.02, -187500.02, -187500.02, 0.000, 0.000, 0.000, 22:51:54.772
27, 17715.61, 25152.37, 187500.00, 187500.00, 187500.00, -187500.02, -187500.02, -187500.02, 0.060, 1.024, -0.104, 22:51:54.772
28, 19199.61, 27235.91, 187500.00, 187500.00, 187500.00, -187500.02, -187500.02, -187500.02, 0.000, 0.000, 0.000, 22:51:54.772
29, 17702.96, 25393.01, 187500.00, 187500.00, 187500.00, -187500.02, -187500.02, -187500.02, 0.000, 0.000, 0.000, 22:51:54.772
30, 16221.06, 23247.71, 187500.00, 187500.00, 187500.00, -187500.02, -187500.02, -187500.02, 0.000, 0.000, 0.000, 22:51:54.772
31, 17396.83, 24652.81, 187500.00, 187500.00, 187500.00, -187500.02, -187500.02, -187500.02, 0.000, 0.000, 0.000, 22:51:54.772
32, 19118.03, 27052.85, 187500.00, 187500.00, 187500.00, -187500.02, -187500.02, -187500.02, 0.000, 0.000, 0.000, 22:51:54.772
33, 18173.89, 25940.67, 187500.00, 187500.00, 187500.00, -187500.02, -187500.02, -187500.02, 0.000, 0.000, 0.000, 22:51:54.772
34, 16329.54, 23354.98, 187500.00, 187500.00, 187500.00, -187500.02, -187500.02, -187500.02, 0.000, 0.000, 0.000, 22:51:54.772
35, 17115.24, 24242.01, 187500.00, 187500.00, 187500.00, -187500.02, -187500.02, -187500.02, 0.000, 0.000, 0.000, 22:51:54.773
36, 18984.21, 26796.61, 187500.00, 187500.00, 187500.00, -187500.02, -187500.02, -187500.02, 0.000, 0.000, 0.000, 22:51:54.773
37, 18593.68, 26488.11, 187500.00, 187500.00, 187500.00, -187500.02, -187500.02, -187500.02, 0.070, 1.030, -0.112, 22:51:54.773
38, 16467.58, 23584.42, 187500.00, 187500.00, 187500.00, -187500.02, -187500.02, -187500.02, 0.000, 0.000, 0.000, 22:51:54.773
39, 16800.31, 23886.01, 187500.00, 187500.00, 187500.00, -187500.02, -187500.02, -187500.02, 0.000, 0.000, 0.000, 22:51:54.773
40, 18706.26, 26474.61, 187500.00, 187500.00, 187500.00, -187500.02, -187500.02, -187500.02, 0.000, 0.000, 0.000, 22:51:54.773
41, 18933.00, 26970.82, 187500.00, 187500.00, 187500.00, -187500.02, -187500.02, -187500.02, 0.000, 0.000, 0.000, 22:51:54.773
42, 16722.55, 24018.89, 187500.00, 187500.00, 187500.00, -187500.02, -187500.02, -187500.02, 0.000, 0.000, 0.000, 22:51:54.773
43, 16615.68, 23657.78, 187500.00, 187500.00, 187500.00, -187500.02, -187500.02, -187500.02, 0.000, 0.000, 0.000, 22:51:54.773
44, 18440.08, 26108.58, 187500.00, 187500.00, 187500.00, -187500.02, -187500.02, -187500.02, 0.000, 0.000, 0.000, 22:51:54.773
45, 19182.56, 27309.92, 187500.00, 187500.00, 187500.00, -187500.02, -187500.02, -187500.02, 0.000, 0.000, 0.000, 22:51:54.773
46, 17060.15, 24533.47, 187500.00, 187500.00, 187500.00, -187500.02, -187500.02, -187500.02, 0.000, 0.000, 0.000, 22:51:54.774
47, 16377.66, 23449.28, 187500.00, 187500.00, 187500.00, -187500.02, -187500.02, -187500.02, 0.088, 1.014, -0.122, 22:51:54.774
48, 18064.66, 25634.90, 187500.00, 187500.00, 187500.00, -187500.02, -187500.02, -187500.02, 0.000, 0.000, 0.000, 22:51:54.774
49, 19305.16, 27455.43, 187500.00, 187500.00, 187500.00, -187500.02, -187500.02, -187500.02, 0.000, 0.000, 0.000, 22:51:54.774
50, 17428.35, 25055.05, 187500.00, 187500.00, 187500.00, -187500.02, -187500.02, -187500.02, 0.000, 0.000, 0.000, 22:51:54.774
51, 16222.58, 23282.94, 187500.00, 187500.00, 187500.00, -187500.02, -187500.02, -187500.02, 0.000, 0.000, 0.000, 22:51:54.774
52, 17630.12, 25081.21, 187500.00, 187500.00, 187500.00, -187500.02, -187500.02, -187500.02, 0.000, 0.000, 0.000, 22:51:54.774
53, 19215.06, 27348.88, 187500.00, 187500.00, 187500.00, -187500.02, -187500.02, -187500.02, 0.000, 0.000, 0.000, 22:51:54.774
54, 17798.27, 25564.36, 187500.00, 187500.00, 187500.00, -187500.02, -187500.02, -187500.02, 0.000, 0.000, 0.000, 22:51:54.774
55, 16185.72, 23207.68, 187500.00, 187500.00, 187500.00, -187500.02, -187500.02, -187500.02, 0.000, 0.000, 0.000, 22:51:54.774
56, 17308.25, 24552.14, 187500.00, 187500.00, 187500.00, -187500.02, -187500.02, -187500.02, 0.000, 0.000, 0.000, 22:51:54.774
57, 19164.01, 27115.44, 187500.00, 187500.00, 187500.00, -187500.02, -187500.02, -187500.02, 0.088, 1.026, -0.138, 22:51:54.774
58, 18329.05, 26087.39, 187500.00, 187500.00, 187500.00, -187500.02, -187500.02, -187500.02, 0.000, 0.000, 0.000, 22:51:54.775
59, 16354.17, 23281.69, 187500.00, 187500.00, 187500.00, -187500.02, -187500.02, -187500.02, 0.000, 0.000, 0.000, 22:51:54.775
60, 17091.10, 24088.14, 187500.00, 187500.00, 187500.00, -187500.02, -187500.02, -187500.02, 0.000, 0.000, 0.000, 22:51:54.775
61, 19030.48, 26755.44, 187500.00, 187500.00, 187500.00, -187500.02, -187500.02, -187500.02, 0.000, 0.000, 0.000, 22:51:54.775
62, 18798.11, 26564.18, 187500.00, 187500.00, 187500.00, -187500.02, -187500.02, -187500.02, 0.000, 0.000, 0.000, 22:51:54.775
63, 16596.68, 23512.74, 187500.00, 187500.00, 187500.00, -187500.02, -187500.02, -187500.02, 0.000, 0.000, 0.000, 22:51:54.775
64, 16851.52, 23680.04, 187500.00, 187500.00, 187500.00, -187500.02, -187500.02, -187500.02, 0.000, 0.000, 0.000, 22:51:54.775
65, 18831.75, 26328.23, 187500.00, 187500.00, 187500.00, -187500.02, -187500.02, -187500.02, 0.000, 0.000, 0.000, 22:51:54.775
66, 19182.40, 26974.58, 187500.00, 187500.00, 187500.00, -187500.02, -187500.02, -187500.02, 0.000, 0.000, 0.000, 22:51:54.775
67, 16915.08, 23934.83, 187500.00, 187500.00, 187500.00, -187500.02, -187500.02, -187500.02, 0.088, 1.030, -0.138, 22:51:54.775
68, 16639.00, 23421.92, 187500.00, 187500.00, 187500.00, -187500.02, -187500.02, -187500.02, 0.000, 0.000, 0.000, 22:51:54.775
69, 18431.00, 25880.21, 187500.00, 187500.00, 187500.00, -187500.02, -187500.02, -187500.02, 0.000, 0.000, 0.000, 22:51:54.776
70, 19287.12, 27241.52, 187500.00, 187500.00, 187500.00, -187500.02, -187500.02, -187500.02, 0.000, 0.000, 0.000, 22:51:54.776
71, 17206.46, 24440.65, 187500.00, 187500.00, 187500.00, -187500.02, -187500.02, -187500.02, 0.000, 0.000, 0.000, 22:51:54.776
72, 16469.46, 23222.28, 187500.00, 187500.00, 187500.00, -187500.02, -187500.02, -187500.02, 0.000, 0.000, 0.000, 22:51:54.776
73, 18071.52, 25408.52, 187500.00, 187500.00, 187500.00, -187500.02, -187500.02, -187500.02, 0.000, 0.000, 0.000, 22:51:54.776
74, 19367.88, 27367.23, 187500.00, 187500.00, 187500.00, -187500.02, -187500.02, -187500.02, 0.000, 0.000, 0.000, 22:51:54.776
75, 17618.38, 25051.59, 187500.00, 187500.00, 187500.00, -187500.02, -187500.02, -187500.02, 0.000, 0.000, 0.000, 22:51:54.776
76, 16375.98, 23150.66, 187500.00, 187500.00, 187500.00, -187500.02, -187500.02, -187500.02, 0.094, 1.004, -0.114, 22:51:54.776
77, 17711.72, 24940.57, 187500.00, 187500.00, 187500.00, -187500.02, -187500.02, -187500.02, 0.000, 0.000, 0.000, 22:51:54.776
78, 19322.19, 27336.21, 187500.00, 187500.00, 187500.00, -187500.02, -187500.02, -187500.02, 0.000, 0.000, 0.000, 22:51:54.776
79, 17980.14, 25650.21, 187500.00, 187500.00, 187500.00, -187500.02, -187500.02, -187500.02, 0.000, 0.000, 0.000, 22:51:54.776
80, 16284.16, 23150.28, 187500.00, 187500.00, 187500.00, -187500.02, -187500.02, -187500.02, 0.000, 0.000, 0.000, 22:51:54.776
81, 17318.56, 24427.46, 187500.00, 187500.00, 187500.00, -187500.02, -187500.02, -187500.02, 0.000, 0.000, 0.000, 22:51:54.777
82, 19190.27, 27080.43, 187500.00, 187500.00, 187500.00, -187500.02, -187500.02, -187500.02, 0.000, 0.000, 0.000, 22:51:54.777
83, 18457.96, 26213.97, 187500.00, 187500.00, 187500.00, -187500.02, -187500.02, -187500.02, 0.000, 0.000, 0.000, 22:51:54.777
84, 16424.91, 23285.58, 187500.00, 187500.00, 187500.00, -187500.02, -187500.02, -187500.02, 0.000, 0.000, 0.000, 22:51:54.777
85, 17082.86, 23981.61, 187500.00, 187500.00, 187500.00, -187500.02, -187500.02, -187500.02, 0.000, 0.000, 0.000, 22:51:54.777
86, 19031.48, 26710.58, 187500.00, 187500.00, 187500.00, -187500.02, -187500.02, -187500.02, 0.112, 0.988, -0.120, 22:51:54.777
87, 18882.57, 26691.04, 187500.00, 187500.00, 187500.00, -187500.02, -187500.02, -187500.02, 0.000, 0.000, 0.000, 22:51:54.777
88, 16629.88, 23539.83, 187500.00, 187500.00, 187500.00, -187500.02, -187500.02, -187500.02, 0.000, 0.000, 0.000, 22:51:54.777
89, 16764.99, 23572.17, 187500.00, 187500.00, 187500.00, -187500.02, -187500.02, -187500.02, 0.000, 0.000, 0.000, 22:51:54.777
90, 18655.73, 26247.45, 187500.00, 187500.00, 187500.00, -187500.02, -187500.02, -187500.02, 0.000, 0.000, 0.000, 22:51:54.777
91, 19096.39, 27040.67, 187500.00, 187500.00, 187500.00, -187500.02, -187500.02, -187500.02, 0.000, 0.000, 0.000, 22:51:54.777
92, 16863.79, 23936.57, 187500.00, 187500.00, 187500.00, -187500.02, -187500.02, -187500.02, 0.000, 0.000, 0.000, 22:51:54.777
93, 16511.93, 23269.13, 187500.00, 187500.00, 187500.00, -187500.02, -187500.02, -187500.02, 0.000, 0.000, 0.000, 22:51:54.778
94, 18307.91, 25760.56, 187500.00, 187500.00, 187500.00, -187500.02, -187500.02, -187500.02, 0.000, 0.000, 0.000, 22:51:54.778
95, 19285.42, 27276.30, 187500.00, 187500.00, 187500.00, -187500.02, -187500.02, -187500.02, 0.000, 0.000, 0.000, 22:51:54.778
96, 17211.67, 24497.47, 187500.00, 187500.00, 187500.00, -187500.02, -187500.02, -187500.02, 0.112, 1.010, -0.128, 22:51:54.778
97, 16321.20, 23072.88, 187500.00, 187500.00, 187500.00, -187500.02, -187500.02, -187500.02, 0.000, 0.000, 0.000, 22:51:54.778
98, 17953.79, 25233.26, 187500.00, 187500.00, 187500.00, -187500.02, -187500.02, -187500.02, 0.000, 0.000, 0.000, 22:51:54.778
99, 19382.96, 27392.53, 187500.00, 187500.00, 187500.00, -187500.02, -187500.02, -187500.02, 0.000, 0.000, 0.000, 22:51:54.778
100, 17655.11, 25117.68, 187500.00, 187500.00, 187500.00, -187500.02, -187500.02, -187500.02, 0.000, 0.000, 0.000, 22:51:54.778
101, 16270.82, 23010.25, 187500.00, 187500.00, 187500.00, -187500.02, -187500.02, -187500.02, 0.000, 0.000, 0.000, 22:51:54.778
102, 17613.02, 24746.76, 187500.00, 187500.00, 187500.00, -187500.02, -187500.02, -187500.02, 0.000, 0.000, 0.000, 22:51:54.778
103, 19334.06, 27269.44, 187500.00, 187500.00, 187500.00, -187500.02, -187500.02, -187500.02, 0.000, 0.000, 0.000, 22:51:54.778
104, 18099.12, 25711.23, 187500.00, 187500.00, 187500.00, -187500.02, -187500.02, -187500.02, 0.000, 0.000, 0.000, 22:51:54.779
105, 16269.39, 23028.35, 187500.00, 187500.00, 187500.00, -187500.02, -187500.02, -187500.02, 0.000, 0.000, 0.000, 22:51:55.249
106, 17253.02, 24242.92, 187500.00, 187500.00, 187500.00, -187500.02, -187500.02, -187500.02, 0.118, 1.008, -0.120, 22:51:55.249
107, 19189.20, 27022.79, 187500.00, 187500.00, 187500.00, -187500.02, -187500.02, -187500.02, 0.000, 0.000, 0.000, 22:51:55.249
108, 18533.39, 26320.59, 187500.00, 187500.00, 187500.00, -187500.02, -187500.02, -187500.02, 0.000, 0.000, 0.000, 22:51:55.249
109, 16352.07, 23225.92, 187500.00, 187500.00, 187500.00, -187500.02, -187500.02, -187500.02, 0.000, 0.000, 0.000, 22:51:55.249
110, 16936.32, 23818.26, 187500.00, 187500.00, 187500.00, -187500.02, -187500.02, -187500.02, 0.000, 0.000, 0.000, 22:51:55.250
111, 18947.33, 26646.59, 187500.00, 187500.00, 187500.00, -187500.02, -187500.02, -187500.02, 0.000, 0.000, 0.000, 22:51:55.250
112, 18904.48, 26842.52, 187500.00, 187500.00, 187500.00, -187500.02, -187500.02, -187500.02, 0.000, 0.000, 0.000, 22:51:55.250
113, 16583.34, 23594.75, 187500.00, 187500.00, 187500.00, -187500.02, -187500.02, -187500.02, 0.000, 0.000, 0.000, 22:51:55.250
114, 16672.41, 23480.28, 187500.00, 187500.00, 187500.00, -187500.02, -187500.02, -187500.02, 0.000, 0.000, 0.000, 22:51:55.250
115, 18615.72, 26215.33, 187500.00, 187500.00, 187500.00, -187500.02, -187500.02, -187500.02, 0.000, 0.000, 0.000, 22:51:55.250
116, 19201.94, 27210.34, 187500.00, 187500.00, 187500.00, -187500.02, -187500.02, -187500.02, 0.124, 1.002, -0.114, 22:51:55.250
117, 16928.34, 23994.46, 187500.00, 187500.00, 187500.00, -187500.02, -187500.02, -187500.02, 0.000, 0.000, 0.000, 22:51:55.250
118, 16459.09, 23137.18, 187500.00, 187500.00, 187500.00, -187500.02, -187500.02, -187500.02, 0.000, 0.000, 0.000, 22:51:55.250
119, 18284.89, 25673.64, 187500.00, 187500.00, 187500.00, -187500.02, -187500.02, -187500.02, 0.000, 0.000, 0.000, 22:51:55.250
120, 19385.35, 27403.30, 187500.00, 187500.00, 187500.00, -187500.02, -187500.02, -187500.02, 0.000, 0.000, 0.000, 22:51:55.250
121, 17306.02, 24558.60, 187500.00, 187500.00, 187500.00, -187500.02, -187500.02, -187500.02, 0.000, 0.000, 0.000, 22:51:55.251
122, 16317.06, 22955.42, 187500.00, 187500.00, 187500.00, -187500.02, -187500.02, -187500.02, 0.000, 0.000, 0.000, 22:51:55.251
123, 17955.07, 25151.37, 187500.00, 187500.00, 187500.00, -187500.02, -187500.02, -187500.02, 0.000, 0.000, 0.000, 22:51:55.251
124, 19455.54, 27468.71, 187500.00, 187500.00, 187500.00, -187500.02, -187500.02, -187500.02, 0.000, 0.000, 0.000, 22:51:55.251
125, 17720.98, 25225.84, 187500.00, 187500.00, 187500.00, -187500.02, -187500.02, -187500.02, 0.000, 0.000, 0.000, 22:51:55.251
126, 16213.13, 22912.19, 187500.00, 187500.00, 187500.00, -187500.02, -187500.02, -187500.02, 0.118, 1.012, -0.102, 22:51:55.251
127, 17511.23, 24625.38, 187500.00, 187500.00, 187500.00, -187500.02, -187500.02, -187500.02, 0.000, 0.000, 0.000, 22:51:55.251
128, 19309.56, 27348.16, 187500.00, 187500.00, 187500.00, -187500.02, -187500.02, -187500.02, 0.000, 0.000, 0.000, 22:51:55.251
129, 18163.16, 25921.67, 187500.00, 187500.00, 187500.00, -187500.02, -187500.02, -187500.02, 0.000, 0.000, 0.000, 22:51:55.251
130, 16226.16, 23032.33, 187500.00, 187500.00, 187500.00, -187500.02, -187500.02, -187500.02, 0.000, 0.000, 0.000, 22:51:55.251
131, 17160.69, 24168.92, 187500.00, 187500.00, 187500.00, -187500.02, -187500.02, -187500.02, 0.000, 0.000, 0.000, 22:51:55.252
132, 19156.07, 27086.29, 187500.00, 187500.00, 187500.00, -187500.02, -187500.02, -187500.02, 0.000, 0.000, 0.000, 22:51:55.252
133, 18620.79, 26519.65, 187500.00, 187500.00, 187500.00, -187500.02, -187500.02, -187500.02, 0.000, 0.000, 0.000, 22:51:55.252
134, 16384.95, 23254.49, 187500.00, 187500.00, 187500.00, -187500.02, -187500.02, -187500.02, 0.000, 0.000, 0.000, 22:51:55.252
135, 16872.88, 23726.85, 187500.00, 187500.00, 187500.00, -187500.02, -187500.02, -187500.02, 0.114, 0.998, -0.094, 22:51:55.252
136, 18909.42, 26659.21, 187500.00, 187500.00, 187500.00, -187500.02, -187500.02, -187500.02, 0.000, 0.000, 0.000, 22:51:55.252
137, 19011.19, 26999.45, 187500.00, 187500.00, 187500.00, -187500.02, -187500.02, -187500.02, 0.000, 0.000, 0.000, 22:51:55.253
138, 16674.49, 23613.14, 187500.00, 187500.00, 187500.00, -187500.02, -187500.02, -187500.02, 0.000, 0.000, 0.000, 22:51:55.254
139, 16638.26, 23344.03, 187500.00, 187500.00, 187500.00, -187500.02, -187500.02, -187500.02, 0.000, 0.000, 0.000, 22:51:55.254
140, 18613.26, 26144.72, 187500.00, 187500.00, 187500.00, -187500.02, -187500.02, -187500.02, 0.000, 0.000, 0.000, 22:51:55.254
141, 19305.27, 27373.46, 187500.00, 187500.00, 187500.00, -187500.02, -187500.02, -187500.02, 0.000, 0.000, 0.000, 22:51:55.254
142, 17012.54, 24151.13, 187500.00, 187500.00, 187500.00, -187500.02, -187500.02, -187500.02, 0.000, 0.000, 0.000, 22:51:55.254
143, 16429.00, 23108.55, 187500.00, 187500.00, 187500.00, -187500.02, -187500.02, -187500.02, 0.000, 0.000, 0.000, 22:51:55.254
144, 18213.97, 25649.50, 187500.00, 187500.00, 187500.00, -187500.02, -187500.02, -187500.02, 0.000, 0.000, 0.000, 22:51:55.254
145, 19435.36, 27555.92, 187500.00, 187500.00, 187500.00, -187500.02, -187500.02, -187500.02, 0.116, 1.012, -0.100, 22:51:55.254
146, 17405.93, 24729.54, 187500.00, 187500.00, 187500.00, -187500.02, -187500.02, -187500.02, 0.000, 0.000, 0.000, 22:51:55.254
147, 16264.76, 22918.94, 187500.00, 187500.00, 187500.00, -187500.02, -187500.02, -187500.02, 0.000, 0.000, 0.000, 22:51:55.255
148, 17832.65, 25085.23, 187500.00, 187500.00, 187500.00, -187500.02, -187500.02, -187500.02, 0.000, 0.000, 0.000, 22:51:55.255
149, 19452.14, 27580.76, 187500.00, 187500.00, 187500.00, -187500.02, -187500.02, -187500.02, 0.000, 0.000, 0.000, 22:51:55.255
150, 17843.08, 25435.70, 187500.00, 187500.00, 187500.00, -187500.02, -187500.02, -187500.02, 0.000, 0.000, 0.000, 22:51:55.255
151, 16205.35, 22911.70, 187500.00, 187500.00, 187500.00, -187500.02, -187500.02, -187500.02, 0.000, 0.000, 0.000, 22:51:55.255
152, 17497.08, 24547.11, 187500.00, 187500.00, 187500.00, -187500.02, -187500.02, -187500.02, 0.000, 0.000, 0.000, 22:51:55.255
153, 19351.49, 27368.32, 187500.00, 187500.00, 187500.00, -187500.02, -187500.02, -187500.02, 0.000, 0.000, 0.000, 22:51:55.255
154, 18292.73, 26042.60, 187500.00, 187500.00, 187500.00, -187500.02, -187500.02, -187500.02, 0.000, 0.000, 0.000, 22:51:55.255
155, 16304.01, 23030.14, 187500.00, 187500.00, 187500.00, -187500.02, -187500.02, -187500.02, 0.110, 1.010, -0.110, 22:51:55.256
156, 17129.01, 24074.21, 187500.00, 187500.00, 187500.00, -187500.02, -187500.02, -187500.02, 0.000, 0.000, 0.000, 22:51:55.256
157, 19144.40, 27053.63, 187500.00, 187500.00, 187500.00, -187500.02, -187500.02, -187500.02, 0.000, 0.000, 0.000, 22:51:55.256
158, 18743.95, 26669.90, 187500.00, 187500.00, 187500.00, -187500.02, -187500.02, -187500.02, 0.000, 0.000, 0.000, 22:51:55.256
159, 16471.11, 23300.40, 187500.00, 187500.00, 187500.00, -187500.02, -187500.02, -187500.02, 0.000, 0.000, 0.000, 22:51:55.256
160, 16831.09, 23629.68, 187500.00, 187500.00, 187500.00, -187500.02, -187500.02, -187500.02, 0.000, 0.000, 0.000, 22:51:55.256
161, 18839.88, 26590.62, 187500.00, 187500.00, 187500.00, -187500.02, -187500.02, -187500.02, 0.000, 0.000, 0.000, 22:51:55.256
162, 19044.18, 27124.51, 187500.00, 187500.00, 187500.00, -187500.02, -187500.02, -187500.02, 0.000, 0.000, 0.000, 22:51:55.256
163, 16694.74, 23700.85, 187500.00, 187500.00, 187500.00, -187500.02, -187500.02, -187500.02, 0.000, 0.000, 0.000, 22:51:55.257
164, 16557.26, 23282.40, 187500.00, 187500.00, 187500.00, -187500.02, -187500.02, -187500.02, 0.000, 0.000, 0.000, 22:51:55.257
165, 18479.08, 26071.61, 187500.00, 187500.00, 187500.00, -187500.02, -187500.02, -187500.02, 0.108, 1.006, -0.116, 22:51:55.257
166, 19257.39, 27443.43, 187500.00, 187500.00, 187500.00, -187500.02, -187500.02, -187500.02, 0.000, 0.000, 0.000, 22:51:55.257
167, 17018.75, 24248.07, 187500.00, 187500.00, 187500.00, -187500.02, -187500.02, -187500.02, 0.000, 0.000, 0.000, 22:51:55.257
168, 16326.74, 23034.68, 187500.00, 187500.00, 187500.00, -187500.02, -187500.02, -187500.02, 0.000, 0.000, 0.000, 22:51:55.257
169, 18069.26, 25528.73, 187500.00, 187500.00, 187500.00, -187500.02, -187500.02, -187500.02, 0.000, 0.000, 0.000, 22:51:55.257
170, 19373.35, 27597.77, 187500.00, 187500.00, 187500.00, -187500.02, -187500.02, -187500.02, 0.000, 0.000, 0.000, 22:51:55.257
171, 17421.60, 24861.60, 187500.00, 187500.00, 187500.00, -187500.02, -187500.02, -187500.02, 0.000, 0.000, 0.000, 22:51:55.258
172, 16195.94, 22881.46, 187500.00, 187500.00, 187500.00, -187500.02, -187500.02, -187500.02, 0.000, 0.000, 0.000, 22:51:55.258
173, 17725.02, 24972.62, 187500.00, 187500.00, 187500.00, -187500.02, -187500.02, -187500.02, 0.000, 0.000, 0.000, 22:51:55.258
174, 19395.35, 27531.80, 187500.00, 187500.00, 187500.00, -187500.02, -187500.02, -187500.02, 0.000, 0.000, 0.000, 22:51:55.258
175, 17890.80, 25515.43, 187500.00, 187500.00, 187500.00, -187500.02, -187500.02, -187500.02, 0.110, 1.006, -0.126, 22:51:55.258
176, 16213.55, 22869.83, 187500.00, 187500.00, 187500.00, -187500.02, -187500.02, -187500.02, 0.000, 0.000, 0.000, 22:51:55.258
177, 17406.73, 24417.56, 187500.00, 187500.00, 187500.00, -187500.02, -187500.02, -187500.02, 0.000, 0.000, 0.000, 22:51:55.258
178, 19323.42, 27332.03, 187500.00, 187500.00, 187500.00, -187500.02, -187500.02, -187500.02, 0.000, 0.000, 0.000, 22:51:55.258
179, 18401.95, 26196.02, 187500.00, 187500.00, 187500.00, -187500.02, -187500.02, -187500.02, 0.000, 0.000, 0.000, 22:51:55.258
180, 16316.82, 23025.29, 187500.00, 187500.00, 187500.00, -187500.02, -187500.02, -187500.02, 0.000, 0.000, 0.000, 22:51:55.258
181, 17089.61, 23932.50, 187500.00, 187500.00, 187500.00, -187500.02, -187500.02, -187500.02, 0.000, 0.000, 0.000, 22:51:55.259
182, 19129.40, 26993.93, 187500.00, 187500.00, 187500.00, -187500.02, -187500.02, -187500.02, 0.000, 0.000, 0.000, 22:51:55.259
183, 18812.55, 26783.74, 187500.00, 187500.00, 187500.00, -187500.02, -187500.02, -187500.02, 0.000, 0.000, 0.000, 22:51:55.259
184, 16465.17, 23326.26, 187500.00, 187500.00, 187500.00, -187500.02, -187500.02, -187500.02, 0.000, 0.000, 0.000, 22:51:55.259
185, 16756.95, 23525.14, 187500.00, 187500.00, 187500.00, -187500.02, -187500.02, -187500.02, 0.118, 1.008, -0.126, 22:51:55.259
186, 18804.43, 26532.03, 187500.00, 187500.00, 187500.00, -187500.02, -187500.02, -187500.02, 0.000, 0.000, 0.000, 22:51:55.259
187, 19152.54, 27248.61, 187500.00, 187500.00, 187500.00, -187500.02, -187500.02, -187500.02, 0.000, 0.000, 0.000, 22:51:55.259
188, 16761.97, 23784.85, 187500.00, 187500.00, 187500.00, -187500.02, -187500.02, -187500.02, 0.000, 0.000, 0.000, 22:51:55.259
189, 16521.92, 23204.82, 187500.00, 187500.00, 187500.00, -187500.02, -187500.02, -187500.02, 0.000, 0.000, 0.000, 22:51:55.259
190, 18444.46, 26000.53, 187500.00, 187500.00, 187500.00, -187500.02, -187500.02, -187500.02, 0.000, 0.000, 0.000, 22:51:55.260
191, 19333.21, 27540.01, 187500.00, 187500.00, 187500.00, -187500.02, -187500.02, -187500.02, 0.000, 0.000, 0.000, 22:51:55.260
192, 17092.54, 24348.56, 187500.00, 187500.00, 187500.00, -187500.02, -187500.02, -187500.02, 0.000, 0.000, 0.000, 22:51:55.260
193, 16324.31, 22947.87, 187500.00, 187500.00, 187500.00, -187500.02, -187500.02, -187500.02, 0.000, 0.000, 0.000, 22:51:55.260
194, 18050.51, 25413.22, 187500.00, 187500.00, 187500.00, -187500.02, -187500.02, -187500.02, 0.000, 0.000, 0.000, 22:51:55.260
195, 19417.38, 27635.27, 187500.00, 187500.00, 187500.00, -187500.02, -187500.02, -187500.02, 0.114, 1.004, -0.126, 22:51:55.260
196, 17526.65, 24995.91, 187500.00, 187500.00, 187500.00, -187500.02, -187500.02, -187500.02, 0.000, 0.000, 0.000, 22:51:55.260
197, 16198.44, 22843.88, 187500.00, 187500.00, 187500.00, -187500.02, -187500.02, -187500.02, 0.000, 0.000, 0.000, 22:51:55.261
198, 17677.26, 24835.89, 187500.00, 187500.00, 187500.00, -187500.02, -187500.02, -187500.02, 0.000, 0.000, 0.000, 22:51:55.261
199, 19428.74, 27524.29, 187500.00, 187500.00, 187500.00, -187500.02, -187500.02, -187500.02, 0.000, 0.000, 0.000, 22:51:55.261
200, 18029.12, 25667.69, 187500.00, 187500.00, 187500.00, -187500.02, -187500.02, -187500.02, 0.000, 0.000, 0.000, 22:51:55.261
201, 16253.54, 22878.08, 187500.00, 187500.00, 187500.00, -187500.02, -187500.02, -187500.02, 0.000, 0.000, 0.000, 22:51:55.261
202, 17359.95, 24316.78, 187500.00, 187500.00, 187500.00, -187500.02, -187500.02, -187500.02, 0.000, 0.000, 0.000, 22:51:55.261
203, 19320.87, 27284.79, 187500.00, 187500.00, 187500.00, -187500.02, -187500.02, -187500.02, 0.000, 0.000, 0.000, 22:51:55.261
204, 18512.25, 26319.67, 187500.00, 187500.00, 187500.00, -187500.02, -187500.02, -187500.02, 0.106, 1.010, -0.136, 22:51:55.261
205, 16371.74, 23053.72, 187500.00, 187500.00, 187500.00, -187500.02, -187500.02, -187500.02, 0.000, 0.000, 0.000, 22:51:55.261
206, 17038.38, 23836.35, 187500.00, 187500.00, 187500.00, -187500.02, -187500.02, -187500.02, 0.000, 0.000, 0.000, 22:51:55.261
207, 19099.19, 26912.26, 187500.00, 187500.00, 187500.00, -187500.02, -187500.02, -187500.02, 0.000, 0.000, 0.000, 22:51:55.261
208, 18926.07, 26887.87, 187500.00, 187500.00, 187500.00, -187500.02, -187500.02, -187500.02, 0.000, 0.000, 0.000, 22:51:55.262
209, 16557.23, 23390.38, 187500.00, 187500.00, 187500.00, -187500.02, -187500.02, -187500.02, 0.000, 0.000, 0.000, 22:51:55.262
210, 16730.26, 23443.34, 187500.00, 187500.00, 187500.00, -187500.02, -187500.02, -187500.02, 0.000, 0.000, 0.000, 22:51:55.262
211, 18767.48, 26432.75, 187500.00, 187500.00, 187500.00, -187500.02, -187500.02, -187500.02, 0.000, 0.000, 0.000, 22:51:55.262
212, 19224.51, 27336.94, 187500.00, 187500.00, 187500.00, -187500.02, -187500.02, -187500.02, 0.000, 0.000, 0.000, 22:51:55.262
213, 16828.40, 23890.75, 187500.00, 187500.00, 187500.00, -187500.02, -187500.02, -187500.02, 0.000, 0.000, 0.000, 22:51:55.262
214, 16490.47, 23162.55, 187500.00, 187500.00, 187500.00, -187500.02, -187500.02, -187500.02, 0.108, 1.014, -0.136, 22:51:55.262
215, 18397.29, 25926.93, 187500.00, 187500.00, 187500.00, -187500.02, -187500.02, -187500.02, 0.000, 0.000, 0.000, 22:51:55.262
216, 19378.76, 27625.06, 187500.00, 187500.00, 187500.00, -187500.02, -187500.02, -187500.02, 0.000, 0.000, 0.000, 22:51:55.263
217, 17189.70, 24506.38, 187500.00, 187500.00, 187500.00, -187500.02, -187500.02, -187500.02, 0.000, 0.000, 0.000, 22:51:55.263
218, 16290.31, 22964.99, 187500.00, 187500.00, 187500.00, -187500.02, -187500.02, -187500.02, 0.000, 0.000, 0.000, 22:51:55.263
219, 17967.74, 25369.32, 187500.00, 187500.00, 187500.00, -187500.02, -187500.02, -187500.02, 0.000, 0.000, 0.000, 22:51:55.263
220, 19431.78, 27711.71, 187500.00, 187500.00, 187500.00, -187500.02, -187500.02, -187500.02, 0.000, 0.000, 0.000, 22:51:55.263
221, 17654.44, 25204.97, 187500.00, 187500.00, 187500.00, -187500.02, -187500.02, -187500.02, 0.000, 0.000, 0.000, 22:51:55.264
222, 16246.68, 22914.52, 187500.00, 187500.00, 187500.00, -187500.02, -187500.02, -187500.02, 0.000, 0.000, 0.000, 22:51:55.264
223, 17648.78, 24828.63, 187500.00, 187500.00, 187500.00, -187500.02, -187500.02, -187500.02, 0.000, 0.000, 0.000, 22:51:55.264
224, 19439.78, 27595.26, 187500.00, 187500.00, 187500.00, -187500.02, -187500.02, -187500.02, 0.108, 1.010, -0.130, 22:51:55.264
225, 18133.77, 25853.77, 187500.00, 187500.00, 187500.00, -187500.02, -187500.02, -187500.02, 0.000, 0.000, 0.000, 22:51:55.727
226, 16255.55, 22914.31, 187500.00, 187500.00, 187500.00, -187500.02, -187500.02, -187500.02, 0.000, 0.000, 0.000, 22:51:55.728
227, 17298.08, 24238.86, 187500.00, 187500.00, 187500.00, -187500.02, -187500.02, -187500.02, 0.000, 0.000, 0.000, 22:51:55.728
228, 19303.50, 27252.16, 187500.00, 187500.00, 187500.00, -187500.02, -187500.02, -187500.02, 0.000, 0.000, 0.000, 22:51:55.728
229, 18611.49, 26453.71, 187500.00, 187500.00, 187500.00, -187500.02, -187500.02, -187500.02, 0.000, 0.000, 0.000, 22:51:55.728
230, 16392.84, 23108.89, 187500.00, 187500.00, 187500.00, -187500.02, -187500.02, -187500.02, 0.000, 0.000, 0.000, 22:51:55.728
231, 16995.95, 23766.77, 187500.00, 187500.00, 187500.00, -187500.02, -187500.02, -187500.02, 0.000, 0.000, 0.000, 22:51:55.728
232, 19055.67, 26827.41, 187500.00, 187500.00, 187500.00, -187500.02, -187500.02, -187500.02, 0.000, 0.000, 0.000, 22:51:55.729
233, 18982.42, 26965.72, 187500.00, 187500.00, 187500.00, -187500.02, -187500.02, -187500.02, 0.000, 0.000, 0.000, 22:51:55.729
234, 16603.19, 23440.47, 187500.00, 187500.00, 187500.00, -187500.02, -187500.02, -187500.02, 0.124, 1.002, -0.124, 22:51:55.729
235, 16685.29, 23336.81, 187500.00, 187500.00, 187500.00, -187500.02, -187500.02, -187500.02, 0.000, 0.000, 0.000, 22:51:55.729
236, 18711.00, 26312.79, 187500.00, 187500.00, 187500.00, -187500.02, -187500.02, -187500.02, 0.000, 0.000, 0.000, 22:51:55.729
237, 19277.44, 27367.83, 187500.00, 187500.00, 187500.00, -187500.02, -187500.02, -187500.02, 0.000, 0.000, 0.000, 22:51:55.729
238, 16890.52, 23935.92, 187500.00, 187500.00, 187500.00, -187500.02, -187500.02, -187500.02, 0.000, 0.000, 0.000, 22:51:55.730
239, 16431.06, 23056.81, 187500.00, 187500.00, 187500.00, -187500.02, -187500.02, -187500.02, 0.000, 0.000, 0.000, 22:51:55.730
240, 18322.19, 25771.43, 187500.00, 187500.00, 187500.00, -187500.02, -187500.02, -187500.02, 0.000, 0.000, 0.000, 22:51:55.730
241, 19439.15, 27612.00, 187500.00, 187500.00, 187500.00, -187500.02, -187500.02, -187500.02, 0.000, 0.000, 0.000, 22:51:55.731
242, 17281.12, 24578.02, 187500.00, 187500.00, 187500.00, -187500.02, -187500.02, -187500.02, 0.000, 0.000, 0.000, 22:51:55.731
243, 16281.35, 22863.46, 187500.00, 187500.00, 187500.00, -187500.02, -187500.02, -187500.02, 0.000, 0.000, 0.000, 22:51:55.732
244, 17962.76, 25183.02, 187500.00, 187500.00, 187500.00, -187500.02, -187500.02, -187500.02, 0.116, 1.004, -0.126, 22:51:55.732
245, 19516.63, 27619.58, 187500.00, 187500.00, 187500.00, -187500.02, -187500.02, -187500.02, 0.000, 0.000, 0.000, 22:51:55.732
246, 17756.18, 25208.99, 187500.00, 187500.00, 187500.00, -187500.02, -187500.02, -187500.02, 0.000, 0.000, 0.000, 22:51:55.732
247, 16200.05, 22764.83, 187500.00, 187500.00, 187500.00, -187500.02, -187500.02, -187500.02, 0.000, 0.000, 0.000, 22:51:55.733
248, 17564.98, 24602.92, 187500.00, 187500.00, 187500.00, -187500.02, -187500.02, -187500.02, 0.000, 0.000, 0.000, 22:51:55.733
249, 19424.43, 27459.88, 187500.00, 187500.00, 187500.00, -187500.02, -187500.02, -187500.02, 0.000, 0.000, 0.000, 22:51:55.733
250, 18227.62, 25890.99, 187500.00, 187500.00, 187500.00, -187500.02, -187500.02, -187500.02, 0.000, 0.000, 0.000, 22:51:55.733
251, 16239.73, 22832.84, 187500.00, 187500.00, 187500.00, -187500.02, -187500.02, -187500.02, 0.000, 0.000, 0.000, 22:51:55.734
252, 17219.04, 24082.30, 187500.00, 187500.00, 187500.00, -187500.02, -187500.02, -187500.02, 0.000, 0.000, 0.000, 22:51:55.734
253, 19267.18, 27181.22, 187500.00, 187500.00, 187500.00, -187500.02, -187500.02, -187500.02, 0.000, 0.000, 0.000, 22:51:55.734
254, 18676.00, 26562.50, 187500.00, 187500.00, 187500.00, -187500.02, -187500.02, -187500.02, 0.116, 1.002, -0.114, 22:51:55.734
255, 16378.64, 23108.89, 187500.00, 187500.00, 187500.00, -187500.02, -187500.02, -187500.02, 0.000, 0.000, 0.000, 22:51:55.734
0, 16900.42, 23632.39, 187500.00, 187500.00, 187500.00, -187500.02, -187500.02, -187500.02, 0.000, 0.000, 0.000, 22:51:55.735
1, 19029.40, 26766.19, 187500.00, 187500.00, 187500.00, -187500.02, -187500.02, -187500.02, 0.000, 0.000, 0.000, 22:51:55.735
2, 19080.19, 27091.79, 187500.00, 187500.00, 187500.00, -187500.02, -187500.02, -187500.02, 0.000, 0.000, 0.000, 22:51:55.735
3, 16618.79, 23482.63, 187500.00, 187500.00, 187500.00, -187500.02, -187500.02, -187500.02, 0.000, 0.000, 0.000, 22:51:55.735
4, 16604.75, 23230.46, 187500.00, 187500.00, 187500.00, -187500.02, -187500.02, -187500.02, 0.000, 0.000, 0.000, 22:51:55.735
5, 18671.26, 26216.79, 187500.00, 187500.00, 187500.00, -187500.02, -187500.02, -187500.02, 0.000, 0.000, 0.000, 22:51:55.735
6, 19369.75, 27484.29, 187500.00, 187500.00, 187500.00, -187500.02, -187500.02, -187500.02, 0.000, 0.000, 0.000, 22:51:55.735
7, 16969.24, 24041.80, 187500.00, 187500.00, 187500.00, -187500.02, -187500.02, -187500.02, 0.122, 1.004, -0.110, 22:51:55.736
8, 16388.75, 22965.63, 187500.00, 187500.00, 187500.00, -187500.02, -187500.02, -187500.02, 0.000, 0.000, 0.000, 22:51:55.736
9, 18279.26, 25663.58, 187500.00, 187500.00, 187500.00, -187500.02, -187500.02, -187500.02, 0.000, 0.000, 0.000, 22:51:55.736
10, 19545.71, 27684.62, 187500.00, 187500.00, 187500.00, -187500.02, -187500.02, -187500.02, 0.000, 0.000, 0.000, 22:51:55.736
11, 17417.57, 24687.68, 187500.00, 187500.00, 187500.00, -187500.02, -187500.02, -187500.02, 0.000, 0.000, 0.000, 22:51:55.736
12, 16289.19, 22799.63, 187500.00, 187500.00, 187500.00, -187500.02, -187500.02, -187500.02, 0.000, 0.000, 0.000, 22:51:55.736
13, 17930.95, 25093.63, 187500.00, 187500.00, 187500.00, -187500.02, -187500.02, -187500.02, 0.000, 0.000, 0.000, 22:51:55.737
14, 19588.76, 27696.60, 187500.00, 187500.00, 187500.00, -187500.02, -187500.02, -187500.02, 0.000, 0.000, 0.000, 22:51:55.737
15, 17899.75, 25391.80, 187500.00, 187500.00, 187500.00, -187500.02, -187500.02, -187500.02, 0.000, 0.000, 0.000, 22:51:55.737
16, 16238.50, 22775.33, 187500.00, 187500.00, 187500.00, -187500.02, -187500.02, -187500.02, 0.000, 0.000, 0.000, 22:51:55.737
17, 17547.10, 24537.59, 187500.00, 187500.00, 187500.00, -187500.02, -187500.02, -187500.02, 0.124, 1.000, -0.112, 22:51:55.737
18, 19494.70, 27486.45, 187500.00, 187500.00, 187500.00, -187500.02, -187500.02, -187500.02, 0.000, 0.000, 0.000, 22:51:55.738
19, 18385.92, 26067.77, 187500.00, 187500.00, 187500.00, -187500.02, -187500.02, -187500.02, 0.000, 0.000, 0.000, 22:51:55.738
20, 16295.34, 22888.28, 187500.00, 187500.00, 187500.00, -187500.02, -187500.02, -187500.02, 0.000, 0.000, 0.000, 22:51:55.738
21, 17183.37, 23990.80, 187500.00, 187500.00, 187500.00, -187500.02, -187500.02, -187500.02, 0.000, 0.000, 0.000, 22:51:55.738
22, 19274.80, 27119.21, 187500.00, 187500.00, 187500.00, -187500.02, -187500.02, -187500.02, 0.000, 0.000, 0.000, 22:51:55.738
23, 18811.61, 26671.13, 187500.00, 187500.00, 187500.00, -187500.02, -187500.02, -187500.02, 0.000, 0.000, 0.000, 22:51:55.739
24, 16431.21, 23144.29, 187500.00, 187500.00, 187500.00, -187500.02, -187500.02, -187500.02, 0.000, 0.000, 0.000, 22:51:55.739
25, 16838.48, 23523.20, 187500.00, 187500.00, 187500.00, -187500.02, -187500.02, -187500.02, 0.000, 0.000, 0.000, 22:51:55.739
26, 18958.48, 26649.85, 187500.00, 187500.00, 187500.00, -187500.02, -187500.02, -187500.02, 0.000, 0.000, 0.000, 22:51:55.739
27, 19155.24, 27179.43, 187500.00, 187500.00, 187500.00, -187500.02, -187500.02, -187500.02, 0.122, 1.010, -0.108, 22:51:55.739
28, 16676.03, 23576.82, 187500.00, 187500.00, 187500.00, -187500.02, -187500.02, -187500.02, 0.000, 0.000, 0.000, 22:51:55.740
29, 16535.19, 23164.30, 187500.00, 187500.00, 187500.00, -187500.02, -187500.02, -187500.02, 0.000, 0.000, 0.000, 22:51:55.740
30, 18566.77, 26100.58, 187500.00, 187500.00, 187500.00, -187500.02, -187500.02, -187500.02, 0.000, 0.000, 0.000, 22:51:55.740
31, 19397.31, 27510.37, 187500.00, 187500.00, 187500.00, -187500.02, -187500.02, -187500.02, 0.000, 0.000, 0.000, 22:51:55.740
32, 17043.16, 24148.96, 187500.00, 187500.00, 187500.00, -187500.02, -187500.02, -187500.02, 0.000, 0.000, 0.000, 22:51:55.740
33, 16330.16, 22922.38, 187500.00, 187500.00, 187500.00, -187500.02, -187500.02, -187500.02, 0.000, 0.000, 0.000, 22:51:55.740
34, 18205.96, 25553.21, 187500.00, 187500.00, 187500.00, -187500.02, -187500.02, -187500.02, 0.000, 0.000, 0.000, 22:51:55.740
35, 19535.38, 27671.97, 187500.00, 187500.00, 187500.00, -187500.02, -187500.02, -187500.02, 0.000, 0.000, 0.000, 22:51:55.740
36, 17492.47, 24820.07, 187500.00, 187500.00, 187500.00, -187500.02, -187500.02, -187500.02, 0.000, 0.000, 0.000, 22:51:55.741
37, 16237.78, 22785.12, 187500.00, 187500.00, 187500.00, -187500.02, -187500.02, -187500.02, 0.124, 1.008, -0.102, 22:51:55.741
38, 17802.90, 24972.04, 187500.00, 187500.00, 187500.00, -187500.02, -187500.02, -187500.02, 0.000, 0.000, 0.000, 22:51:55.741
39, 19568.08, 27657.78, 187500.00, 187500.00, 187500.00, -187500.02, -187500.02, -187500.02, 0.000, 0.000, 0.000, 22:51:55.741
40, 18014.70, 25575.83, 187500.00, 187500.00, 187500.00, -187500.02, -187500.02, -187500.02, 0.000, 0.000, 0.000, 22:51:55.741
41, 16251.89, 22866.04, 187500.00, 187500.00, 187500.00, -187500.02, -187500.02, -187500.02, 0.000, 0.000, 0.000, 22:51:55.741
42, 17486.48, 24495.50, 187500.00, 187500.00, 187500.00, -187500.02, -187500.02, -187500.02, 0.000, 0.000, 0.000, 22:51:55.741
43, 19457.84, 27479.84, 187500.00, 187500.00, 187500.00, -187500.02, -187500.02, -187500.02, 0.000, 0.000, 0.000, 22:51:55.741
44, 18454.63, 26244.99, 187500.00, 187500.00, 187500.00, -187500.02, -187500.02, -187500.02, 0.000, 0.000, 0.000, 22:51:55.742
45, 16316.68, 23008.42, 187500.00, 187500.00, 187500.00, -187500.02, -187500.02, -187500.02, 0.000, 0.000, 0.000, 22:51:55.742
46, 17116.38, 24001.66, 187500.00, 187500.00, 187500.00, -187500.02, -187500.02, -187500.02, 0.000, 0.000, 0.000, 22:51:55.742
47, 19213.29, 27126.03, 187500.00, 187500.00, 187500.00, -187500.02, -187500.02, -187500.02, 0.122, 1.002, -0.106, 22:51:55.742
48, 18881.50, 26853.52, 187500.00, 187500.00, 187500.00, -187500.02, -187500.02, -187500.02, 0.000, 0.000, 0.000, 22:51:55.742
49, 16466.46, 23315.30, 187500.00, 187500.00, 187500.00, -187500.02, -187500.02, -187500.02, 0.000, 0.000, 0.000, 22:51:55.742
50, 16802.14, 23566.70, 187500.00, 187500.00, 187500.00, -187500.02, -187500.02, -187500.02, 0.000, 0.000, 0.000, 22:51:55.742
51, 18910.67, 26632.73, 187500.00, 187500.00, 187500.00, -187500.02, -187500.02, -187500.02, 0.000, 0.000, 0.000, 22:51:55.742
52, 19238.35, 27319.66, 187500.00, 187500.00, 187500.00, -187500.02, -187500.02, -187500.02, 0.000, 0.000, 0.000, 22:51:55.743
53, 16791.26, 23750.14, 187500.00, 187500.00, 187500.00, -187500.02, -187500.02, -187500.02, 0.000, 0.000, 0.000, 22:51:55.743
54, 16559.15, 23175.61, 187500.00, 187500.00, 187500.00, -187500.02, -187500.02, -187500.02, 0.000, 0.000, 0.000, 22:51:55.743
55, 18561.11, 26054.94, 187500.00, 187500.00, 187500.00, -187500.02, -187500.02, -187500.02, 0.000, 0.000, 0.000, 22:51:55.743
56, 19482.45, 27601.47, 187500.00, 187500.00, 187500.00, -187500.02, -187500.02, -187500.02, 0.000, 0.000, 0.000, 22:51:55.743
57, 17172.49, 24304.91, 187500.00, 187500.00, 187500.00, -187500.02, -187500.02, -187500.02, 0.126, 1.006, -0.112, 22:51:55.743
58, 16370.51, 22927.95, 187500.00, 187500.00, 187500.00, -187500.02, -187500.02, -187500.02, 0.000, 0.000, 0.000, 22:51:55.743
59, 18154.87, 25471.98, 187500.00, 187500.00, 187500.00, -187500.02, -187500.02, -187500.02, 0.000, 0.000, 0.000, 22:51:55.744
60, 19600.56, 27717.62, 187500.00, 187500.00, 187500.00, -187500.02, -187500.02, -187500.02, 0.000, 0.000, 0.000, 22:51:55.744
61, 17633.60, 24982.72, 187500.00, 187500.00, 187500.00, -187500.02, -187500.02, -187500.02, 0.000, 0.000, 0.000, 22:51:55.744
62, 16271.82, 22802.58, 187500.00, 187500.00, 187500.00, -187500.02, -187500.02, -187500.02, 0.000, 0.000, 0.000, 22:51:55.745
63, 17793.20, 24898.68, 187500.00, 187500.00, 187500.00, -187500.02, -187500.02, -187500.02, 0.000, 0.000, 0.000, 22:51:55.745
64, 19556.97, 27656.42, 187500.00, 187500.00, 187500.00, -187500.02, -187500.02, -187500.02, 0.000, 0.000, 0.000, 22:51:55.745
65, 18085.80, 25688.21, 187500.00, 187500.00, 187500.00, -187500.02, -187500.02, -187500.02, 0.000, 0.000, 0.000, 22:51:55.745
66, 16277.05, 22851.33, 187500.00, 187500.00, 187500.00, -187500.02, -187500.02, -187500.02, 0.116, 1.014, -0.110, 22:51:55.745
67, 17437.22, 24368.38, 187500.00, 187500.00, 187500.00, -187500.02, -187500.02, -187500.02, 0.000, 0.000, 0.000, 22:51:55.745
68, 19430.44, 27414.14, 187500.00, 187500.00, 187500.00, -187500.02, -187500.02, -187500.02, 0.000, 0.000, 0.000, 22:51:55.745
69, 18567.91, 26388.74, 187500.00, 187500.00, 187500.00, -187500.02, -187500.02, -187500.02, 0.000, 0.000, 0.000, 22:51:55.746
70, 16378.31, 23050.15, 187500.00, 187500.00, 187500.00, -187500.02, -187500.02, -187500.02, 0.000, 0.000, 0.000, 22:51:55.746
71, 17086.28, 23884.31, 187500.00, 187500.00, 187500.00, -187500.02, -187500.02, -187500.02, 0.000, 0.000, 0.000, 22:51:55.746
72, 19199.88, 27028.98, 187500.00, 187500.00, 187500.00, -187500.02, -187500.02, -187500.02, 0.000, 0.000, 0.000, 22:51:55.746
73, 18999.61, 26962.93, 187500.00, 187500.00, 187500.00, -187500.02, -187500.02, -187500.02, 0.000, 0.000, 0.000, 22:51:55.746
74, 16575.05, 23388.82, 187500.00, 187500.00, 187500.00, -187500.02, -187500.02, -187500.02, 0.000, 0.000, 0.000, 22:51:55.746
75, 16785.09, 23457.30, 187500.00, 187500.00, 187500.00, -187500.02, -187500.02, -187500.02, 0.000, 0.000, 0.000, 22:51:55.746
76, 18857.36, 26522.91, 187500.00, 187500.00, 187500.00, -187500.02, -187500.02, -187500.02, 0.114, 1.004, -0.110, 22:51:55.747
77, 19301.20, 27408.83, 187500.00, 187500.00, 187500.00, -187500.02, -187500.02, -187500.02, 0.000, 0.000, 0.000, 22:51:55.747
78, 16875.99, 23871.91, 187500.00, 187500.00, 187500.00, -187500.02, -187500.02, -187500.02, 0.000, 0.000, 0.000, 22:51:55.747
79, 16536.49, 23167.72, 187500.00, 187500.00, 187500.00, -187500.02, -187500.02, -187500.02, 0.000, 0.000, 0.000, 22:51:55.747
80, 18478.03, 25984.37, 187500.00, 187500.00, 187500.00, -187500.02, -187500.02, -187500.02, 0.000, 0.000, 0.000, 22:51:55.747
81, 19484.98, 27684.74, 187500.00, 187500.00, 187500.00, -187500.02, -187500.02, -187500.02, 0.000, 0.000, 0.000, 22:51:55.747
82, 17251.10, 24481.13, 187500.00, 187500.00, 187500.00, -187500.02, -187500.02, -187500.02, 0.000, 0.000, 0.000, 22:51:55.748
83, 16358.08, 22941.47, 187500.00, 187500.00, 187500.00, -187500.02, -187500.02, -187500.02, 0.000, 0.000, 0.000, 22:51:55.748
84, 18081.60, 25403.40, 187500.00, 187500.00, 187500.00, -187500.02, -187500.02, -187500.02, 0.000, 0.000, 0.000, 22:51:55.748
85, 19552.50, 27742.07, 187500.00, 187500.00, 187500.00, -187500.02, -187500.02, -187500.02, 0.000, 0.000, 0.000, 22:51:55.748
86, 17692.70, 25140.37, 187500.00, 187500.00, 187500.00, -187500.02, -187500.02, -187500.02, 0.118, 1.002, -0.118, 22:51:55.748
87, 16244.60, 22832.35, 187500.00, 187500.00, 187500.00, -187500.02, -187500.02, -187500.02, 0.000, 0.000, 0.000, 22:51:55.748
88, 17673.57, 24794.41, 187500.00, 187500.00, 187500.00, -187500.02, -187500.02, -187500.02, 0.000, 0.000, 0.000, 22:51:55.748
89, 19493.36, 27597.09, 187500.00, 187500.00, 187500.00, -187500.02, -187500.02, -187500.02, 0.000, 0.000, 0.000, 22:51:55.749
90, 18142.35, 25788.01, 187500.00, 187500.00, 187500.00, -187500.02, -187500.02, -187500.02, 0.000, 0.000, 0.000, 22:51:56.209
91, 16259.17, 22867.46, 187500.00, 187500.00, 187500.00, -187500.02, -187500.02, -187500.02, 0.000, 0.000, 0.000, 22:51:56.209
92, 17329.93, 24268.21, 187500.00, 187500.00, 187500.00, -187500.02, -187500.02, -187500.02, 0.000, 0.000, 0.000, 22:51:56.209
93, 19353.88, 27325.28, 187500.00, 187500.00, 187500.00, -187500.02, -187500.02, -187500.02, 0.000, 0.000, 0.000, 22:51:56.209
94, 18623.45, 26470.19, 187500.00, 187500.00, 187500.00, -187500.02, -187500.02, -187500.02, 0.000, 0.000, 0.000, 22:51:56.209
95, 16373.57, 23056.67, 187500.00, 187500.00, 187500.00, -187500.02, -187500.02, -187500.02, 0.000, 0.000, 0.000, 22:51:56.209
96, 16996.49, 23754.38, 187500.00, 187500.00, 187500.00, -187500.02, -187500.02, -187500.02, 0.112, 1.010, -0.128, 22:51:56.209
97, 19103.30, 26899.07, 187500.00, 187500.00, 187500.00, -187500.02, -187500.02, -187500.02, 0.000, 0.000, 0.000, 22:51:56.210
98, 19028.84, 27022.79, 187500.00, 187500.00, 187500.00, -187500.02, -187500.02, -187500.02, 0.000, 0.000, 0.000, 22:51:56.210
99, 16591.68, 23430.53, 187500.00, 187500.00, 187500.00, -187500.02, -187500.02, -187500.02, 0.000, 0.000, 0.000, 22:51:56.210
100, 16702.32, 23366.87, 187500.00, 187500.00, 187500.00, -187500.02, -187500.02, -187500.02, 0.000, 0.000, 0.000, 22:51:56.210
101, 18772.87, 26386.08, 187500.00, 187500.00, 187500.00, -187500.02, -187500.02, -187500.02, 0.000, 0.000, 0.000, 22:51:56.210
102, 19323.73, 27430.69, 187500.00, 187500.00, 187500.00, -187500.02, -187500.02, -187500.02, 0.000, 0.000, 0.000, 22:51:56.210
103, 16934.53, 23952.91, 187500.00, 187500.00, 187500.00, -187500.02, -187500.02, -187500.02, 0.000, 0.000, 0.000, 22:51:56.210
104, 16486.18, 23076.07, 187500.00, 187500.00, 187500.00, -187500.02, -187500.02, -187500.02, 0.000, 0.000, 0.000, 22:51:56.210
105, 18376.20, 25838.79, 187500.00, 187500.00, 187500.00, -187500.02, -187500.02, -187500.02, 0.000, 0.000, 0.000, 22:51:56.210
106, 19481.65, 27665.20, 187500.00, 187500.00, 187500.00, -187500.02, -187500.02, -187500.02, 0.108, 1.008, -0.122, 22:51:56.211
107, 17310.58, 24557.26, 187500.00, 187500.00, 187500.00, -187500.02, -187500.02, -187500.02, 0.000, 0.000, 0.000, 22:51:56.211
108, 16299.07, 22866.04, 187500.00, 187500.00, 187500.00, -187500.02, -187500.02, -187500.02, 0.000, 0.000, 0.000, 22:51:56.211
109, 17968.83, 25238.22, 187500.00, 187500.00, 187500.00, -187500.02, -187500.02, -187500.02, 0.000, 0.000, 0.000, 22:51:56.211
110, 19528.03, 27709.72, 187500.00, 187500.00, 187500.00, -187500.02, -187500.02, -187500.02, 0.000, 0.000, 0.000, 22:51:56.211
111, 17764.63, 25257.58, 187500.00, 187500.00, 187500.00, -187500.02, -187500.02, -187500.02, 0.000, 0.000, 0.000, 22:51:56.211
112, 16227.95, 22809.24, 187500.00, 187500.00, 187500.00, -187500.02, -187500.02, -187500.02, 0.000, 0.000, 0.000, 22:51:56.212
113, 17576.90, 24679.88, 187500.00, 187500.00, 187500.00, -187500.02, -187500.02, -187500.02, 0.000, 0.000, 0.000, 22:51:56.212
114, 19441.26, 27566.41, 187500.00, 187500.00, 187500.00, -187500.02, -187500.02, -187500.02, 0.000, 0.000, 0.000, 22:51:56.212
115, 18227.09, 25939.09, 187500.00, 187500.00, 187500.00, -187500.02, -187500.02, -187500.02, 0.000, 0.000, 0.000, 22:51:56.212
116, 16259.24, 22869.83, 187500.00, 187500.00, 187500.00, -187500.02, -187500.02, -187500.02, 0.104, 1.006, -0.126, 22:51:56.212
117, 17249.13, 24151.28, 187500.00, 187500.00, 187500.00, -187500.02, -187500.02, -187500.02, 0.000, 0.000, 0.000, 22:51:56.212
118, 19291.72, 27245.28, 187500.00, 187500.00, 187500.00, -187500.02, -187500.02, -187500.02, 0.000, 0.000, 0.000, 22:51:56.212
119, 18688.40, 26569.74, 187500.00, 187500.00, 187500.00, -187500.02, -187500.02, -187500.02, 0.000, 0.000, 0.000, 22:51:56.212
120, 16393.82, 23122.66, 187500.00, 187500.00, 187500.00, -187500.02, -187500.02, -187500.02, 0.000, 0.000, 0.000, 22:51:56.213
121, 16915.38, 23688.60, 187500.00, 187500.00, 187500.00, -187500.02, -187500.02, -187500.02, 0.000, 0.000, 0.000, 22:51:56.213
122, 19017.04, 26813.33, 187500.00, 187500.00, 187500.00, -187500.02, -187500.02, -187500.02, 0.000, 0.000, 0.000, 22:51:56.213
123, 19072.92, 27129.32, 187500.00, 187500.00, 187500.00, -187500.02, -187500.02, -187500.02, 0.000, 0.000, 0.000, 22:51:56.213
124, 16659.07, 23522.33, 187500.00, 187500.00, 187500.00, -187500.02, -187500.02, -187500.02, 0.000, 0.000, 0.000, 22:51:56.213
125, 16662.80, 23295.50, 187500.00, 187500.00, 187500.00, -187500.02, -187500.02, -187500.02, 0.000, 0.000, 0.000, 22:51:56.213
126, 18695.78, 26295.35, 187500.00, 187500.00, 187500.00, -187500.02, -187500.02, -187500.02, 0.104, 1.004, -0.128, 22:51:56.214
127, 19359.38, 27503.93, 187500.00, 187500.00, 187500.00, -187500.02, -187500.02, -187500.02, 0.000, 0.000, 0.000, 22:51:56.214
128, 16993.47, 24050.37, 187500.00, 187500.00, 187500.00, -187500.02, -187500.02, -187500.02, 0.000, 0.000, 0.000, 22:51:56.214
129, 16462.30, 23005.04, 187500.00, 187500.00, 187500.00, -187500.02, -187500.02, -187500.02, 0.000, 0.000, 0.000, 22:51:56.214
130, 18345.69, 25704.66, 187500.00, 187500.00, 187500.00, -187500.02, -187500.02, -187500.02, 0.000, 0.000, 0.000, 22:51:56.214
131, 19552.43, 27678.75, 187500.00, 187500.00, 187500.00, -187500.02, -187500.02, -187500.02, 0.000, 0.000, 0.000, 22:51:56.215
132, 17408.86, 24673.15, 187500.00, 187500.00, 187500.00, -187500.02, -187500.02, -187500.02, 0.000, 0.000, 0.000, 22:51:56.215
133, 16287.27, 22828.69, 187500.00, 187500.00, 187500.00, -187500.02, -187500.02, -187500.02, 0.000, 0.000, 0.000, 22:51:56.215
134, 17946.82, 25129.02, 187500.00, 187500.00, 187500.00, -187500.02, -187500.02, -187500.02, 0.000, 0.000, 0.000, 22:51:56.215
135, 19587.39, 27687.37, 187500.00, 187500.00, 187500.00, -187500.02, -187500.02, -187500.02, 0.114, 1.004, -0.124, 22:51:56.215
136, 17873.79, 25365.16, 187500.00, 187500.00, 187500.00, -187500.02, -187500.02, -187500.02, 0.000, 0.000, 0.000, 22:51:56.215
137, 16220.46, 22782.71, 187500.00, 187500.00, 187500.00, -187500.02, -187500.02, -187500.02, 0.000, 0.000, 0.000, 22:51:56.216
138, 17555.57, 24562.49, 187500.00, 187500.00, 187500.00, -187500.02, -187500.02, -187500.02, 0.000, 0.000, 0.000, 22:51:56.216
139, 19493.16, 27497.52, 187500.00, 187500.00, 187500.00, -187500.02, -187500.02, -187500.02, 0.000, 0.000, 0.000, 22:51:56.216
140, 18364.35, 26056.52, 187500.00, 187500.00, 187500.00, -187500.02, -187500.02, -187500.02, 0.000, 0.000, 0.000, 22:51:56.216
141, 16292.39, 22894.67, 187500.00, 187500.00, 187500.00, -187500.02, -187500.02, -187500.02, 0.000, 0.000, 0.000, 22:51:56.217
142, 17191.98, 24040.98, 187500.00, 187500.00, 187500.00, -187500.02, -187500.02, -187500.02, 0.000, 0.000, 0.000, 22:51:56.217
143, 19267.83, 27171.81, 187500.00, 187500.00, 187500.00, -187500.02, -187500.02, -187500.02, 0.000, 0.000, 0.000, 22:51:56.217
144, 18788.85, 26706.22, 187500.00, 187500.00, 187500.00, -187500.02, -187500.02, -187500.02, 0.000, 0.000, 0.000, 22:51:56.217
145, 16446.19, 23187.27, 187500.00, 187500.00, 187500.00, -187500.02, -187500.02, -187500.02, 0.114, 1.002, -0.118, 22:51:56.218
146, 16869.06, 23597.52, 187500.00, 187500.00, 187500.00, -187500.02, -187500.02, -187500.02, 0.000, 0.000, 0.000, 22:51:56.218
147, 18963.17, 26716.55, 187500.00, 187500.00, 187500.00, -187500.02, -187500.02, -187500.02, 0.000, 0.000, 0.000, 22:51:56.218
148, 19163.56, 27225.01, 187500.00, 187500.00, 187500.00, -187500.02, -187500.02, -187500.02, 0.000, 0.000, 0.000, 22:51:56.218
149, 16711.33, 23614.30, 187500.00, 187500.00, 187500.00, -187500.02, -187500.02, -187500.02, 0.000, 0.000, 0.000, 22:51:56.219
150, 16597.00, 23222.21, 187500.00, 187500.00, 187500.00, -187500.02, -187500.02, -187500.02, 0.000, 0.000, 0.000, 22:51:56.219
151, 18635.99, 26199.04, 187500.00, 187500.00, 187500.00, -187500.02, -187500.02, -187500.02, 0.000, 0.000, 0.000, 22:51:56.219
152, 19445.55, 27587.24, 187500.00, 187500.00, 187500.00, -187500.02, -187500.02, -187500.02, 0.000, 0.000, 0.000, 22:51:56.219
153, 17085.43, 24166.10, 187500.00, 187500.00, 187500.00, -187500.02, -187500.02, -187500.02, 0.000, 0.000, 0.000, 22:51:56.220
154, 16427.55, 22948.45, 187500.00, 187500.00, 187500.00, -187500.02, -187500.02, -187500.02, 0.000, 0.000, 0.000, 22:51:56.220
155, 18267.16, 25626.01, 187500.00, 187500.00, 187500.00, -187500.02, -187500.02, -187500.02, 0.114, 1.004, -0.110, 22:51:56.220
156, 19567.45, 27741.49, 187500.00, 187500.00, 187500.00, -187500.02, -187500.02, -187500.02, 0.000, 0.000, 0.000, 22:51:56.220
157, 17497.48, 24800.78, 187500.00, 187500.00, 187500.00, -187500.02, -187500.02, -187500.02, 0.000, 0.000, 0.000, 22:51:56.220
158, 16264.42, 22797.68, 187500.00, 187500.00, 187500.00, -187500.02, -187500.02, -187500.02, 0.000, 0.000, 0.000, 22:51:56.221
159, 17880.14, 25034.69, 187500.00, 187500.00, 187500.00, -187500.02, -187500.02, -187500.02, 0.000, 0.000, 0.000, 22:51:56.221
160, 19595.17, 27711.02, 187500.00, 187500.00, 187500.00, -187500.02, -187500.02, -187500.02, 0.000, 0.000, 0.000, 22:51:56.221
161, 17989.46, 25526.56, 187500.00, 187500.00, 187500.00, -187500.02, -187500.02, -187500.02, 0.000, 0.000, 0.000, 22:51:56.221
162, 16245.99, 22787.16, 187500.00, 187500.00, 187500.00, -187500.02, -187500.02, -187500.02, 0.000, 0.000, 0.000, 22:51:56.221
163, 17468.25, 24451.33, 187500.00, 187500.00, 187500.00, -187500.02, -187500.02, -187500.02, 0.000, 0.000, 0.000, 22:51:56.221
164, 19443.18, 27479.77, 187500.00, 187500.00, 187500.00, -187500.02, -187500.02, -187500.02, 0.000, 0.000, 0.000, 22:51:56.222
165, 18453.69, 26206.95, 187500.00, 187500.00, 187500.00, -187500.02, -187500.02, -187500.02, 0.120, 0.998, -0.114, 22:51:56.222
166, 16316.37, 22925.27, 187500.00, 187500.00, 187500.00, -187500.02, -187500.02, -187500.02, 0.000, 0.000, 0.000, 22:51:56.222
167, 17116.36, 23949.36, 187500.00, 187500.00, 187500.00, -187500.02, -187500.02, -187500.02, 0.000, 0.000, 0.000, 22:51:56.222
168, 19222.86, 27107.05, 187500.00, 187500.00, 187500.00, -187500.02, -187500.02, -187500.02, 0.000, 0.000, 0.000, 22:51:56.222
169, 18879.58, 26798.58, 187500.00, 187500.00, 187500.00, -187500.02, -187500.02, -187500.02, 0.000, 0.000, 0.000, 22:51:56.222
170, 16497.89, 23225.76, 187500.00, 187500.00, 187500.00, -187500.02, -187500.02, -187500.02, 0.000, 0.000, 0.000, 22:51:56.222
171, 16818.66, 23509.59, 187500.00, 187500.00, 187500.00, -187500.02, -187500.02, -187500.02, 0.000, 0.000, 0.000, 22:51:56.223
172, 18917.98, 26635.23, 187500.00, 187500.00, 187500.00, -187500.02, -187500.02, -187500.02, 0.000, 0.000, 0.000, 22:51:56.223
173, 19232.74, 27298.70, 187500.00, 187500.00, 187500.00, -187500.02, -187500.02, -187500.02, 0.000, 0.000, 0.000, 22:51:56.223
174, 16788.10, 23698.73, 187500.00, 187500.00, 187500.00, -187500.02, -187500.02, -187500.02, 0.000, 0.000, 0.000, 22:51:56.223
175, 16566.98, 23150.35, 187500.00, 187500.00, 187500.00, -187500.02, -187500.02, -187500.02, 0.120, 1.004, -0.112, 22:51:56.223
176, 18550.03, 26057.30, 187500.00, 187500.00, 187500.00, -187500.02, -187500.02, -187500.02, 0.000, 0.000, 0.000, 22:51:56.223
177, 19453.71, 27585.65, 187500.00, 187500.00, 187500.00, -187500.02, -187500.02, -187500.02, 0.000, 0.000, 0.000, 22:51:56.224
178, 17157.33, 24271.56, 187500.00, 187500.00, 187500.00, -187500.02, -187500.02, -187500.02, 0.000, 0.000, 0.000, 22:51:56.224
179, 16379.83, 22904.66, 187500.00, 187500.00, 187500.00, -187500.02, -187500.02, -187500.02, 0.000, 0.000, 0.000, 22:51:56.224
180, 18184.42, 25468.34, 187500.00, 187500.00, 187500.00, -187500.02, -187500.02, -187500.02, 0.000, 0.000, 0.000, 22:51:56.224
181, 19582.41, 27705.41, 187500.00, 187500.00, 187500.00, -187500.02, -187500.02, -187500.02, 0.000, 0.000, 0.000, 22:51:56.224
182, 17577.54, 24931.18, 187500.00, 187500.00, 187500.00, -187500.02, -187500.02, -187500.02, 0.000, 0.000, 0.000, 22:51:56.224
183, 16259.08, 22797.55, 187500.00, 187500.00, 187500.00, -187500.02, -187500.02, -187500.02, 0.000, 0.000, 0.000, 22:51:56.224
184, 17800.73, 24907.84, 187500.00, 187500.00, 187500.00, -187500.02, -187500.02, -187500.02, 0.000, 0.000, 0.000, 22:51:56.225
185, 19563.41, 27638.94, 187500.00, 187500.00, 187500.00, -187500.02, -187500.02, -187500.02, 0.116, 1.002, -0.106, 22:51:56.225
186, 18069.28, 25643.33, 187500.00, 187500.00, 187500.00, -187500.02, -187500.02, -187500.02, 0.000, 0.000, 0.000, 22:51:56.225
187, 16248.31, 22824.91, 187500.00, 187500.00, 187500.00, -187500.02, -187500.02, -187500.02, 0.000, 0.000, 0.000, 22:51:56.225
188, 17389.08, 24374.33, 187500.00, 187500.00, 187500.00, -187500.02, -187500.02, -187500.02, 0.000, 0.000, 0.000, 22:51:56.225
189, 19388.64, 27402.41, 187500.00, 187500.00, 187500.00, -187500.02, -187500.02, -187500.02, 0.000, 0.000, 0.000, 22:51:56.225
190, 18533.28, 26327.96, 187500.00, 187500.00, 187500.00, -187500.02, -187500.02, -187500.02, 0.000, 0.000, 0.000, 22:51:56.225
191, 16321.56, 23000.93, 187500.00, 187500.00, 187500.00, -187500.02, -187500.02, -187500.02, 0.000, 0.000, 0.000, 22:51:56.225
192, 17043.67, 23874.77, 187500.00, 187500.00, 187500.00, -187500.02, -187500.02, -187500.02, 0.000, 0.000, 0.000, 22:51:56.226
193, 19182.42, 27019.48, 187500.00, 187500.00, 187500.00, -187500.02, -187500.02, -187500.02, 0.000, 0.000, 0.000, 22:51:56.226
194, 18955.73, 26919.43, 187500.00, 187500.00, 187500.00, -187500.02, -187500.02, -187500.02, 0.110, 1.000, -0.110, 22:51:56.226
195, 16510.25, 23341.79, 187500.00, 187500.00, 187500.00, -187500.02, -187500.02, -187500.02, 0.000, 0.000, 0.000, 22:51:56.226
196, 16750.06, 23446.38, 187500.00, 187500.00, 187500.00, -187500.02, -187500.02, -187500.02, 0.000, 0.000, 0.000, 22:51:56.226
197, 18862.10, 26510.11, 187500.00, 187500.00, 187500.00, -187500.02, -187500.02, -187500.02, 0.000, 0.000, 0.000, 22:51:56.226
198, 19284.75, 27348.01, 187500.00, 187500.00, 187500.00, -187500.02, -187500.02, -187500.02, 0.000, 0.000, 0.000, 22:51:56.226
199, 16841.77, 23808.52, 187500.00, 187500.00, 187500.00, -187500.02, -187500.02, -187500.02, 0.000, 0.000, 0.000, 22:51:56.226
200, 16521.31, 23115.32, 187500.00, 187500.00, 187500.00, -187500.02, -187500.02, -187500.02, 0.000, 0.000, 0.000, 22:51:56.226
201, 18481.25, 25940.83, 187500.00, 187500.00, 187500.00, -187500.02, -187500.02, -187500.02, 0.000, 0.000, 0.000, 22:51:56.226
202, 19488.06, 27608.00, 187500.00, 187500.00, 187500.00, -187500.02, -187500.02, -187500.02, 0.000, 0.000, 0.000, 22:51:56.227
203, 17224.23, 24397.62, 187500.00, 187500.00, 187500.00, -187500.02, -187500.02, -187500.02, 0.000, 0.000, 0.000, 22:51:56.227
204, 16342.90, 22898.98, 187500.00, 187500.00, 187500.00, -187500.02, -187500.02, -187500.02, 0.120, 1.002, -0.108, 22:51:56.227
205, 18091.63, 25376.11, 187500.00, 187500.00, 187500.00, -187500.02, -187500.02, -187500.02, 0.000, 0.000, 0.000, 22:51:56.227
206, 19580.66, 27710.57, 187500.00, 187500.00, 187500.00, -187500.02, -187500.02, -187500.02, 0.000, 0.000, 0.000, 22:51:56.227
207, 17696.57, 25100.36, 187500.00, 187500.00, 187500.00, -187500.02, -187500.02, -187500.02, 0.000, 0.000, 0.000, 22:51:56.227
208, 16246.81, 22831.43, 187500.00, 187500.00, 187500.00, -187500.02, -187500.02, -187500.02, 0.000, 0.000, 0.000, 22:51:56.227
209, 17700.75, 24821.30, 187500.00, 187500.00, 187500.00, -187500.02, -187500.02, -187500.02, 0.000, 0.000, 0.000, 22:51:56.227
210, 19530.30, 27596.18, 187500.00, 187500.00, 187500.00, -187500.02, -187500.02, -187500.02, 0.000, 0.000, 0.000, 22:51:56.689
211, 18169.04, 25787.36, 187500.00, 187500.00, 187500.00, -187500.02, -187500.02, -187500.02, 0.000, 0.000, 0.000, 22:51:56.689
212, 16266.03, 22861.23, 187500.00, 187500.00, 187500.00, -187500.02, -187500.02, -187500.02, 0.000, 0.000, 0.000, 22:51:56.689
213, 17345.80, 24273.84, 187500.00, 187500.00, 187500.00, -187500.02, -187500.02, -187500.02, 0.000, 0.000, 0.000, 22:51:56.689
214, 19354.80, 27325.79, 187500.00, 187500.00, 187500.00, -187500.02, -187500.02, -187500.02, 0.118, 1.006, -0.114, 22:51:56.689
215, 18595.80, 26451.48, 187500.00, 187500.00, 187500.00, -187500.02, -187500.02, -187500.02, 0.000, 0.000, 0.000, 22:51:56.689
216, 16385.08, 23094.45, 187500.00, 187500.00, 187500.00, -187500.02, -187500.02, -187500.02, 0.000, 0.000, 0.000, 22:51:56.689
217, 17027.71, 23807.67, 187500.00, 187500.00, 187500.00, -187500.02, -187500.02, -187500.02, 0.000, 0.000, 0.000, 22:51:56.690
218, 19133.96, 26912.13, 187500.00, 187500.00, 187500.00, -187500.02, -187500.02, -187500.02, 0.000, 0.000, 0.000, 22:51:56.690
219, 19032.35, 26995.72, 187500.00, 187500.00, 187500.00, -187500.02, -187500.02, -187500.02, 0.000, 0.000, 0.000, 22:51:56.690
220, 16577.55, 23422.64, 187500.00, 187500.00, 187500.00, -187500.02, -187500.02, -187500.02, 0.000, 0.000, 0.000, 22:51:56.690
221, 16695.59, 23367.34, 187500.00, 187500.00, 187500.00, -187500.02, -187500.02, -187500.02, 0.000, 0.000, 0.000, 22:51:56.690
222, 18782.48, 26377.94, 187500.00, 187500.00, 187500.00, -187500.02, -187500.02, -187500.02, 0.000, 0.000, 0.000, 22:51:56.690
223, 19322.01, 27390.36, 187500.00, 187500.00, 187500.00, -187500.02, -187500.02, -187500.02, 0.000, 0.000, 0.000, 22:51:56.690
224, 16892.40, 23915.20, 187500.00, 187500.00, 187500.00, -187500.02, -187500.02, -187500.02, 0.124, 1.006, -0.116, 22:51:56.690
225, 16463.49, 23066.42, 187500.00, 187500.00, 187500.00, -187500.02, -187500.02, -187500.02, 0.000, 0.000, 0.000, 22:51:56.690
226, 18403.31, 25824.80, 187500.00, 187500.00, 187500.00, -187500.02, -187500.02, -187500.02, 0.000, 0.000, 0.000, 22:51:56.690
227, 19507.84, 27604.47, 187500.00, 187500.00, 187500.00, -187500.02, -187500.02, -187500.02, 0.000, 0.000, 0.000, 22:51:56.690
228, 17316.48, 24520.02, 187500.00, 187500.00, 187500.00, -187500.02, -187500.02, -187500.02, 0.000, 0.000, 0.000, 22:51:56.691
229, 16325.33, 22871.22, 187500.00, 187500.00, 187500.00, -187500.02, -187500.02, -187500.02, 0.000, 0.000, 0.000, 22:51:56.691
230, 18016.69, 25245.42, 187500.00, 187500.00, 187500.00, -187500.02, -187500.02, -187500.02, 0.000, 0.000, 0.000, 22:51:56.691
231, 19579.35, 27675.17, 187500.00, 187500.00, 187500.00, -187500.02, -187500.02, -187500.02, 0.000, 0.000, 0.000, 22:51:56.691
232, 17788.93, 25229.71, 187500.00, 187500.00, 187500.00, -187500.02, -187500.02, -187500.02, 0.000, 0.000, 0.000, 22:51:56.691
233, 16263.04, 22825.02, 187500.00, 187500.00, 187500.00, -187500.02, -187500.02, -187500.02, 0.000, 0.000, 0.000, 22:51:56.691
234, 17637.92, 24678.02, 187500.00, 187500.00, 187500.00, -187500.02, -187500.02, -187500.02, 0.112, 1.014, -0.120, 22:51:56.691
235, 19511.64, 27508.87, 187500.00, 187500.00, 187500.00, -187500.02, -187500.02, -187500.02, 0.000, 0.000, 0.000, 22:51:56.691
236, 18264.30, 25908.22, 187500.00, 187500.00, 187500.00, -187500.02, -187500.02, -187500.02, 0.000, 0.000, 0.000, 22:51:56.691
237, 16276.43, 22933.63, 187500.00, 187500.00, 187500.00, -187500.02, -187500.02, -187500.02, 0.000, 0.000, 0.000, 22:51:56.692
238, 17268.94, 24189.28, 187500.00, 187500.00, 187500.00, -187500.02, -187500.02, -187500.02, 0.000, 0.000, 0.000, 22:51:56.692
239, 19322.61, 27217.90, 187500.00, 187500.00, 187500.00, -187500.02, -187500.02, -187500.02, 0.000, 0.000, 0.000, 22:51:56.692
240, 18707.52, 26532.17, 187500.00, 187500.00, 187500.00, -187500.02, -187500.02, -187500.02, 0.000, 0.000, 0.000, 22:51:56.692
241, 16417.15, 23148.00, 187500.00, 187500.00, 187500.00, -187500.02, -187500.02, -187500.02, 0.000, 0.000, 0.000, 22:51:56.692
242, 16958.40, 23723.98, 187500.00, 187500.00, 187500.00, -187500.02, -187500.02, -187500.02, 0.000, 0.000, 0.000, 22:51:56.692
243, 19054.62, 26789.32, 187500.00, 187500.00, 187500.00, -187500.02, -187500.02, -187500.02, 0.000, 0.000, 0.000, 22:51:56.692
244, 19086.78, 27049.90, 187500.00, 187500.00, 187500.00, -187500.02, -187500.02, -187500.02, 0.102, 1.012, -0.120, 22:51:56.692
245, 16658.13, 23521.99, 187500.00, 187500.00, 187500.00, -187500.02, -187500.02, -187500.02, 0.000, 0.000, 0.000, 22:51:56.692
246, 16681.91, 23324.45, 187500.00, 187500.00, 187500.00, -187500.02, -187500.02, -187500.02, 0.000, 0.000, 0.000, 22:51:56.692
247, 18718.42, 26264.77, 187500.00, 187500.00, 187500.00, -187500.02, -187500.02, -187500.02, 0.000, 0.000, 0.000, 22:51:56.692
248, 19397.83, 27431.20, 187500.00, 187500.00, 187500.00, -187500.02, -187500.02, -187500.02, 0.000, 0.000, 0.000, 22:51:56.692
249, 17022.13, 24050.79, 187500.00, 187500.00, 187500.00, -187500.02, -187500.02, -187500.02, 0.000, 0.000, 0.000, 22:51:56.693
250, 16459.22, 23060.38, 187500.00, 187500.00, 187500.00, -187500.02, -187500.02, -187500.02, 0.000, 0.000, 0.000, 22:51:56.693
251, 18335.67, 25712.13, 187500.00, 187500.00, 187500.00, -187500.02, -187500.02, -187500.02, 0.000, 0.000, 0.000, 22:51:56.693
252, 19550.89, 27624.61, 187500.00, 187500.00, 187500.00, -187500.02, -187500.02, -187500.02, 0.000, 0.000, 0.000, 22:51:56.693
253, 17414.98, 24663.09, 187500.00, 187500.00, 187500.00, -187500.02, -187500.02, -187500.02, 0.000, 0.000, 0.000, 22:51:56.693
254, 16304.17, 22869.88, 187500.00, 187500.00, 187500.00, -187500.02, -187500.02, -187500.02, 0.106, 1.016, -0.122, 22:51:56.693
255, 17934.90, 25128.43, 187500.00, 187500.00, 187500.00, -187500.02, -187500.02, -187500.02, 0.000, 0.000, 0.000, 22:51:56.694
0, 19572.71, 27621.66, 187500.00, 187500.00, 187500.00, -187500.02, -187500.02, -187500.02, 0.000, 0.000, 0.000, 22:51:56.694
1, 17893.60, 25347.01, 187500.00, 187500.00, 187500.00, -187500.02, -187500.02, -187500.02, 0.000, 0.000, 0.000, 22:51:56.694
2, 16264.96, 22836.84, 187500.00, 187500.00, 187500.00, -187500.02, -187500.02, -187500.02, 0.000, 0.000, 0.000, 22:51:56.694
3, 17569.10, 24570.29, 187500.00, 187500.00, 187500.00, -187500.02, -187500.02, -187500.02, 0.000, 0.000, 0.000, 22:51:56.694
4, 19482.52, 27435.76, 187500.00, 187500.00, 187500.00, -187500.02, -187500.02, -187500.02, 0.000, 0.000, 0.000, 22:51:56.694
5, 18345.13, 26006.23, 187500.00, 187500.00, 187500.00, -187500.02, -187500.02, -187500.02, 0.000, 0.000, 0.000, 22:51:56.694
6, 16298.04, 22949.12, 187500.00, 187500.00, 187500.00, -187500.02, -187500.02, -187500.02, 0.000, 0.000, 0.000, 22:51:56.694
7, 17217.93, 24084.99, 187500.00, 187500.00, 187500.00, -187500.02, -187500.02, -187500.02, 0.104, 1.012, -0.122, 22:51:56.694
8, 19274.04, 27122.88, 187500.00, 187500.00, 187500.00, -187500.02, -187500.02, -187500.02, 0.000, 0.000, 0.000, 22:51:56.695
9, 18786.60, 26637.98, 187500.00, 187500.00, 187500.00, -187500.02, -187500.02, -187500.02, 0.000, 0.000, 0.000, 22:51:56.695
10, 16459.96, 23215.04, 187500.00, 187500.00, 187500.00, -187500.02, -187500.02, -187500.02, 0.000, 0.000, 0.000, 22:51:56.695
11, 16884.98, 23634.40, 187500.00, 187500.00, 187500.00, -187500.02, -187500.02, -187500.02, 0.000, 0.000, 0.000, 22:51:56.695
12, 18978.51, 26690.17, 187500.00, 187500.00, 187500.00, -187500.02, -187500.02, -187500.02, 0.000, 0.000, 0.000, 22:51:56.695
13, 19166.69, 27153.17, 187500.00, 187500.00, 187500.00, -187500.02, -187500.02, -187500.02, 0.000, 0.000, 0.000, 22:51:56.696
14, 16737.28, 23645.20, 187500.00, 187500.00, 187500.00, -187500.02, -187500.02, -187500.02, 0.000, 0.000, 0.000, 22:51:56.696
15, 16654.75, 23299.93, 187500.00, 187500.00, 187500.00, -187500.02, -187500.02, -187500.02, 0.000, 0.000, 0.000, 22:51:56.696
16, 18665.18, 26172.08, 187500.00, 187500.00, 187500.00, -187500.02, -187500.02, -187500.02, 0.000, 0.000, 0.000, 22:51:56.696
17, 19444.41, 27488.91, 187500.00, 187500.00, 187500.00, -187500.02, -187500.02, -187500.02, 0.108, 1.012, -0.122, 22:51:56.696
18, 17103.87, 24194.62, 187500.00, 187500.00, 187500.00, -187500.02, -187500.02, -187500.02, 0.000, 0.000, 0.000, 22:51:56.697
19, 16447.29, 23042.99, 187500.00, 187500.00, 187500.00, -187500.02, -187500.02, -187500.02, 0.000, 0.000, 0.000, 22:51:56.697
20, 18279.66, 25610.85, 187500.00, 187500.00, 187500.00, -187500.02, -187500.02, -187500.02, 0.000, 0.000, 0.000, 22:51:56.697
21, 19569.06, 27638.87, 187500.00, 187500.00, 187500.00, -187500.02, -187500.02, -187500.02, 0.000, 0.000, 0.000, 22:51:56.697
22, 17517.26, 24802.68, 187500.00, 187500.00, 187500.00, -187500.02, -187500.02, -187500.02, 0.000, 0.000, 0.000, 22:51:56.697
23, 16302.98, 22870.04, 187500.00, 187500.00, 187500.00, -187500.02, -187500.02, -187500.02, 0.000, 0.000, 0.000, 22:51:56.698
24, 17869.71, 25014.02, 187500.00, 187500.00, 187500.00, -187500.02, -187500.02, -187500.02, 0.000, 0.000, 0.000, 22:51:56.698
25, 19564.48, 27574.25, 187500.00, 187500.00, 187500.00, -187500.02, -187500.02, -187500.02, 0.000, 0.000, 0.000, 22:51:56.698
26, 17987.10, 25468.87, 187500.00, 187500.00, 187500.00, -187500.02, -187500.02, -187500.02, 0.000, 0.000, 0.000, 22:51:56.698
27, 16274.80, 22887.69, 187500.00, 187500.00, 187500.00, -187500.02, -187500.02, -187500.02, 0.104, 1.010, -0.116, 22:51:56.698
28, 17507.00, 24520.96, 187500.00, 187500.00, 187500.00, -187500.02, -187500.02, -187500.02, 0.000, 0.000, 0.000, 22:51:56.699
29, 19441.90, 27426.84, 187500.00, 187500.00, 187500.00, -187500.02, -187500.02, -187500.02, 0.000, 0.000, 0.000, 22:51:56.699
30, 18438.98, 26175.72, 187500.00, 187500.00, 187500.00, -187500.02, -187500.02, -187500.02, 0.000, 0.000, 0.000, 22:51:56.699
31, 16331.39, 23028.35, 187500.00, 187500.00, 187500.00, -187500.02, -187500.02, -187500.02, 0.000, 0.000, 0.000, 22:51:56.699
32, 17140.72, 24017.35, 187500.00, 187500.00, 187500.00, -187500.02, -187500.02, -187500.02, 0.000, 0.000, 0.000, 22:51:56.699
33, 19214.83, 27042.68, 187500.00, 187500.00, 187500.00, -187500.02, -187500.02, -187500.02, 0.000, 0.000, 0.000, 22:51:56.700
34, 18847.68, 26735.26, 187500.00, 187500.00, 187500.00, -187500.02, -187500.02, -187500.02, 0.000, 0.000, 0.000, 22:51:56.700
35, 16492.28, 23326.48, 187500.00, 187500.00, 187500.00, -187500.02, -187500.02, -187500.02, 0.000, 0.000, 0.000, 22:51:56.700
36, 16838.28, 23625.55, 187500.00, 187500.00, 187500.00, -187500.02, -187500.02, -187500.02, 0.000, 0.000, 0.000, 22:51:56.700
37, 18912.95, 26617.71, 187500.00, 187500.00, 187500.00, -187500.02, -187500.02, -187500.02, 0.108, 1.010, -0.116, 22:51:56.700
38, 19198.05, 27225.72, 187500.00, 187500.00, 187500.00, -187500.02, -187500.02, -187500.02, 0.000, 0.000, 0.000, 22:51:56.701
39, 16770.98, 23763.57, 187500.00, 187500.00, 187500.00, -187500.02, -187500.02, -187500.02, 0.000, 0.000, 0.000, 22:51:56.701
40, 16607.77, 23275.94, 187500.00, 187500.00, 187500.00, -187500.02, -187500.02, -187500.02, 0.000, 0.000, 0.000, 22:51:56.701
41, 18595.51, 26089.16, 187500.00, 187500.00, 187500.00, -187500.02, -187500.02, -187500.02, 0.000, 0.000, 0.000, 22:51:56.701
42, 19468.93, 27530.87, 187500.00, 187500.00, 187500.00, -187500.02, -187500.02, -187500.02, 0.000, 0.000, 0.000, 22:51:56.701
43, 17159.86, 24300.93, 187500.00, 187500.00, 187500.00, -187500.02, -187500.02, -187500.02, 0.000, 0.000, 0.000, 22:51:56.701
44, 16404.08, 23016.37, 187500.00, 187500.00, 187500.00, -187500.02, -187500.02, -187500.02, 0.000, 0.000, 0.000, 22:51:56.701
45, 18191.17, 25504.75, 187500.00, 187500.00, 187500.00, -187500.02, -187500.02, -187500.02, 0.000, 0.000, 0.000, 22:51:56.701
46, 19573.87, 27645.22, 187500.00, 187500.00, 187500.00, -187500.02, -187500.02, -187500.02, 0.000, 0.000, 0.000, 22:51:56.702
47, 17614.31, 24958.98, 187500.00, 187500.00, 187500.00, -187500.02, -187500.02, -187500.02, 0.116, 1.010, -0.106, 22:51:56.702
48, 16312.03, 22917.33, 187500.00, 187500.00, 187500.00, -187500.02, -187500.02, -187500.02, 0.000, 0.000, 0.000, 22:51:56.702
49, 17811.99, 24964.80, 187500.00, 187500.00, 187500.00, -187500.02, -187500.02, -187500.02, 0.000, 0.000, 0.000, 22:51:56.702
50, 19553.89, 27580.96, 187500.00, 187500.00, 187500.00, -187500.02, -187500.02, -187500.02, 0.000, 0.000, 0.000, 22:51:56.702
51, 18075.99, 25631.28, 187500.00, 187500.00, 187500.00, -187500.02, -187500.02, -187500.02, 0.000, 0.000, 0.000, 22:51:56.702
52, 16278.04, 22916.82, 187500.00, 187500.00, 187500.00, -187500.02, -187500.02, -187500.02, 0.000, 0.000, 0.000, 22:51:56.702
53, 17433.42, 24419.35, 187500.00, 187500.00, 187500.00, -187500.02, -187500.02, -187500.02, 0.000, 0.000, 0.000, 22:51:56.702
54, 19422.71, 27350.13, 187500.00, 187500.00, 187500.00, -187500.02, -187500.02, -187500.02, 0.000, 0.000, 0.000, 22:51:56.703
55, 18536.28, 26284.55, 187500.00, 187500.00, 187500.00, -187500.02, -187500.02, -187500.02, 0.000, 0.000, 0.000, 22:51:56.703
56, 16354.35, 23076.25, 187500.00, 187500.00, 187500.00, -187500.02, -187500.02, -187500.02, 0.000, 0.000, 0.000, 22:51:56.703
57, 17080.13, 23950.01, 187500.00, 187500.00, 187500.00, -187500.02, -187500.02, -187500.02, 0.112, 1.008, -0.102, 22:51:56.703
58, 19145.92, 26976.30, 187500.00, 187500.00, 187500.00, -187500.02, -187500.02, -187500.02, 0.000, 0.000, 0.000, 22:51:56.703
59, 18928.48, 26837.43, 187500.00, 187500.00, 187500.00, -187500.02, -187500.02, -187500.02, 0.000, 0.000, 0.000, 22:51:56.703
60, 16560.96, 23382.81, 187500.00, 187500.00, 187500.00, -187500.02, -187500.02, -187500.02, 0.000, 0.000, 0.000, 22:51:56.703
61, 16780.50, 23526.17, 187500.00, 187500.00, 187500.00, -187500.02, -187500.02, -187500.02, 0.000, 0.000, 0.000, 22:51:56.704
62, 18838.43, 26514.98, 187500.00, 187500.00, 187500.00, -187500.02, -187500.02, -187500.02, 0.000, 0.000, 0.000, 22:51:56.704
63, 19268.41, 27294.61, 187500.00, 187500.00, 187500.00, -187500.02, -187500.02, -187500.02, 0.000, 0.000, 0.000, 22:51:56.704
64, 16858.60, 23861.60, 187500.00, 187500.00, 187500.00, -187500.02, -187500.02, -187500.02, 0.000, 0.000, 0.000, 22:51:56.704
65, 16558.98, 23216.26, 187500.00, 187500.00, 187500.00, -187500.02, -187500.02, -187500.02, 0.000, 0.000, 0.000, 22:51:56.704
66, 18521.19, 25974.09, 187500.00, 187500.00, 187500.00, -187500.02, -187500.02, -187500.02, 0.114, 1.000, -0.102, 22:51:56.705
67, 19493.80, 27553.29, 187500.00, 187500.00, 187500.00, -187500.02, -187500.02, -187500.02, 0.000, 0.000, 0.000, 22:51:56.705
68, 17234.92, 24422.99, 187500.00, 187500.00, 187500.00, -187500.02, -187500.02, -187500.02, 0.000, 0.000, 0.000, 22:51:56.705
69, 16369.25, 22979.49, 187500.00, 187500.00, 187500.00, -187500.02, -187500.02, -187500.02, 0.000, 0.000, 0.000, 22:51:56.706
70, 18116.16, 25400.59, 187500.00, 187500.00, 187500.00, -187500.02, -187500.02, -187500.02, 0.000, 0.000, 0.000, 22:51:56.706
71, 19571.72, 27634.82, 187500.00, 187500.00, 187500.00, -187500.02, -187500.02, -187500.02, 0.000, 0.000, 0.000, 22:51:56.706
72, 17700.39, 25078.46, 187500.00, 187500.00, 187500.00, -187500.02, -187500.02, -187500.02, 0.000, 0.000, 0.000, 22:51:56.706
73, 16283.36, 22899.76, 187500.00, 187500.00, 187500.00, -187500.02, -187500.02, -187500.02, 0.000, 0.000, 0.000, 22:51:56.707
74, 17743.33, 24851.41, 187500.00, 187500.00, 187500.00, -187500.02, -187500.02, -187500.02, 0.000, 0.000, 0.000, 22:51:57.168
75, 19548.70, 27555.36, 187500.00, 187500.00, 187500.00, -187500.02, -187500.02, -187500.02, 0.000, 0.000, 0.000, 22:51:57.169
76, 18185.15, 25765.32, 187500.00, 187500.00, 187500.00, -187500.02, -187500.02, -187500.02, 0.112, 1.002, -0.100, 22:51:57.169
77, 16307.38, 22936.33, 187500.00, 187500.00, 187500.00, -187500.02, -187500.02, -187500.02, 0.000, 0.000, 0.000, 22:51:57.169
78, 17380.45, 24320.69, 187500.00, 187500.00, 187500.00, -187500.02, -187500.02, -187500.02, 0.000, 0.000, 0.000, 22:51:57.169
79, 19370.38, 27271.56, 187500.00, 187500.00, 187500.00, -187500.02, -187500.02, -187500.02, 0.000, 0.000, 0.000, 22:51:57.169
80, 18623.29, 26379.53, 187500.00, 187500.00, 187500.00, -187500.02, -187500.02, -187500.02, 0.000, 0.000, 0.000, 22:51:57.169
81, 16422.88, 23122.41, 187500.00, 187500.00, 187500.00, -187500.02, -187500.02, -187500.02, 0.000, 0.000, 0.000, 22:51:57.169
82, 17055.97, 23854.16, 187500.00, 187500.00, 187500.00, -187500.02, -187500.02, -187500.02, 0.000, 0.000, 0.000, 22:51:57.169
83, 19123.30, 26874.53, 187500.00, 187500.00, 187500.00, -187500.02, -187500.02, -187500.02, 0.000, 0.000, 0.000, 22:51:57.170
84, 19007.59, 26914.43, 187500.00, 187500.00, 187500.00, -187500.02, -187500.02, -187500.02, 0.000, 0.000, 0.000, 22:51:57.170
85, 16614.48, 23463.43, 187500.00, 187500.00, 187500.00, -187500.02, -187500.02, -187500.02, 0.000, 0.000, 0.000, 22:51:57.170
86, 16755.45, 23459.34, 187500.00, 187500.00, 187500.00, -187500.02, -187500.02, -187500.02, 0.110, 1.006, -0.102, 22:51:57.170
87, 18800.10, 26386.57, 187500.00, 187500.00, 187500.00, -187500.02, -187500.02, -187500.02, 0.000, 0.000, 0.000, 22:51:57.170
88, 19323.17, 27344.95, 187500.00, 187500.00, 187500.00, -187500.02, -187500.02, -187500.02, 0.000, 0.000, 0.000, 22:51:57.170
89, 16939.58, 23957.72, 187500.00, 187500.00, 187500.00, -187500.02, -187500.02, -187500.02, 0.000, 0.000, 0.000, 22:51:57.170
90, 16527.84, 23159.36, 187500.00, 187500.00, 187500.00, -187500.02, -187500.02, -187500.02, 0.000, 0.000, 0.000, 22:51:57.170
91, 18430.20, 25854.91, 187500.00, 187500.00, 187500.00, -187500.02, -187500.02, -187500.02, 0.000, 0.000, 0.000, 22:51:57.170
92, 19511.35, 27586.01, 187500.00, 187500.00, 187500.00, -187500.02, -187500.02, -187500.02, 0.000, 0.000, 0.000, 22:51:57.170
93, 17358.54, 24573.04, 187500.00, 187500.00, 187500.00, -187500.02, -187500.02, -187500.02, 0.000, 0.000, 0.000, 22:51:57.171
94, 16380.88, 22986.20, 187500.00, 187500.00, 187500.00, -187500.02, -187500.02, -187500.02, 0.000, 0.000, 0.000, 22:51:57.171
95, 18040.45, 25310.09, 187500.00, 187500.00, 187500.00, -187500.02, -187500.02, -187500.02, 0.000, 0.000, 0.000, 22:51:57.171
96, 19568.50, 27648.32, 187500.00, 187500.00, 187500.00, -187500.02, -187500.02, -187500.02, 0.110, 1.006, -0.102, 22:51:57.186
97, 17804.35, 25240.60, 187500.00, 187500.00, 187500.00, -187500.02, -187500.02, -187500.02, 0.000, 0.000, 0.000, 22:51:57.187
98, 16307.03, 22924.35, 187500.00, 187500.00, 187500.00, -187500.02, -187500.02, -187500.02, 0.000, 0.000, 0.000, 22:51:57.187
99, 17672.79, 24755.21, 187500.00, 187500.00, 187500.00, -187500.02, -187500.02, -187500.02, 0.000, 0.000, 0.000, 22:51:57.187
100, 19499.77, 27496.09, 187500.00, 187500.00, 187500.00, -187500.02, -187500.02, -187500.02, 0.000, 0.000, 0.000, 22:51:57.187
101, 18257.29, 25883.74, 187500.00, 187500.00, 187500.00, -187500.02, -187500.02, -187500.02, 0.000, 0.000, 0.000, 22:51:57.187
102, 16318.87, 22988.03, 187500.00, 187500.00, 187500.00, -187500.02, -187500.02, -187500.02, 0.000, 0.000, 0.000, 22:51:57.187
103, 17300.23, 24242.57, 187500.00, 187500.00, 187500.00, -187500.02, -187500.02, -187500.02, 0.000, 0.000, 0.000, 22:51:57.187
104, 19317.96, 27195.05, 187500.00, 187500.00, 187500.00, -187500.02, -187500.02, -187500.02, 0.000, 0.000, 0.000, 22:51:57.187
105, 18687.67, 26492.49, 187500.00, 187500.00, 187500.00, -187500.02, -187500.02, -187500.02, 0.000, 0.000, 0.000, 22:51:57.188
106, 16467.58, 23198.09, 187500.00, 187500.00, 187500.00, -187500.02, -187500.02, -187500.02, 0.108, 1.002, -0.104, 22:51:57.188
107, 17004.89, 23785.21, 187500.00, 187500.00, 187500.00, -187500.02, -187500.02, -187500.02, 0.000, 0.000, 0.000, 22:51:57.188
108, 19055.38, 26778.15, 187500.00, 187500.00, 187500.00, -187500.02, -187500.02, -187500.02, 0.000, 0.000, 0.000, 22:51:57.188
109, 19064.05, 27004.62, 187500.00, 187500.00, 187500.00, -187500.02, -187500.02, -187500.02, 0.000, 0.000, 0.000, 22:51:57.188
110, 16672.34, 23562.72, 187500.00, 187500.00, 187500.00, -187500.02, -187500.02, -187500.02, 0.000, 0.000, 0.000, 22:51:57.188
111, 16715.88, 23409.27, 187500.00, 187500.00, 187500.00, -187500.02, -187500.02, -187500.02, 0.000, 0.000, 0.000, 22:51:57.188
112, 18715.49, 26271.79, 187500.00, 187500.00, 187500.00, -187500.02, -187500.02, -187500.02, 0.000, 0.000, 0.000, 22:51:57.188
113, 19353.57, 27373.04, 187500.00, 187500.00, 187500.00, -187500.02, -187500.02, -187500.02, 0.000, 0.000, 0.000, 22:51:57.188
114, 17022.48, 24075.24, 187500.00, 187500.00, 187500.00, -187500.02, -187500.02, -187500.02, 0.000, 0.000, 0.000, 22:51:57.189
115, 16510.81, 23134.75, 187500.00, 187500.00, 187500.00, -187500.02, -187500.02, -187500.02, 0.000, 0.000, 0.000, 22:51:57.189
116, 18338.11, 25736.29, 187500.00, 187500.00, 187500.00, -187500.02, -187500.02, -187500.02, 0.108, 1.006, -0.110, 22:51:57.189
117, 19499.95, 27580.04, 187500.00, 187500.00, 187500.00, -187500.02, -187500.02, -187500.02, 0.000, 0.000, 0.000, 22:51:57.189
118, 17413.80, 24680.59, 187500.00, 187500.00, 187500.00, -187500.02, -187500.02, -187500.02, 0.000, 0.000, 0.000, 22:51:57.189
119, 16368.14, 22971.18, 187500.00, 187500.00, 187500.00, -187500.02, -187500.02, -187500.02, 0.000, 0.000, 0.000, 22:51:57.189
120, 17977.64, 25192.76, 187500.00, 187500.00, 187500.00, -187500.02, -187500.02, -187500.02, 0.000, 0.000, 0.000, 22:51:57.189
121, 19545.21, 27605.25, 187500.00, 187500.00, 187500.00, -187500.02, -187500.02, -187500.02, 0.000, 0.000, 0.000, 22:51:57.189
122, 17884.84, 25372.36, 187500.00, 187500.00, 187500.00, -187500.02, -187500.02, -187500.02, 0.000, 0.000, 0.000, 22:51:57.189
123, 16329.38, 22956.07, 187500.00, 187500.00, 187500.00, -187500.02, -187500.02, -187500.02, 0.000, 0.000, 0.000, 22:51:57.190
124, 17603.32, 24671.92, 187500.00, 187500.00, 187500.00, -187500.02, -187500.02, -187500.02, 0.000, 0.000, 0.000, 22:51:57.190
125, 19437.17, 27450.09, 187500.00, 187500.00, 187500.00, -187500.02, -187500.02, -187500.02, 0.000, 0.000, 0.000, 22:51:57.190
126, 18341.15, 26013.16, 187500.00, 187500.00, 187500.00, -187500.02, -187500.02, -187500.02, 0.096, 1.008, -0.110, 22:51:57.190
127, 16379.51, 23041.14, 187500.00, 187500.00, 187500.00, -187500.02, -187500.02, -187500.02, 0.000, 0.000, 0.000, 22:51:57.190
128, 17270.81, 24162.46, 187500.00, 187500.00, 187500.00, -187500.02, -187500.02, -187500.02, 0.000, 0.000, 0.000, 22:51:57.191
129, 19256.65, 27117.05, 187500.00, 187500.00, 187500.00, -187500.02, -187500.02, -187500.02, 0.000, 0.000, 0.000, 22:51:57.191
130, 18757.49, 26594.39, 187500.00, 187500.00, 187500.00, -187500.02, -187500.02, -187500.02, 0.000, 0.000, 0.000, 22:51:57.191
131, 16500.93, 23271.38, 187500.00, 187500.00, 187500.00, -187500.02, -187500.02, -187500.02, 0.000, 0.000, 0.000, 22:51:57.191
132, 16944.70, 23719.83, 187500.00, 187500.00, 187500.00, -187500.02, -187500.02, -187500.02, 0.000, 0.000, 0.000, 22:51:57.191
133, 18969.54, 26670.88, 187500.00, 187500.00, 187500.00, -187500.02, -187500.02, -187500.02, 0.000, 0.000, 0.000, 22:51:57.191
134, 19105.33, 27073.08, 187500.00, 187500.00, 187500.00, -187500.02, -187500.02, -187500.02, 0.000, 0.000, 0.000, 22:51:57.191
135, 16742.57, 23663.23, 187500.00, 187500.00, 187500.00, -187500.02, -187500.02, -187500.02, 0.100, 1.006, -0.116, 22:51:57.191
136, 16659.96, 23351.63, 187500.00, 187500.00, 187500.00, -187500.02, -187500.02, -187500.02, 0.000, 0.000, 0.000, 22:51:57.191
137, 18617.39, 26142.29, 187500.00, 187500.00, 187500.00, -187500.02, -187500.02, -187500.02, 0.000, 0.000, 0.000, 22:51:57.191
138, 19359.18, 27393.36, 187500.00, 187500.00, 187500.00, -187500.02, -187500.02, -187500.02, 0.000, 0.000, 0.000, 22:51:57.192
139, 17084.22, 24186.22, 187500.00, 187500.00, 187500.00, -187500.02, -187500.02, -187500.02, 0.000, 0.000, 0.000, 22:51:57.192
140, 16468.29, 23099.99, 187500.00, 187500.00, 187500.00, -187500.02, -187500.02, -187500.02, 0.000, 0.000, 0.000, 22:51:57.192
141, 18269.04, 25629.09, 187500.00, 187500.00, 187500.00, -187500.02, -187500.02, -187500.02, 0.000, 0.000, 0.000, 22:51:57.192
142, 19495.24, 27570.61, 187500.00, 187500.00, 187500.00, -187500.02, -187500.02, -187500.02, 0.000, 0.000, 0.000, 22:51:57.192
143, 17479.04, 24807.96, 187500.00, 187500.00, 187500.00, -187500.02, -187500.02, -187500.02, 0.000, 0.000, 0.000, 22:51:57.192
144, 16327.32, 22974.22, 187500.00, 187500.00, 187500.00, -187500.02, -187500.02, -187500.02, 0.000, 0.000, 0.000, 22:51:57.192
145, 17888.44, 25071.66, 187500.00, 187500.00, 187500.00, -187500.02, -187500.02, -187500.02, 0.100, 1.012, -0.116, 22:51:57.192
146, 19531.54, 27562.14, 187500.00, 187500.00, 187500.00, -187500.02, -187500.02, -187500.02, 0.000, 0.000, 0.000, 22:51:57.193
147, 17981.29, 25492.59, 187500.00, 187500.00, 187500.00, -187500.02, -187500.02, -187500.02, 0.000, 0.000, 0.000, 22:51:57.193
148, 16332.29, 22972.52, 187500.00, 187500.00, 187500.00, -187500.02, -187500.02, -187500.02, 0.000, 0.000, 0.000, 22:51:57.193
149, 17527.14, 24560.28, 187500.00, 187500.00, 187500.00, -187500.02, -187500.02, -187500.02, 0.000, 0.000, 0.000, 22:51:57.193
150, 19406.81, 27368.17, 187500.00, 187500.00, 187500.00, -187500.02, -187500.02, -187500.02, 0.000, 0.000, 0.000, 22:51:57.193
151, 18417.41, 26122.62, 187500.00, 187500.00, 187500.00, -187500.02, -187500.02, -187500.02, 0.000, 0.000, 0.000, 22:51:57.193
152, 16394.69, 23094.71, 187500.00, 187500.00, 187500.00, -187500.02, -187500.02, -187500.02, 0.000, 0.000, 0.000, 22:51:57.193
153, 17196.61, 24073.63, 187500.00, 187500.00, 187500.00, -187500.02, -187500.02, -187500.02, 0.000, 0.000, 0.000, 22:51:57.193
154, 19191.52, 27019.77, 187500.00, 187500.00, 187500.00, -187500.02, -187500.02, -187500.02, 0.000, 0.000, 0.000, 22:51:57.194
155, 18822.36, 26697.39, 187500.00, 187500.00, 187500.00, -187500.02, -187500.02, -187500.02, 0.100, 1.010, -0.114, 22:51:57.194
156, 16550.97, 23355.40, 187500.00, 187500.00, 187500.00, -187500.02, -187500.02, -187500.02, 0.000, 0.000, 0.000, 22:51:57.194
157, 16892.42, 23649.69, 187500.00, 187500.00, 187500.00, -187500.02, -187500.02, -187500.02, 0.000, 0.000, 0.000, 22:51:57.194
158, 18897.48, 26567.21, 187500.00, 187500.00, 187500.00, -187500.02, -187500.02, -187500.02, 0.000, 0.000, 0.000, 22:51:57.194
159, 19158.19, 27157.88, 187500.00, 187500.00, 187500.00, -187500.02, -187500.02, -187500.02, 0.000, 0.000, 0.000, 22:51:57.194
160, 16816.65, 23778.23, 187500.00, 187500.00, 187500.00, -187500.02, -187500.02, -187500.02, 0.000, 0.000, 0.000, 22:51:57.194
161, 16637.28, 23325.56, 187500.00, 187500.00, 187500.00, -187500.02, -187500.02, -187500.02, 0.000, 0.000, 0.000, 22:51:57.194
162, 18558.36, 26063.70, 187500.00, 187500.00, 187500.00, -187500.02, -187500.02, -187500.02, 0.000, 0.000, 0.000, 22:51:57.195
163, 19404.89, 27440.97, 187500.00, 187500.00, 187500.00, -187500.02, -187500.02, -187500.02, 0.000, 0.000, 0.000, 22:51:57.195
164, 17195.60, 24302.47, 187500.00, 187500.00, 187500.00, -187500.02, -187500.02, -187500.02, 0.000, 0.000, 0.000, 22:51:57.195
165, 16479.07, 23074.04, 187500.00, 187500.00, 187500.00, -187500.02, -187500.02, -187500.02, 0.102, 1.008, -0.112, 22:51:57.195
166, 18199.06, 25494.09, 187500.00, 187500.00, 187500.00, -187500.02, -187500.02, -187500.02, 0.000, 0.000, 0.000, 22:51:57.195
167, 19500.31, 27539.74, 187500.00, 187500.00, 187500.00, -187500.02, -187500.02, -187500.02, 0.000, 0.000, 0.000, 22:51:57.195
168, 17593.42, 24914.55, 187500.00, 187500.00, 187500.00, -187500.02, -187500.02, -187500.02, 0.000, 0.000, 0.000, 22:51:57.195
169, 16358.95, 22945.90, 187500.00, 187500.00, 187500.00, -187500.02, -187500.02, -187500.02, 0.000, 0.000, 0.000, 22:51:57.195
