%OpenBCI Raw EEG Data
%
%Sample Rate = 250.0 Hz
%First Column = SampleIndex
%Last Column = Timestamp 
%Other Columns = EEG data in microvolts followed by Accel Data (in G) interleaved with Aux Data
0, 0.00, 0.00, 0.00, 0.00, 0.00, 0.00, 0.00, 0.00, 0.110, 1.016, -0.110, 22:54:36.191
1, 21930.64, 27487.24, 187500.00, 187500.00, 187500.00, -187500.02, -187500.02, -187500.02, 0.000, 0.000, 0.000, 22:54:36.677
2, 21915.88, 27466.47, 187500.00, 187500.00, 187500.00, -187500.02, -187500.02, -187500.02, 0.000, 0.000, 0.000, 22:54:36.677
3, 21268.76, 27355.36, 187500.00, 187500.00, 187500.00, -187500.02, -187500.02, -187500.02, 0.000, 0.000, 0.000, 22:54:36.677
4, 21271.73, 27364.53, 187500.00, 187500.00, 187500.00, -187500.02, -187500.02, -187500.02, 0.000, 0.000, 0.000, 22:54:36.677
5, 21843.69, 27488.40, 187500.00, 187500.00, 187500.00, -187500.02, -187500.02, -187500.02, 0.000, 0.000, 0.000, 22:54:36.677
6, 21994.99, 27502.23, 187500.00, 187500.00, 187500.00, -187500.02, -187500.02, -187500.02, 0.000, 0.000, 0.000, 22:54:36.678
7, 21366.99, 27335.36, 187500.00, 187500.00, 187500.00, -187500.02, -187500.02, -187500.02, 0.000, 0.000, 0.000, 22:54:36.678
8, 21198.08, 27313.47, 187500.00, 187500.00, 187500.00, -187500.02, -187500.02, -187500.02, 0.126, 1.004, -0.116, 22:54:36.678
9, 21745.30, 27467.70, 187500.00, 187500.00, 187500.00, -187500.02, -187500.02, -187500.02, 0.000, 0.000, 0.000, 22:54:36.678
10, 22050.98, 27540.46, 187500.00, 187500.00, 187500.00, -187500.02, -187500.02, -187500.02, 0.000, 0.000, 0.000, 22:54:36.678
11, 21471.55, 27384.87, 187500.00, 187500.00, 187500.00, -187500.02, -187500.02, -187500.02, 0.000, 0.000, 0.000, 22:54:36.678
12, 21138.92, 27294.68, 187500.00, 187500.00, 187500.00, -187500.02, -187500.02, -187500.02, 0.000, 0.000, 0.000, 22:54:36.678
13, 21610.58, 27428.85, 187500.00, 187500.00, 187500.00, -187500.02, -187500.02, -187500.02, 0.000, 0.000, 0.000, 22:54:36.678
14, 22079.07, 27564.62, 187500.00, 187500.00, 187500.00, -187500.02, -187500.02, -187500.02, 0.000, 0.000, 0.000, 22:54:36.678
15, 21602.07, 27422.82, 187500.00, 187500.00, 187500.00, -187500.02, -187500.02, -187500.02, 0.000, 0.000, 0.000, 22:54:36.678
16, 21098.24, 27261.59, 187500.00, 187500.00, 187500.00, -187500.02, -187500.02, -187500.02, 0.000, 0.000, 0.000, 22:54:36.678
17, 21454.30, 27388.24, 187500.00, 187500.00, 187500.00, -187500.02, -187500.02, -187500.02, 0.136, 0.994, -0.116, 22:54:36.679
18, 22047.18, 27618.73, 187500.00, 187500.00, 187500.00, -187500.02, -187500.02, -187500.02, 0.000, 0.000, 0.000, 22:54:36.679
19, 21735.66, 27500.36, 187500.00, 187500.00, 187500.00, -187500.02, -187500.02, -187500.02, 0.000, 0.000, 0.000, 22:54:36.679
20, 21092.47, 27225.25, 187500.00, 187500.00, 187500.00, -187500.02, -187500.02, -187500.02, 0.000, 0.000, 0.000, 22:54:36.679
21, 21345.45, 27325.10, 187500.00, 187500.00, 187500.00, -187500.02, -187500.02, -187500.02, 0.000, 0.000, 0.000, 22:54:36.679
22, 22033.12, 27636.90, 187500.00, 187500.00, 187500.00, -187500.02, -187500.02, -187500.02, 0.000, 0.000, 0.000, 22:54:36.679
23, 21888.06, 27566.03, 187500.00, 187500.00, 187500.00, -187500.02, -187500.02, -187500.02, 0.000, 0.000, 0.000, 22:54:36.679
24, 21117.62, 27187.97, 187500.00, 187500.00, 187500.00, -187500.02, -187500.02, -187500.02, 0.000, 0.000, 0.000, 22:54:36.679
25, 21220.41, 27202.65, 187500.00, 187500.00, 187500.00, -187500.02, -187500.02, -187500.02, 0.000, 0.000, 0.000, 22:54:36.679
26, 21984.86, 27696.58, 187500.00, 187500.00, 187500.00, -187500.02, -187500.02, -187500.02, 0.000, 0.000, 0.000, 22:54:36.679
27, 22051.27, 27790.46, 187500.00, 187500.00, 187500.00, -187500.02, -187500.02, -187500.02, 0.142, 0.990, -0.122, 22:54:36.679
28, 21151.03, 27161.53, 187500.00, 187500.00, 187500.00, -187500.02, -187500.02, -187500.02, 0.000, 0.000, 0.000, 22:54:36.679
29, 21062.85, 27040.98, 187500.00, 187500.00, 187500.00, -187500.02, -187500.02, -187500.02, 0.000, 0.000, 0.000, 22:54:36.679
30, 21887.68, 27675.79, 187500.00, 187500.00, 187500.00, -187500.02, -187500.02, -187500.02, 0.000, 0.000, 0.000, 22:54:36.680
31, 22197.47, 27983.38, 187500.00, 187500.00, 187500.00, -187500.02, -187500.02, -187500.02, 0.000, 0.000, 0.000, 22:54:36.680
32, 21256.82, 27214.39, 187500.00, 187500.00, 187500.00, -187500.02, -187500.02, -187500.02, 0.000, 0.000, 0.000, 22:54:36.680
33, 20940.30, 26879.56, 187500.00, 187500.00, 187500.00, -187500.02, -187500.02, -187500.02, 0.000, 0.000, 0.000, 22:54:36.680
34, 21753.03, 27536.66, 187500.00, 187500.00, 187500.00, -187500.02, -187500.02, -187500.02, 0.000, 0.000, 0.000, 22:54:36.680
35, 22321.03, 28062.26, 187500.00, 187500.00, 187500.00, -187500.02, -187500.02, -187500.02, 0.000, 0.000, 0.000, 22:54:36.680
36, 21471.69, 27330.28, 187500.00, 187500.00, 187500.00, -187500.02, -187500.02, -187500.02, 0.000, 0.000, 0.000, 22:54:36.680
37, 20871.88, 26759.60, 187500.00, 187500.00, 187500.00, -187500.02, -187500.02, -187500.02, 0.152, 0.990, -0.122, 22:54:36.680
38, 21551.69, 27373.71, 187500.00, 187500.00, 187500.00, -187500.02, -187500.02, -187500.02, 0.000, 0.000, 0.000, 22:54:36.680
39, 22344.26, 28146.34, 187500.00, 187500.00, 187500.00, -187500.02, -187500.02, -187500.02, 0.000, 0.000, 0.000, 22:54:36.680
40, 21676.92, 27540.19, 187500.00, 187500.00, 187500.00, -187500.02, -187500.02, -187500.02, 0.000, 0.000, 0.000, 22:54:36.680
41, 20846.04, 26703.92, 187500.00, 187500.00, 187500.00, -187500.02, -187500.02, -187500.02, 0.000, 0.000, 0.000, 22:54:36.680
42, 21358.03, 27198.54, 187500.00, 187500.00, 187500.00, -187500.02, -187500.02, -187500.02, 0.000, 0.000, 0.000, 22:54:36.680
43, 22316.36, 28149.12, 187500.00, 187500.00, 187500.00, -187500.02, -187500.02, -187500.02, 0.000, 0.000, 0.000, 22:54:36.680
44, 21906.97, 27762.07, 187500.00, 187500.00, 187500.00, -187500.02, -187500.02, -187500.02, 0.000, 0.000, 0.000, 22:54:36.681
45, 20903.66, 26735.10, 187500.00, 187500.00, 187500.00, -187500.02, -187500.02, -187500.02, 0.000, 0.000, 0.000, 22:54:36.681
46, 21251.86, 27015.26, 187500.00, 187500.00, 187500.00, -187500.02, -187500.02, -187500.02, 0.000, 0.000, 0.000, 22:54:36.681
47, 22288.00, 28071.29, 187500.00, 187500.00, 187500.00, -187500.02, -187500.02, -187500.02, 0.150, 0.988, -0.122, 22:54:36.681
48, 22133.84, 27971.11, 187500.00, 187500.00, 187500.00, -187500.02, -187500.02, -187500.02, 0.000, 0.000, 0.000, 22:54:36.681
49, 20974.63, 26818.38, 187500.00, 187500.00, 187500.00, -187500.02, -187500.02, -187500.02, 0.000, 0.000, 0.000, 22:54:36.681
50, 21066.50, 26840.80, 187500.00, 187500.00, 187500.00, -187500.02, -187500.02, -187500.02, 0.000, 0.000, 0.000, 22:54:36.681
51, 22132.88, 27925.62, 187500.00, 187500.00, 187500.00, -187500.02, -187500.02, -187500.02, 0.000, 0.000, 0.000, 22:54:36.681
52, 22285.74, 28163.94, 187500.00, 187500.00, 187500.00, -187500.02, -187500.02, -187500.02, 0.000, 0.000, 0.000, 22:54:36.681
53, 21064.22, 26924.26, 187500.00, 187500.00, 187500.00, -187500.02, -187500.02, -187500.02, 0.000, 0.000, 0.000, 22:54:36.681
54, 20911.55, 26677.12, 187500.00, 187500.00, 187500.00, -187500.02, -187500.02, -187500.02, 0.000, 0.000, 0.000, 22:54:36.681
55, 22004.76, 27784.51, 187500.00, 187500.00, 187500.00, -187500.02, -187500.02, -187500.02, 0.000, 0.000, 0.000, 22:54:36.681
56, 22481.36, 28330.01, 187500.00, 187500.00, 187500.00, -187500.02, -187500.02, -187500.02, 0.000, 0.000, 0.000, 22:54:36.681
57, 21280.51, 27145.72, 187500.00, 187500.00, 187500.00, -187500.02, -187500.02, -187500.02, 0.146, 0.986, -0.130, 22:54:36.681
58, 20789.31, 26572.92, 187500.00, 187500.00, 187500.00, -187500.02, -187500.02, -187500.02, 0.000, 0.000, 0.000, 22:54:36.682
59, 21788.50, 27554.45, 187500.00, 187500.00, 187500.00, -187500.02, -187500.02, -187500.02, 0.000, 0.000, 0.000, 22:54:36.682
60, 22569.45, 28390.87, 187500.00, 187500.00, 187500.00, -187500.02, -187500.02, -187500.02, 0.000, 0.000, 0.000, 22:54:36.682
61, 21507.32, 27373.67, 187500.00, 187500.00, 187500.00, -187500.02, -187500.02, -187500.02, 0.000, 0.000, 0.000, 22:54:36.682
62, 20698.41, 26521.33, 187500.00, 187500.00, 187500.00, -187500.02, -187500.02, -187500.02, 0.000, 0.000, 0.000, 22:54:36.682
63, 21560.25, 27342.29, 187500.00, 187500.00, 187500.00, -187500.02, -187500.02, -187500.02, 0.000, 0.000, 0.000, 22:54:36.682
64, 22581.30, 28388.59, 187500.00, 187500.00, 187500.00, -187500.02, -187500.02, -187500.02, 0.000, 0.000, 0.000, 22:54:36.682
65, 21758.30, 27630.44, 187500.00, 187500.00, 187500.00, -187500.02, -187500.02, -187500.02, 0.000, 0.000, 0.000, 22:54:36.682
66, 20669.51, 26529.87, 187500.00, 187500.00, 187500.00, -187500.02, -187500.02, -187500.02, 0.000, 0.000, 0.000, 22:54:36.683
67, 21307.43, 27115.21, 187500.00, 187500.00, 187500.00, -187500.02, -187500.02, -187500.02, 0.152, 0.988, -0.130, 22:54:36.683
68, 22498.10, 28305.67, 187500.00, 187500.00, 187500.00, -187500.02, -187500.02, -187500.02, 0.000, 0.000, 0.000, 22:54:36.683
69, 22014.41, 27865.79, 187500.00, 187500.00, 187500.00, -187500.02, -187500.02, -187500.02, 0.000, 0.000, 0.000, 22:54:36.683
70, 20729.83, 26564.00, 187500.00, 187500.00, 187500.00, -187500.02, -187500.02, -187500.02, 0.000, 0.000, 0.000, 22:54:36.683
71, 21120.21, 26899.12, 187500.00, 187500.00, 187500.00, -187500.02, -187500.02, -187500.02, 0.000, 0.000, 0.000, 22:54:36.683
72, 22408.96, 28191.43, 187500.00, 187500.00, 187500.00, -187500.02, -187500.02, -187500.02, 0.000, 0.000, 0.000, 22:54:36.683
73, 22269.47, 28112.95, 187500.00, 187500.00, 187500.00, -187500.02, -187500.02, -187500.02, 0.000, 0.000, 0.000, 22:54:36.683
74, 20842.53, 26706.85, 187500.00, 187500.00, 187500.00, -187500.02, -187500.02, -187500.02, 0.000, 0.000, 0.000, 22:54:36.683
75, 20924.54, 26709.69, 187500.00, 187500.00, 187500.00, -187500.02, -187500.02, -187500.02, 0.000, 0.000, 0.000, 22:54:36.683
76, 22197.16, 27990.75, 187500.00, 187500.00, 187500.00, -187500.02, -187500.02, -187500.02, 0.156, 0.996, -0.130, 22:54:36.683
77, 22435.25, 28327.95, 187500.00, 187500.00, 187500.00, -187500.02, -187500.02, -187500.02, 0.000, 0.000, 0.000, 22:54:36.683
78, 21023.49, 26893.01, 187500.00, 187500.00, 187500.00, -187500.02, -187500.02, -187500.02, 0.000, 0.000, 0.000, 22:54:36.684
79, 20758.76, 26550.32, 187500.00, 187500.00, 187500.00, -187500.02, -187500.02, -187500.02, 0.000, 0.000, 0.000, 22:54:36.684
80, 21986.09, 27785.21, 187500.00, 187500.00, 187500.00, -187500.02, -187500.02, -187500.02, 0.000, 0.000, 0.000, 22:54:36.684
81, 22630.07, 28497.94, 187500.00, 187500.00, 187500.00, -187500.02, -187500.02, -187500.02, 0.000, 0.000, 0.000, 22:54:36.684
82, 21292.32, 27155.09, 187500.00, 187500.00, 187500.00, -187500.02, -187500.02, -187500.02, 0.000, 0.000, 0.000, 22:54:36.684
83, 20644.99, 26416.03, 187500.00, 187500.00, 187500.00, -187500.02, -187500.02, -187500.02, 0.000, 0.000, 0.000, 22:54:36.684
84, 21723.06, 27524.50, 187500.00, 187500.00, 187500.00, -187500.02, -187500.02, -187500.02, 0.000, 0.000, 0.000, 22:54:36.684
85, 22659.37, 28571.18, 187500.00, 187500.00, 187500.00, -187500.02, -187500.02, -187500.02, 0.000, 0.000, 0.000, 22:54:36.684
86, 21548.73, 27405.05, 187500.00, 187500.00, 187500.00, -187500.02, -187500.02, -187500.02, 0.152, 1.004, -0.128, 22:54:36.684
87, 20602.14, 26309.61, 187500.00, 187500.00, 187500.00, -187500.02, -187500.02, -187500.02, 0.000, 0.000, 0.000, 22:54:36.685
88, 21481.84, 27240.47, 187500.00, 187500.00, 187500.00, -187500.02, -187500.02, -187500.02, 0.000, 0.000, 0.000, 22:54:36.685
89, 22621.66, 28593.20, 187500.00, 187500.00, 187500.00, -187500.02, -187500.02, -187500.02, 0.000, 0.000, 0.000, 22:54:36.685
90, 21819.39, 27757.83, 187500.00, 187500.00, 187500.00, -187500.02, -187500.02, -187500.02, 0.000, 0.000, 0.000, 22:54:36.685
91, 20623.87, 26277.31, 187500.00, 187500.00, 187500.00, -187500.02, -187500.02, -187500.02, 0.000, 0.000, 0.000, 22:54:36.685
92, 21279.60, 26928.96, 187500.00, 187500.00, 187500.00, -187500.02, -187500.02, -187500.02, 0.000, 0.000, 0.000, 22:54:36.685
93, 22539.19, 28502.07, 187500.00, 187500.00, 187500.00, -187500.02, -187500.02, -187500.02, 0.000, 0.000, 0.000, 22:54:36.686
94, 22078.02, 28066.06, 187500.00, 187500.00, 187500.00, -187500.02, -187500.02, -187500.02, 0.000, 0.000, 0.000, 22:54:36.686
95, 20683.30, 26285.11, 187500.00, 187500.00, 187500.00, -187500.02, -187500.02, -187500.02, 0.000, 0.000, 0.000, 22:54:36.686
96, 21020.05, 26586.01, 187500.00, 187500.00, 187500.00, -187500.02, -187500.02, -187500.02, 0.142, 0.998, -0.130, 22:54:36.686
97, 22332.14, 28306.61, 187500.00, 187500.00, 187500.00, -187500.02, -187500.02, -187500.02, 0.000, 0.000, 0.000, 22:54:36.686
98, 22294.37, 28374.58, 187500.00, 187500.00, 187500.00, -187500.02, -187500.02, -187500.02, 0.000, 0.000, 0.000, 22:54:36.686
99, 20867.99, 26461.13, 187500.00, 187500.00, 187500.00, -187500.02, -187500.02, -187500.02, 0.000, 0.000, 0.000, 22:54:36.686
100, 20862.45, 26332.77, 187500.00, 187500.00, 187500.00, -187500.02, -187500.02, -187500.02, 0.000, 0.000, 0.000, 22:54:36.686
101, 22113.50, 28096.10, 187500.00, 187500.00, 187500.00, -187500.02, -187500.02, -187500.02, 0.000, 0.000, 0.000, 22:54:36.687
102, 22432.97, 28712.36, 187500.00, 187500.00, 187500.00, -187500.02, -187500.02, -187500.02, 0.000, 0.000, 0.000, 22:54:36.687
103, 21103.31, 26771.42, 187500.00, 187500.00, 187500.00, -187500.02, -187500.02, -187500.02, 0.000, 0.000, 0.000, 22:54:36.687
104, 20776.35, 26157.55, 187500.00, 187500.00, 187500.00, -187500.02, -187500.02, -187500.02, 0.000, 0.000, 0.000, 22:54:36.687
105, 21875.83, 27840.01, 187500.00, 187500.00, 187500.00, -187500.02, -187500.02, -187500.02, 0.000, 0.000, 0.000, 22:54:36.687
106, 22485.99, 29001.25, 187500.00, 187500.00, 187500.00, -187500.02, -187500.02, -187500.02, 0.148, 0.986, -0.112, 22:54:36.687
107, 21318.47, 27259.18, 187500.00, 187500.00, 187500.00, -187500.02, -187500.02, -187500.02, 0.000, 0.000, 0.000, 22:54:36.687
108, 20707.50, 26196.87, 187500.00, 187500.00, 187500.00, -187500.02, -187500.02, -187500.02, 0.000, 0.000, 0.000, 22:54:36.687
109, 21641.43, 27798.17, 187500.00, 187500.00, 187500.00, -187500.02, -187500.02, -187500.02, 0.000, 0.000, 0.000, 22:54:36.687
110, 22486.93, 29438.52, 187500.00, 187500.00, 187500.00, -187500.02, -187500.02, -187500.02, 0.000, 0.000, 0.000, 22:54:36.687
111, 21569.97, 28127.35, 187500.00, 187500.00, 187500.00, -187500.02, -187500.02, -187500.02, 0.000, 0.000, 0.000, 22:54:36.688
112, 20703.86, 26573.52, 187500.00, 187500.00, 187500.00, -187500.02, -187500.02, -187500.02, 0.000, 0.000, 0.000, 22:54:36.688
113, 21432.62, 27736.08, 187500.00, 187500.00, 187500.00, -187500.02, -187500.02, -187500.02, 0.000, 0.000, 0.000, 22:54:36.688
114, 22507.45, 29626.59, 187500.00, 187500.00, 187500.00, -187500.02, -187500.02, -187500.02, 0.000, 0.000, 0.000, 22:54:36.688
115, 22074.78, 28926.26, 187500.00, 187500.00, 187500.00, -187500.02, -187500.02, -187500.02, 0.000, 0.000, 0.000, 22:54:36.688
116, 21203.94, 27364.32, 187500.00, 187500.00, 187500.00, -187500.02, -187500.02, -187500.02, 0.176, 0.986, -0.108, 22:54:36.688
117, 21913.92, 28285.28, 187500.00, 187500.00, 187500.00, -187500.02, -187500.02, -187500.02, 0.000, 0.000, 0.000, 22:54:36.688
118, 23337.10, 30164.68, 187500.00, 187500.00, 187500.00, -187500.02, -187500.02, -187500.02, 0.000, 0.000, 0.000, 22:54:36.688
119, 23441.86, 29785.29, 187500.00, 187500.00, 187500.00, -187500.02, -187500.02, -187500.02, 0.000, 0.000, 0.000, 22:54:36.688
120, 22486.44, 27823.41, 187500.00, 187500.00, 187500.00, -187500.02, -187500.02, -187500.02, 0.000, 0.000, 0.000, 22:54:36.688
121, 22794.33, 27863.10, 187500.00, 187500.00, 187500.00, -187500.02, -187500.02, -187500.02, 0.000, 0.000, 0.000, 22:54:37.159
122, 23848.69, 29464.09, 187500.00, 187500.00, 187500.00, -187500.02, -187500.02, -187500.02, 0.000, 0.000, 0.000, 22:54:37.159
123, 23786.88, 29523.05, 187500.00, 187500.00, 187500.00, -187500.02, -187500.02, -187500.02, 0.000, 0.000, 0.000, 22:54:37.159
124, 22463.03, 27405.27, 187500.00, 187500.00, 187500.00, -187500.02, -187500.02, -187500.02, 0.000, 0.000, 0.000, 22:54:37.159
125, 22507.60, 27036.09, 187500.00, 187500.00, 187500.00, -187500.02, -187500.02, -187500.02, 0.000, 0.000, 0.000, 22:54:37.159
126, 23727.47, 28763.30, 187500.00, 187500.00, 187500.00, -187500.02, -187500.02, -187500.02, 0.210, 1.004, -0.096, 22:54:37.160
127, 24027.86, 29463.55, 187500.00, 187500.00, 187500.00, -187500.02, -187500.02, -187500.02, 0.000, 0.000, 0.000, 22:54:37.160
128, 22623.43, 27483.39, 187500.00, 187500.00, 187500.00, -187500.02, -187500.02, -187500.02, 0.000, 0.000, 0.000, 22:54:37.160
129, 22195.42, 26684.99, 187500.00, 187500.00, 187500.00, -187500.02, -187500.02, -187500.02, 0.000, 0.000, 0.000, 22:54:37.160
130, 23232.16, 28202.38, 187500.00, 187500.00, 187500.00, -187500.02, -187500.02, -187500.02, 0.000, 0.000, 0.000, 22:54:37.161
131, 23830.00, 29249.47, 187500.00, 187500.00, 187500.00, -187500.02, -187500.02, -187500.02, 0.000, 0.000, 0.000, 22:54:37.161
132, 22674.37, 27522.04, 187500.00, 187500.00, 187500.00, -187500.02, -187500.02, -187500.02, 0.000, 0.000, 0.000, 22:54:37.161
133, 21879.18, 26255.90, 187500.00, 187500.00, 187500.00, -187500.02, -187500.02, -187500.02, 0.000, 0.000, 0.000, 22:54:37.161
134, 22657.40, 27451.32, 187500.00, 187500.00, 187500.00, -187500.02, -187500.02, -187500.02, 0.000, 0.000, 0.000, 22:54:37.161
135, 23472.62, 28825.46, 187500.00, 187500.00, 187500.00, -187500.02, -187500.02, -187500.02, 0.000, 0.000, 0.000, 22:54:37.161
136, 22583.26, 27606.59, 187500.00, 187500.00, 187500.00, -187500.02, -187500.02, -187500.02, 0.188, 1.038, -0.110, 22:54:37.162
137, 21523.70, 26113.63, 187500.00, 187500.00, 187500.00, -187500.02, -187500.02, -187500.02, 0.000, 0.000, 0.000, 22:54:37.162
138, 22029.83, 27076.77, 187500.00, 187500.00, 187500.00, -187500.02, -187500.02, -187500.02, 0.000, 0.000, 0.000, 22:54:37.162
139, 22928.80, 28713.90, 187500.00, 187500.00, 187500.00, -187500.02, -187500.02, -187500.02, 0.000, 0.000, 0.000, 22:54:37.162
140, 22307.24, 27966.86, 187500.00, 187500.00, 187500.00, -187500.02, -187500.02, -187500.02, 0.000, 0.000, 0.000, 22:54:37.162
141, 21180.49, 26201.65, 187500.00, 187500.00, 187500.00, -187500.02, -187500.02, -187500.02, 0.000, 0.000, 0.000, 22:54:37.162
142, 21628.31, 26732.30, 187500.00, 187500.00, 187500.00, -187500.02, -187500.02, -187500.02, 0.000, 0.000, 0.000, 22:54:37.163
143, 22828.93, 28456.92, 187500.00, 187500.00, 187500.00, -187500.02, -187500.02, -187500.02, 0.000, 0.000, 0.000, 22:54:37.163
144, 22887.87, 28253.25, 187500.00, 187500.00, 187500.00, -187500.02, -187500.02, -187500.02, 0.000, 0.000, 0.000, 22:54:37.163
145, 21934.55, 26348.86, 187500.00, 187500.00, 187500.00, -187500.02, -187500.02, -187500.02, 0.194, 1.018, -0.120, 22:54:37.163
146, 21950.04, 26456.35, 187500.00, 187500.00, 187500.00, -187500.02, -187500.02, -187500.02, 0.000, 0.000, 0.000, 22:54:37.163
147, 22734.54, 28188.66, 187500.00, 187500.00, 187500.00, -187500.02, -187500.02, -187500.02, 0.000, 0.000, 0.000, 22:54:37.163
148, 22628.08, 28491.97, 187500.00, 187500.00, 187500.00, -187500.02, -187500.02, -187500.02, 0.000, 0.000, 0.000, 22:54:37.164
149, 21307.76, 26678.82, 187500.00, 187500.00, 187500.00, -187500.02, -187500.02, -187500.02, 0.000, 0.000, 0.000, 22:54:37.164
150, 21149.04, 26408.92, 187500.00, 187500.00, 187500.00, -187500.02, -187500.02, -187500.02, 0.000, 0.000, 0.000, 22:54:37.164
151, 22126.62, 28001.06, 187500.00, 187500.00, 187500.00, -187500.02, -187500.02, -187500.02, 0.000, 0.000, 0.000, 22:54:37.164
152, 22433.78, 28741.86, 187500.00, 187500.00, 187500.00, -187500.02, -187500.02, -187500.02, 0.000, 0.000, 0.000, 22:54:37.164
153, 21234.98, 27065.26, 187500.00, 187500.00, 187500.00, -187500.02, -187500.02, -187500.02, 0.000, 0.000, 0.000, 22:54:37.164
154, 20842.55, 26342.74, 187500.00, 187500.00, 187500.00, -187500.02, -187500.02, -187500.02, 0.000, 0.000, 0.000, 22:54:37.165
155, 21758.60, 27719.27, 187500.00, 187500.00, 187500.00, -187500.02, -187500.02, -187500.02, 0.142, 0.992, -0.182, 22:54:37.165
156, 22351.14, 28802.66, 187500.00, 187500.00, 187500.00, -187500.02, -187500.02, -187500.02, 0.000, 0.000, 0.000, 22:54:37.165
157, 21395.76, 27378.05, 187500.00, 187500.00, 187500.00, -187500.02, -187500.02, -187500.02, 0.000, 0.000, 0.000, 22:54:37.165
158, 20778.05, 26275.46, 187500.00, 187500.00, 187500.00, -187500.02, -187500.02, -187500.02, 0.000, 0.000, 0.000, 22:54:37.165
159, 21531.72, 27379.95, 187500.00, 187500.00, 187500.00, -187500.02, -187500.02, -187500.02, 0.000, 0.000, 0.000, 22:54:37.165
160, 22345.84, 28719.78, 187500.00, 187500.00, 187500.00, -187500.02, -187500.02, -187500.02, 0.000, 0.000, 0.000, 22:54:37.165
161, 21607.70, 27661.15, 187500.00, 187500.00, 187500.00, -187500.02, -187500.02, -187500.02, 0.000, 0.000, 0.000, 22:54:37.166
162, 20753.28, 26216.38, 187500.00, 187500.00, 187500.00, -187500.02, -187500.02, -187500.02, 0.000, 0.000, 0.000, 22:54:37.166
163, 21324.93, 26949.16, 187500.00, 187500.00, 187500.00, -187500.02, -187500.02, -187500.02, 0.000, 0.000, 0.000, 22:54:37.166
164, 22263.37, 28424.13, 187500.00, 187500.00, 187500.00, -187500.02, -187500.02, -187500.02, 0.000, 0.000, 0.000, 22:54:37.166
165, 21821.76, 27826.89, 187500.00, 187500.00, 187500.00, -187500.02, -187500.02, -187500.02, 0.156, 1.022, -0.082, 22:54:37.166
166, 20832.52, 26244.26, 187500.00, 187500.00, 187500.00, -187500.02, -187500.02, -187500.02, 0.000, 0.000, 0.000, 22:54:37.167
167, 21177.96, 26700.05, 187500.00, 187500.00, 187500.00, -187500.02, -187500.02, -187500.02, 0.000, 0.000, 0.000, 22:54:37.167
168, 22150.53, 28209.76, 187500.00, 187500.00, 187500.00, -187500.02, -187500.02, -187500.02, 0.000, 0.000, 0.000, 22:54:37.167
169, 21999.48, 28063.60, 187500.00, 187500.00, 187500.00, -187500.02, -187500.02, -187500.02, 0.000, 0.000, 0.000, 22:54:37.167
170, 20909.90, 26383.30, 187500.00, 187500.00, 187500.00, -187500.02, -187500.02, -187500.02, 0.000, 0.000, 0.000, 22:54:37.168
171, 21015.42, 26413.35, 187500.00, 187500.00, 187500.00, -187500.02, -187500.02, -187500.02, 0.000, 0.000, 0.000, 22:54:37.168
172, 22021.45, 27877.45, 187500.00, 187500.00, 187500.00, -187500.02, -187500.02, -187500.02, 0.000, 0.000, 0.000, 22:54:37.168
173, 22169.87, 28218.47, 187500.00, 187500.00, 187500.00, -187500.02, -187500.02, -187500.02, 0.000, 0.000, 0.000, 22:54:37.168
174, 21057.00, 26659.24, 187500.00, 187500.00, 187500.00, -187500.02, -187500.02, -187500.02, 0.000, 0.000, 0.000, 22:54:37.168
175, 20908.69, 26358.56, 187500.00, 187500.00, 187500.00, -187500.02, -187500.02, -187500.02, 0.188, 0.968, -0.100, 22:54:37.169
176, 21893.29, 27741.73, 187500.00, 187500.00, 187500.00, -187500.02, -187500.02, -187500.02, 0.000, 0.000, 0.000, 22:54:37.169
177, 22339.00, 28435.62, 187500.00, 187500.00, 187500.00, -187500.02, -187500.02, -187500.02, 0.000, 0.000, 0.000, 22:54:37.169
178, 21274.26, 26997.24, 187500.00, 187500.00, 187500.00, -187500.02, -187500.02, -187500.02, 0.000, 0.000, 0.000, 22:54:37.169
179, 20851.96, 26352.55, 187500.00, 187500.00, 187500.00, -187500.02, -187500.02, -187500.02, 0.000, 0.000, 0.000, 22:54:37.169
180, 21758.44, 27515.24, 187500.00, 187500.00, 187500.00, -187500.02, -187500.02, -187500.02, 0.000, 0.000, 0.000, 22:54:37.170
181, 22447.61, 28478.92, 187500.00, 187500.00, 187500.00, -187500.02, -187500.02, -187500.02, 0.000, 0.000, 0.000, 22:54:37.170
182, 21520.84, 27328.11, 187500.00, 187500.00, 187500.00, -187500.02, -187500.02, -187500.02, 0.000, 0.000, 0.000, 22:54:37.170
183, 20840.30, 26411.02, 187500.00, 187500.00, 187500.00, -187500.02, -187500.02, -187500.02, 0.000, 0.000, 0.000, 22:54:37.170
184, 21616.06, 27317.25, 187500.00, 187500.00, 187500.00, -187500.02, -187500.02, -187500.02, 0.000, 0.000, 0.000, 22:54:37.170
185, 22530.63, 28379.29, 187500.00, 187500.00, 187500.00, -187500.02, -187500.02, -187500.02, 0.168, 0.982, -0.164, 22:54:37.170
186, 21817.34, 27543.88, 187500.00, 187500.00, 187500.00, -187500.02, -187500.02, -187500.02, 0.000, 0.000, 0.000, 22:54:37.171
187, 20883.35, 26425.95, 187500.00, 187500.00, 187500.00, -187500.02, -187500.02, -187500.02, 0.000, 0.000, 0.000, 22:54:37.171
188, 21472.74, 27015.52, 187500.00, 187500.00, 187500.00, -187500.02, -187500.02, -187500.02, 0.000, 0.000, 0.000, 22:54:37.171
189, 22524.77, 28121.24, 187500.00, 187500.00, 187500.00, -187500.02, -187500.02, -187500.02, 0.000, 0.000, 0.000, 22:54:37.171
190, 22066.09, 27659.32, 187500.00, 187500.00, 187500.00, -187500.02, -187500.02, -187500.02, 0.000, 0.000, 0.000, 22:54:37.171
191, 20890.63, 26487.53, 187500.00, 187500.00, 187500.00, -187500.02, -187500.02, -187500.02, 0.000, 0.000, 0.000, 22:54:37.172
192, 21257.42, 26830.52, 187500.00, 187500.00, 187500.00, -187500.02, -187500.02, -187500.02, 0.000, 0.000, 0.000, 22:54:37.172
193, 22439.72, 27950.65, 187500.00, 187500.00, 187500.00, -187500.02, -187500.02, -187500.02, 0.000, 0.000, 0.000, 22:54:37.172
194, 22312.90, 27864.55, 187500.00, 187500.00, 187500.00, -187500.02, -187500.02, -187500.02, 0.000, 0.000, 0.000, 22:54:37.172
195, 20937.93, 26721.24, 187500.00, 187500.00, 187500.00, -187500.02, -187500.02, -187500.02, 0.162, 0.994, -0.164, 22:54:37.173
196, 21018.24, 26834.68, 187500.00, 187500.00, 187500.00, -187500.02, -187500.02, -187500.02, 0.000, 0.000, 0.000, 22:54:37.173
197, 22318.66, 27914.02, 187500.00, 187500.00, 187500.00, -187500.02, -187500.02, -187500.02, 0.000, 0.000, 0.000, 22:54:37.173
198, 22570.70, 28108.68, 187500.00, 187500.00, 187500.00, -187500.02, -187500.02, -187500.02, 0.000, 0.000, 0.000, 22:54:37.173
199, 21011.82, 26953.32, 187500.00, 187500.00, 187500.00, -187500.02, -187500.02, -187500.02, 0.000, 0.000, 0.000, 22:54:37.173
200, 20686.79, 26795.43, 187500.00, 187500.00, 187500.00, -187500.02, -187500.02, -187500.02, 0.000, 0.000, 0.000, 22:54:37.173
201, 22046.71, 27801.34, 187500.00, 187500.00, 187500.00, -187500.02, -187500.02, -187500.02, 0.000, 0.000, 0.000, 22:54:37.174
202, 22802.33, 28264.99, 187500.00, 187500.00, 187500.00, -187500.02, -187500.02, -187500.02, 0.000, 0.000, 0.000, 22:54:37.174
203, 21195.26, 27211.97, 187500.00, 187500.00, 187500.00, -187500.02, -187500.02, -187500.02, 0.000, 0.000, 0.000, 22:54:37.174
204, 20411.19, 26787.87, 187500.00, 187500.00, 187500.00, -187500.02, -187500.02, -187500.02, 0.158, 1.000, -0.108, 22:54:37.174
205, 21785.89, 27695.29, 187500.00, 187500.00, 187500.00, -187500.02, -187500.02, -187500.02, 0.000, 0.000, 0.000, 22:54:37.174
206, 23015.68, 28405.56, 187500.00, 187500.00, 187500.00, -187500.02, -187500.02, -187500.02, 0.000, 0.000, 0.000, 22:54:37.174
207, 21520.75, 27470.88, 187500.00, 187500.00, 187500.00, -187500.02, -187500.02, -187500.02, 0.000, 0.000, 0.000, 22:54:37.175
208, 20221.51, 26740.75, 187500.00, 187500.00, 187500.00, -187500.02, -187500.02, -187500.02, 0.000, 0.000, 0.000, 22:54:37.175
209, 21467.15, 27471.25, 187500.00, 187500.00, 187500.00, -187500.02, -187500.02, -187500.02, 0.000, 0.000, 0.000, 22:54:37.175
210, 23136.27, 28409.83, 187500.00, 187500.00, 187500.00, -187500.02, -187500.02, -187500.02, 0.000, 0.000, 0.000, 22:54:37.175
211, 21980.68, 27705.86, 187500.00, 187500.00, 187500.00, -187500.02, -187500.02, -187500.02, 0.000, 0.000, 0.000, 22:54:37.175
212, 20161.03, 26689.86, 187500.00, 187500.00, 187500.00, -187500.02, -187500.02, -187500.02, 0.000, 0.000, 0.000, 22:54:37.175
213, 21095.84, 27233.19, 187500.00, 187500.00, 187500.00, -187500.02, -187500.02, -187500.02, 0.000, 0.000, 0.000, 22:54:37.176
214, 23084.68, 28306.05, 187500.00, 187500.00, 187500.00, -187500.02, -187500.02, -187500.02, 0.152, 0.994, -0.092, 22:54:37.176
215, 22451.46, 27857.31, 187500.00, 187500.00, 187500.00, -187500.02, -187500.02, -187500.02, 0.000, 0.000, 0.000, 22:54:37.176
216, 20254.77, 26618.51, 187500.00, 187500.00, 187500.00, -187500.02, -187500.02, -187500.02, 0.000, 0.000, 0.000, 22:54:37.176
217, 20740.59, 26941.03, 187500.00, 187500.00, 187500.00, -187500.02, -187500.02, -187500.02, 0.000, 0.000, 0.000, 22:54:37.176
218, 22882.80, 28146.12, 187500.00, 187500.00, 187500.00, -187500.02, -187500.02, -187500.02, 0.000, 0.000, 0.000, 22:54:37.176
219, 22891.52, 28068.67, 187500.00, 187500.00, 187500.00, -187500.02, -187500.02, -187500.02, 0.000, 0.000, 0.000, 22:54:37.177
220, 20514.68, 26647.39, 187500.00, 187500.00, 187500.00, -187500.02, -187500.02, -187500.02, 0.000, 0.000, 0.000, 22:54:37.177
221, 20476.75, 26642.56, 187500.00, 187500.00, 187500.00, -187500.02, -187500.02, -187500.02, 0.000, 0.000, 0.000, 22:54:37.177
222, 22634.38, 27895.83, 187500.00, 187500.00, 187500.00, -187500.02, -187500.02, -187500.02, 0.000, 0.000, 0.000, 22:54:37.177
223, 23245.14, 28207.03, 187500.00, 187500.00, 187500.00, -187500.02, -187500.02, -187500.02, 0.000, 0.000, 0.000, 22:54:37.177
224, 20821.86, 26718.40, 187500.00, 187500.00, 187500.00, -187500.02, -187500.02, -187500.02, 0.160, 1.000, -0.112, 22:54:37.177
225, 20204.97, 26421.57, 187500.00, 187500.00, 187500.00, -187500.02, -187500.02, -187500.02, 0.000, 0.000, 0.000, 22:54:37.178
226, 22248.86, 27829.44, 187500.00, 187500.00, 187500.00, -187500.02, -187500.02, -187500.02, 0.000, 0.000, 0.000, 22:54:37.178
227, 23446.35, 28680.42, 187500.00, 187500.00, 187500.00, -187500.02, -187500.02, -187500.02, 0.000, 0.000, 0.000, 22:54:37.178
228, 21226.18, 27285.69, 187500.00, 187500.00, 187500.00, -187500.02, -187500.02, -187500.02, 0.000, 0.000, 0.000, 22:54:37.178
229, 20019.88, 26543.95, 187500.00, 187500.00, 187500.00, -187500.02, -187500.02, -187500.02, 0.000, 0.000, 0.000, 22:54:37.178
230, 21818.63, 27823.25, 187500.00, 187500.00, 187500.00, -187500.02, -187500.02, -187500.02, 0.000, 0.000, 0.000, 22:54:37.178
231, 23517.97, 29045.62, 187500.00, 187500.00, 187500.00, -187500.02, -187500.02, -187500.02, 0.000, 0.000, 0.000, 22:54:37.178
232, 21674.58, 27726.42, 187500.00, 187500.00, 187500.00, -187500.02, -187500.02, -187500.02, 0.000, 0.000, 0.000, 22:54:37.179
233, 19892.29, 26400.18, 187500.00, 187500.00, 187500.00, -187500.02, -187500.02, -187500.02, 0.000, 0.000, 0.000, 22:54:37.179
234, 21353.38, 27476.75, 187500.00, 187500.00, 187500.00, -187500.02, -187500.02, -187500.02, 0.160, 0.996, -0.132, 22:54:37.179
235, 23468.91, 29128.77, 187500.00, 187500.00, 187500.00, -187500.02, -187500.02, -187500.02, 0.000, 0.000, 0.000, 22:54:37.179
236, 22200.04, 28070.50, 187500.00, 187500.00, 187500.00, -187500.02, -187500.02, -187500.02, 0.000, 0.000, 0.000, 22:54:37.179
237, 19903.85, 26068.32, 187500.00, 187500.00, 187500.00, -187500.02, -187500.02, -187500.02, 0.000, 0.000, 0.000, 22:54:37.179
238, 20903.51, 26822.34, 187500.00, 187500.00, 187500.00, -187500.02, -187500.02, -187500.02, 0.000, 0.000, 0.000, 22:54:37.180
239, 23280.26, 28914.06, 187500.00, 187500.00, 187500.00, -187500.02, -187500.02, -187500.02, 0.000, 0.000, 0.000, 22:54:37.180
240, 22699.13, 28382.98, 187500.00, 187500.00, 187500.00, -187500.02, -187500.02, -187500.02, 0.000, 0.000, 0.000, 22:54:37.180
241, 20054.63, 25830.19, 187500.00, 187500.00, 187500.00, -187500.02, -187500.02, -187500.02, 0.000, 0.000, 0.000, 22:54:37.639
242, 20493.08, 26149.75, 187500.00, 187500.00, 187500.00, -187500.02, -187500.02, -187500.02, 0.000, 0.000, 0.000, 22:54:37.639
243, 22999.50, 28647.43, 187500.00, 187500.00, 187500.00, -187500.02, -187500.02, -187500.02, 0.000, 0.000, 0.000, 22:54:37.640
244, 23146.42, 28871.14, 187500.00, 187500.00, 187500.00, -187500.02, -187500.02, -187500.02, 0.152, 1.004, -0.126, 22:54:37.640
245, 20398.94, 25928.18, 187500.00, 187500.00, 187500.00, -187500.02, -187500.02, -187500.02, 0.000, 0.000, 0.000, 22:54:37.640
246, 20252.89, 25612.60, 187500.00, 187500.00, 187500.00, -187500.02, -187500.02, -187500.02, 0.000, 0.000, 0.000, 22:54:37.641
247, 22699.67, 28290.60, 187500.00, 187500.00, 187500.00, -187500.02, -187500.02, -187500.02, 0.000, 0.000, 0.000, 22:54:37.641
248, 23514.68, 29368.16, 187500.00, 187500.00, 187500.00, -187500.02, -187500.02, -187500.02, 0.000, 0.000, 0.000, 22:54:37.641
249, 20798.52, 26301.47, 187500.00, 187500.00, 187500.00, -187500.02, -187500.02, -187500.02, 0.000, 0.000, 0.000, 22:54:37.641
250, 19976.71, 25193.81, 187500.00, 187500.00, 187500.00, -187500.02, -187500.02, -187500.02, 0.000, 0.000, 0.000, 22:54:37.642
251, 22255.79, 27811.34, 187500.00, 187500.00, 187500.00, -187500.02, -187500.02, -187500.02, 0.000, 0.000, 0.000, 22:54:37.642
252, 23756.08, 29729.36, 187500.00, 187500.00, 187500.00, -187500.02, -187500.02, -187500.02, 0.000, 0.000, 0.000, 22:54:37.642
253, 21372.13, 26985.89, 187500.00, 187500.00, 187500.00, -187500.02, -187500.02, -187500.02, 0.000, 0.000, 0.000, 22:54:37.642
254, 19889.45, 25080.31, 187500.00, 187500.00, 187500.00, -187500.02, -187500.02, -187500.02, 0.148, 0.998, -0.114, 22:54:37.642
255, 21790.47, 27337.84, 187500.00, 187500.00, 187500.00, -187500.02, -187500.02, -187500.02, 0.000, 0.000, 0.000, 22:54:37.643
0, 23766.27, 29917.61, 187500.00, 187500.00, 187500.00, -187500.02, -187500.02, -187500.02, 0.000, 0.000, 0.000, 22:54:37.643
1, 21896.57, 27771.84, 187500.00, 187500.00, 187500.00, -187500.02, -187500.02, -187500.02, 0.000, 0.000, 0.000, 22:54:37.644
2, 19818.26, 25083.78, 187500.00, 187500.00, 187500.00, -187500.02, -187500.02, -187500.02, 0.000, 0.000, 0.000, 22:54:37.644
3, 21305.59, 26801.33, 187500.00, 187500.00, 187500.00, -187500.02, -187500.02, -187500.02, 0.000, 0.000, 0.000, 22:54:37.644
4, 23661.96, 29863.43, 187500.00, 187500.00, 187500.00, -187500.02, -187500.02, -187500.02, 0.000, 0.000, 0.000, 22:54:37.644
5, 22442.34, 28503.70, 187500.00, 187500.00, 187500.00, -187500.02, -187500.02, -187500.02, 0.000, 0.000, 0.000, 22:54:37.644
6, 19915.63, 25181.77, 187500.00, 187500.00, 187500.00, -187500.02, -187500.02, -187500.02, 0.000, 0.000, 0.000, 22:54:37.645
7, 20835.22, 26251.74, 187500.00, 187500.00, 187500.00, -187500.02, -187500.02, -187500.02, 0.000, 0.000, 0.000, 22:54:37.645
8, 23361.35, 29606.31, 187500.00, 187500.00, 187500.00, -187500.02, -187500.02, -187500.02, 0.144, 0.994, -0.112, 22:54:37.645
9, 22906.54, 29205.19, 187500.00, 187500.00, 187500.00, -187500.02, -187500.02, -187500.02, 0.000, 0.000, 0.000, 22:54:37.645
10, 20123.48, 25525.27, 187500.00, 187500.00, 187500.00, -187500.02, -187500.02, -187500.02, 0.000, 0.000, 0.000, 22:54:37.645
11, 20471.02, 25824.22, 187500.00, 187500.00, 187500.00, -187500.02, -187500.02, -187500.02, 0.000, 0.000, 0.000, 22:54:37.645
12, 23018.94, 29266.43, 187500.00, 187500.00, 187500.00, -187500.02, -187500.02, -187500.02, 0.000, 0.000, 0.000, 22:54:37.646
13, 23294.45, 29844.92, 187500.00, 187500.00, 187500.00, -187500.02, -187500.02, -187500.02, 0.000, 0.000, 0.000, 22:54:37.646
14, 20431.04, 26010.81, 187500.00, 187500.00, 187500.00, -187500.02, -187500.02, -187500.02, 0.000, 0.000, 0.000, 22:54:37.646
15, 20126.43, 25416.06, 187500.00, 187500.00, 187500.00, -187500.02, -187500.02, -187500.02, 0.000, 0.000, 0.000, 22:54:37.646
16, 22564.31, 28727.40, 187500.00, 187500.00, 187500.00, -187500.02, -187500.02, -187500.02, 0.000, 0.000, 0.000, 22:54:37.646
17, 23561.62, 30275.62, 187500.00, 187500.00, 187500.00, -187500.02, -187500.02, -187500.02, 0.140, 1.006, -0.128, 22:54:37.646
18, 20875.17, 26626.07, 187500.00, 187500.00, 187500.00, -187500.02, -187500.02, -187500.02, 0.000, 0.000, 0.000, 22:54:37.646
19, 19895.44, 25056.71, 187500.00, 187500.00, 187500.00, -187500.02, -187500.02, -187500.02, 0.000, 0.000, 0.000, 22:54:37.646
20, 22093.36, 28014.54, 187500.00, 187500.00, 187500.00, -187500.02, -187500.02, -187500.02, 0.000, 0.000, 0.000, 22:54:37.646
21, 23684.20, 30409.19, 187500.00, 187500.00, 187500.00, -187500.02, -187500.02, -187500.02, 0.000, 0.000, 0.000, 22:54:37.647
22, 21363.24, 27287.88, 187500.00, 187500.00, 187500.00, -187500.02, -187500.02, -187500.02, 0.000, 0.000, 0.000, 22:54:37.647
23, 19756.55, 24814.41, 187500.00, 187500.00, 187500.00, -187500.02, -187500.02, -187500.02, 0.000, 0.000, 0.000, 22:54:37.647
24, 21601.91, 27267.94, 187500.00, 187500.00, 187500.00, -187500.02, -187500.02, -187500.02, 0.000, 0.000, 0.000, 22:54:37.647
25, 23660.06, 30322.96, 187500.00, 187500.00, 187500.00, -187500.02, -187500.02, -187500.02, 0.000, 0.000, 0.000, 22:54:37.647
26, 21925.32, 28028.48, 187500.00, 187500.00, 187500.00, -187500.02, -187500.02, -187500.02, 0.000, 0.000, 0.000, 22:54:37.647
27, 19756.17, 24785.80, 187500.00, 187500.00, 187500.00, -187500.02, -187500.02, -187500.02, 0.140, 1.002, -0.140, 22:54:37.647
28, 21113.26, 26560.11, 187500.00, 187500.00, 187500.00, -187500.02, -187500.02, -187500.02, 0.000, 0.000, 0.000, 22:54:37.647
29, 23477.56, 30038.13, 187500.00, 187500.00, 187500.00, -187500.02, -187500.02, -187500.02, 0.000, 0.000, 0.000, 22:54:37.648
30, 22435.32, 28732.36, 187500.00, 187500.00, 187500.00, -187500.02, -187500.02, -187500.02, 0.000, 0.000, 0.000, 22:54:37.648
31, 19882.03, 24963.90, 187500.00, 187500.00, 187500.00, -187500.02, -187500.02, -187500.02, 0.000, 0.000, 0.000, 22:54:37.648
32, 20699.93, 25930.64, 187500.00, 187500.00, 187500.00, -187500.02, -187500.02, -187500.02, 0.000, 0.000, 0.000, 22:54:37.648
33, 23239.26, 29601.46, 187500.00, 187500.00, 187500.00, -187500.02, -187500.02, -187500.02, 0.000, 0.000, 0.000, 22:54:37.648
34, 22925.98, 29376.47, 187500.00, 187500.00, 187500.00, -187500.02, -187500.02, -187500.02, 0.000, 0.000, 0.000, 22:54:37.648
35, 20108.66, 25329.04, 187500.00, 187500.00, 187500.00, -187500.02, -187500.02, -187500.02, 0.000, 0.000, 0.000, 22:54:37.648
36, 20345.88, 25408.63, 187500.00, 187500.00, 187500.00, -187500.02, -187500.02, -187500.02, 0.000, 0.000, 0.000, 22:54:37.648
37, 22882.24, 29029.15, 187500.00, 187500.00, 187500.00, -187500.02, -187500.02, -187500.02, 0.140, 0.998, -0.144, 22:54:37.649
38, 23313.90, 29878.18, 187500.00, 187500.00, 187500.00, -187500.02, -187500.02, -187500.02, 0.000, 0.000, 0.000, 22:54:37.649
39, 20489.13, 25881.40, 187500.00, 187500.00, 187500.00, -187500.02, -187500.02, -187500.02, 0.000, 0.000, 0.000, 22:54:37.649
40, 20029.38, 25019.78, 187500.00, 187500.00, 187500.00, -187500.02, -187500.02, -187500.02, 0.000, 0.000, 0.000, 22:54:37.649
41, 22407.00, 28402.23, 187500.00, 187500.00, 187500.00, -187500.02, -187500.02, -187500.02, 0.000, 0.000, 0.000, 22:54:37.649
42, 23550.29, 30230.09, 187500.00, 187500.00, 187500.00, -187500.02, -187500.02, -187500.02, 0.000, 0.000, 0.000, 22:54:37.649
43, 20941.46, 26581.19, 187500.00, 187500.00, 187500.00, -187500.02, -187500.02, -187500.02, 0.000, 0.000, 0.000, 22:54:37.649
44, 19828.25, 24781.67, 187500.00, 187500.00, 187500.00, -187500.02, -187500.02, -187500.02, 0.000, 0.000, 0.000, 22:54:37.650
45, 21939.89, 27708.03, 187500.00, 187500.00, 187500.00, -187500.02, -187500.02, -187500.02, 0.000, 0.000, 0.000, 22:54:37.650
46, 23670.92, 30322.64, 187500.00, 187500.00, 187500.00, -187500.02, -187500.02, -187500.02, 0.000, 0.000, 0.000, 22:54:37.650
47, 21493.91, 27355.49, 187500.00, 187500.00, 187500.00, -187500.02, -187500.02, -187500.02, 0.136, 0.994, -0.150, 22:54:37.650
48, 19735.56, 24712.18, 187500.00, 187500.00, 187500.00, -187500.02, -187500.02, -187500.02, 0.000, 0.000, 0.000, 22:54:37.650
49, 21487.09, 27064.63, 187500.00, 187500.00, 187500.00, -187500.02, -187500.02, -187500.02, 0.000, 0.000, 0.000, 22:54:37.650
50, 23660.15, 30270.56, 187500.00, 187500.00, 187500.00, -187500.02, -187500.02, -187500.02, 0.000, 0.000, 0.000, 22:54:37.650
51, 22045.61, 28150.14, 187500.00, 187500.00, 187500.00, -187500.02, -187500.02, -187500.02, 0.000, 0.000, 0.000, 22:54:37.650
52, 19757.33, 24781.33, 187500.00, 187500.00, 187500.00, -187500.02, -187500.02, -187500.02, 0.000, 0.000, 0.000, 22:54:37.650
53, 21043.45, 26437.78, 187500.00, 187500.00, 187500.00, -187500.02, -187500.02, -187500.02, 0.000, 0.000, 0.000, 22:54:37.651
54, 23507.35, 30028.12, 187500.00, 187500.00, 187500.00, -187500.02, -187500.02, -187500.02, 0.000, 0.000, 0.000, 22:54:37.651
55, 22598.02, 28948.95, 187500.00, 187500.00, 187500.00, -187500.02, -187500.02, -187500.02, 0.000, 0.000, 0.000, 22:54:37.651
56, 19930.69, 25056.48, 187500.00, 187500.00, 187500.00, -187500.02, -187500.02, -187500.02, 0.000, 0.000, 0.000, 22:54:37.651
57, 20630.44, 25848.92, 187500.00, 187500.00, 187500.00, -187500.02, -187500.02, -187500.02, 0.126, 1.008, -0.160, 22:54:37.651
58, 23220.53, 29572.56, 187500.00, 187500.00, 187500.00, -187500.02, -187500.02, -187500.02, 0.000, 0.000, 0.000, 22:54:37.651
59, 23084.14, 29604.01, 187500.00, 187500.00, 187500.00, -187500.02, -187500.02, -187500.02, 0.000, 0.000, 0.000, 22:54:37.651
60, 20236.22, 25508.10, 187500.00, 187500.00, 187500.00, -187500.02, -187500.02, -187500.02, 0.000, 0.000, 0.000, 22:54:37.652
61, 20288.74, 25368.63, 187500.00, 187500.00, 187500.00, -187500.02, -187500.02, -187500.02, 0.000, 0.000, 0.000, 22:54:37.652
62, 22810.47, 29001.74, 187500.00, 187500.00, 187500.00, -187500.02, -187500.02, -187500.02, 0.000, 0.000, 0.000, 22:54:37.652
63, 23402.46, 30103.57, 187500.00, 187500.00, 187500.00, -187500.02, -187500.02, -187500.02, 0.000, 0.000, 0.000, 22:54:37.652
64, 20586.36, 26096.94, 187500.00, 187500.00, 187500.00, -187500.02, -187500.02, -187500.02, 0.000, 0.000, 0.000, 22:54:37.653
65, 19999.49, 24993.56, 187500.00, 187500.00, 187500.00, -187500.02, -187500.02, -187500.02, 0.000, 0.000, 0.000, 22:54:37.653
66, 22359.92, 28330.48, 187500.00, 187500.00, 187500.00, -187500.02, -187500.02, -187500.02, 0.000, 0.000, 0.000, 22:54:37.653
67, 23638.96, 30384.04, 187500.00, 187500.00, 187500.00, -187500.02, -187500.02, -187500.02, 0.122, 1.006, -0.158, 22:54:37.653
68, 21074.10, 26795.52, 187500.00, 187500.00, 187500.00, -187500.02, -187500.02, -187500.02, 0.000, 0.000, 0.000, 22:54:37.653
69, 19821.06, 24751.45, 187500.00, 187500.00, 187500.00, -187500.02, -187500.02, -187500.02, 0.000, 0.000, 0.000, 22:54:37.654
70, 21885.71, 27601.47, 187500.00, 187500.00, 187500.00, -187500.02, -187500.02, -187500.02, 0.000, 0.000, 0.000, 22:54:37.654
71, 23714.22, 30386.10, 187500.00, 187500.00, 187500.00, -187500.02, -187500.02, -187500.02, 0.000, 0.000, 0.000, 22:54:37.654
72, 21639.28, 27529.62, 187500.00, 187500.00, 187500.00, -187500.02, -187500.02, -187500.02, 0.000, 0.000, 0.000, 22:54:37.654
73, 19764.33, 24654.38, 187500.00, 187500.00, 187500.00, -187500.02, -187500.02, -187500.02, 0.000, 0.000, 0.000, 22:54:37.654
74, 21392.59, 26881.19, 187500.00, 187500.00, 187500.00, -187500.02, -187500.02, -187500.02, 0.000, 0.000, 0.000, 22:54:37.655
75, 23614.93, 30234.51, 187500.00, 187500.00, 187500.00, -187500.02, -187500.02, -187500.02, 0.000, 0.000, 0.000, 22:54:37.655
76, 22164.32, 28314.72, 187500.00, 187500.00, 187500.00, -187500.02, -187500.02, -187500.02, 0.130, 0.986, -0.146, 22:54:37.655
77, 19798.84, 24765.24, 187500.00, 187500.00, 187500.00, -187500.02, -187500.02, -187500.02, 0.000, 0.000, 0.000, 22:54:37.655
78, 20931.51, 26253.33, 187500.00, 187500.00, 187500.00, -187500.02, -187500.02, -187500.02, 0.000, 0.000, 0.000, 22:54:37.655
79, 23384.30, 29928.61, 187500.00, 187500.00, 187500.00, -187500.02, -187500.02, -187500.02, 0.000, 0.000, 0.000, 22:54:37.655
80, 22656.53, 29072.49, 187500.00, 187500.00, 187500.00, -187500.02, -187500.02, -187500.02, 0.000, 0.000, 0.000, 22:54:37.655
81, 19976.69, 25057.56, 187500.00, 187500.00, 187500.00, -187500.02, -187500.02, -187500.02, 0.000, 0.000, 0.000, 22:54:37.656
82, 20543.13, 25666.78, 187500.00, 187500.00, 187500.00, -187500.02, -187500.02, -187500.02, 0.000, 0.000, 0.000, 22:54:37.656
83, 23095.95, 29441.56, 187500.00, 187500.00, 187500.00, -187500.02, -187500.02, -187500.02, 0.000, 0.000, 0.000, 22:54:37.656
84, 23128.98, 29710.12, 187500.00, 187500.00, 187500.00, -187500.02, -187500.02, -187500.02, 0.000, 0.000, 0.000, 22:54:37.656
85, 20294.13, 25535.10, 187500.00, 187500.00, 187500.00, -187500.02, -187500.02, -187500.02, 0.000, 0.000, 0.000, 22:54:37.656
86, 20199.56, 25176.02, 187500.00, 187500.00, 187500.00, -187500.02, -187500.02, -187500.02, 0.140, 1.000, -0.154, 22:54:37.656
87, 22651.21, 28810.66, 187500.00, 187500.00, 187500.00, -187500.02, -187500.02, -187500.02, 0.000, 0.000, 0.000, 22:54:37.656
88, 23413.03, 30150.60, 187500.00, 187500.00, 187500.00, -187500.02, -187500.02, -187500.02, 0.000, 0.000, 0.000, 22:54:37.656
89, 20699.30, 26145.88, 187500.00, 187500.00, 187500.00, -187500.02, -187500.02, -187500.02, 0.000, 0.000, 0.000, 22:54:37.656
90, 19947.46, 24797.05, 187500.00, 187500.00, 187500.00, -187500.02, -187500.02, -187500.02, 0.000, 0.000, 0.000, 22:54:37.656
91, 22232.14, 28114.27, 187500.00, 187500.00, 187500.00, -187500.02, -187500.02, -187500.02, 0.000, 0.000, 0.000, 22:54:37.657
92, 23637.55, 30398.60, 187500.00, 187500.00, 187500.00, -187500.02, -187500.02, -187500.02, 0.000, 0.000, 0.000, 22:54:37.657
93, 21196.29, 26886.09, 187500.00, 187500.00, 187500.00, -187500.02, -187500.02, -187500.02, 0.000, 0.000, 0.000, 22:54:37.657
94, 19797.36, 24595.21, 187500.00, 187500.00, 187500.00, -187500.02, -187500.02, -187500.02, 0.000, 0.000, 0.000, 22:54:37.657
95, 21758.21, 27392.80, 187500.00, 187500.00, 187500.00, -187500.02, -187500.02, -187500.02, 0.000, 0.000, 0.000, 22:54:37.657
96, 23678.01, 30408.79, 187500.00, 187500.00, 187500.00, -187500.02, -187500.02, -187500.02, 0.144, 1.010, -0.158, 22:54:37.657
97, 21738.41, 27688.92, 187500.00, 187500.00, 187500.00, -187500.02, -187500.02, -187500.02, 0.000, 0.000, 0.000, 22:54:37.657
98, 19762.72, 24571.85, 187500.00, 187500.00, 187500.00, -187500.02, -187500.02, -187500.02, 0.000, 0.000, 0.000, 22:54:37.657
99, 21284.92, 26675.15, 187500.00, 187500.00, 187500.00, -187500.02, -187500.02, -187500.02, 0.000, 0.000, 0.000, 22:54:37.657
100, 23568.97, 30191.91, 187500.00, 187500.00, 187500.00, -187500.02, -187500.02, -187500.02, 0.000, 0.000, 0.000, 22:54:37.657
101, 22272.04, 28463.07, 187500.00, 187500.00, 187500.00, -187500.02, -187500.02, -187500.02, 0.000, 0.000, 0.000, 22:54:37.658
102, 19824.74, 24701.83, 187500.00, 187500.00, 187500.00, -187500.02, -187500.02, -187500.02, 0.000, 0.000, 0.000, 22:54:37.658
103, 20837.30, 26013.32, 187500.00, 187500.00, 187500.00, -187500.02, -187500.02, -187500.02, 0.000, 0.000, 0.000, 22:54:37.658
104, 23337.63, 29803.79, 187500.00, 187500.00, 187500.00, -187500.02, -187500.02, -187500.02, 0.000, 0.000, 0.000, 22:54:37.658
105, 22760.60, 29198.33, 187500.00, 187500.00, 187500.00, -187500.02, -187500.02, -187500.02, 0.000, 0.000, 0.000, 22:54:38.118
106, 19985.48, 25060.71, 187500.00, 187500.00, 187500.00, -187500.02, -187500.02, -187500.02, 0.146, 1.006, -0.146, 22:54:38.119
107, 20412.26, 25455.28, 187500.00, 187500.00, 187500.00, -187500.02, -187500.02, -187500.02, 0.000, 0.000, 0.000, 22:54:38.119
108, 23000.59, 29294.91, 187500.00, 187500.00, 187500.00, -187500.02, -187500.02, -187500.02, 0.000, 0.000, 0.000, 22:54:38.119
109, 23197.18, 29854.31, 187500.00, 187500.00, 187500.00, -187500.02, -187500.02, -187500.02, 0.000, 0.000, 0.000, 22:54:38.120
110, 20334.97, 25655.51, 187500.00, 187500.00, 187500.00, -187500.02, -187500.02, -187500.02, 0.000, 0.000, 0.000, 22:54:38.120
111, 20102.53, 25080.24, 187500.00, 187500.00, 187500.00, -187500.02, -187500.02, -187500.02, 0.000, 0.000, 0.000, 22:54:38.120
112, 22590.53, 28706.81, 187500.00, 187500.00, 187500.00, -187500.02, -187500.02, -187500.02, 0.000, 0.000, 0.000, 22:54:38.121
113, 23552.90, 30272.82, 187500.00, 187500.00, 187500.00, -187500.02, -187500.02, -187500.02, 0.000, 0.000, 0.000, 22:54:38.121
114, 20826.84, 26322.06, 187500.00, 187500.00, 187500.00, -187500.02, -187500.02, -187500.02, 0.000, 0.000, 0.000, 22:54:38.121
115, 19911.56, 24757.86, 187500.00, 187500.00, 187500.00, -187500.02, -187500.02, -187500.02, 0.000, 0.000, 0.000, 22:54:38.122
116, 22178.00, 27961.65, 187500.00, 187500.00, 187500.00, -187500.02, -187500.02, -187500.02, 0.148, 1.000, -0.136, 22:54:38.122
117, 23726.38, 30411.47, 187500.00, 187500.00, 187500.00, -187500.02, -187500.02, -187500.02, 0.000, 0.000, 0.000, 22:54:38.123
118, 21319.41, 27068.81, 187500.00, 187500.00, 187500.00, -187500.02, -187500.02, -187500.02, 0.000, 0.000, 0.000, 22:54:38.123
119, 19769.74, 24602.77, 187500.00, 187500.00, 187500.00, -187500.02, -187500.02, -187500.02, 0.000, 0.000, 0.000, 22:54:38.123
120, 21693.02, 27264.37, 187500.00, 187500.00, 187500.00, -187500.02, -187500.02, -187500.02, 0.000, 0.000, 0.000, 22:54:38.123
121, 23736.19, 30406.53, 187500.00, 187500.00, 187500.00, -187500.02, -187500.02, -187500.02, 0.000, 0.000, 0.000, 22:54:38.124
122, 21842.17, 27866.41, 187500.00, 187500.00, 187500.00, -187500.02, -187500.02, -187500.02, 0.000, 0.000, 0.000, 22:54:38.124
123, 19682.34, 24583.61, 187500.00, 187500.00, 187500.00, -187500.02, -187500.02, -187500.02, 0.000, 0.000, 0.000, 22:54:38.124
124, 21184.40, 26564.02, 187500.00, 187500.00, 187500.00, -187500.02, -187500.02, -187500.02, 0.000, 0.000, 0.000, 22:54:38.125
125, 23613.81, 30173.60, 187500.00, 187500.00, 187500.00, -187500.02, -187500.02, -187500.02, 0.000, 0.000, 0.000, 22:54:38.125
126, 22431.79, 28721.79, 187500.00, 187500.00, 187500.00, -187500.02, -187500.02, -187500.02, 0.154, 1.006, -0.134, 22:54:38.125
127, 19808.94, 24832.50, 187500.00, 187500.00, 187500.00, -187500.02, -187500.02, -187500.02, 0.000, 0.000, 0.000, 22:54:38.126
128, 20731.82, 25945.81, 187500.00, 187500.00, 187500.00, -187500.02, -187500.02, -187500.02, 0.000, 0.000, 0.000, 22:54:38.126
129, 23333.81, 29783.47, 187500.00, 187500.00, 187500.00, -187500.02, -187500.02, -187500.02, 0.000, 0.000, 0.000, 22:54:38.127
130, 22933.65, 29417.33, 187500.00, 187500.00, 187500.00, -187500.02, -187500.02, -187500.02, 0.000, 0.000, 0.000, 22:54:38.127
131, 20063.15, 25171.57, 187500.00, 187500.00, 187500.00, -187500.02, -187500.02, -187500.02, 0.000, 0.000, 0.000, 22:54:38.127
132, 20361.12, 25387.65, 187500.00, 187500.00, 187500.00, -187500.02, -187500.02, -187500.02, 0.000, 0.000, 0.000, 22:54:38.127
133, 22989.33, 29256.22, 187500.00, 187500.00, 187500.00, -187500.02, -187500.02, -187500.02, 0.000, 0.000, 0.000, 22:54:38.128
134, 23343.80, 30007.57, 187500.00, 187500.00, 187500.00, -187500.02, -187500.02, -187500.02, 0.000, 0.000, 0.000, 22:54:38.128
135, 20416.78, 25717.56, 187500.00, 187500.00, 187500.00, -187500.02, -187500.02, -187500.02, 0.150, 1.006, -0.126, 22:54:38.128
136, 20050.39, 24930.71, 187500.00, 187500.00, 187500.00, -187500.02, -187500.02, -187500.02, 0.000, 0.000, 0.000, 22:54:38.129
137, 22552.82, 28571.47, 187500.00, 187500.00, 187500.00, -187500.02, -187500.02, -187500.02, 0.000, 0.000, 0.000, 22:54:38.129
138, 23625.14, 30394.10, 187500.00, 187500.00, 187500.00, -187500.02, -187500.02, -187500.02, 0.000, 0.000, 0.000, 22:54:38.129
139, 20874.92, 26440.15, 187500.00, 187500.00, 187500.00, -187500.02, -187500.02, -187500.02, 0.000, 0.000, 0.000, 22:54:38.129
140, 19817.53, 24624.49, 187500.00, 187500.00, 187500.00, -187500.02, -187500.02, -187500.02, 0.000, 0.000, 0.000, 22:54:38.130
141, 22059.74, 27834.36, 187500.00, 187500.00, 187500.00, -187500.02, -187500.02, -187500.02, 0.000, 0.000, 0.000, 22:54:38.130
142, 23759.30, 30547.41, 187500.00, 187500.00, 187500.00, -187500.02, -187500.02, -187500.02, 0.000, 0.000, 0.000, 22:54:38.130
143, 21423.54, 27246.78, 187500.00, 187500.00, 187500.00, -187500.02, -187500.02, -187500.02, 0.000, 0.000, 0.000, 22:54:38.131
144, 19725.88, 24504.28, 187500.00, 187500.00, 187500.00, -187500.02, -187500.02, -187500.02, 0.000, 0.000, 0.000, 22:54:38.131
145, 21590.69, 27101.40, 187500.00, 187500.00, 187500.00, -187500.02, -187500.02, -187500.02, 0.156, 1.002, -0.126, 22:54:38.131
146, 23743.92, 30474.79, 187500.00, 187500.00, 187500.00, -187500.02, -187500.02, -187500.02, 0.000, 0.000, 0.000, 22:54:38.131
147, 21987.88, 28090.38, 187500.00, 187500.00, 187500.00, -187500.02, -187500.02, -187500.02, 0.000, 0.000, 0.000, 22:54:38.132
148, 19696.11, 24553.75, 187500.00, 187500.00, 187500.00, -187500.02, -187500.02, -187500.02, 0.000, 0.000, 0.000, 22:54:38.132
149, 21052.35, 26383.02, 187500.00, 187500.00, 187500.00, -187500.02, -187500.02, -187500.02, 0.000, 0.000, 0.000, 22:54:38.132
150, 23543.03, 30150.22, 187500.00, 187500.00, 187500.00, -187500.02, -187500.02, -187500.02, 0.000, 0.000, 0.000, 22:54:38.132
151, 22553.49, 28881.45, 187500.00, 187500.00, 187500.00, -187500.02, -187500.02, -187500.02, 0.000, 0.000, 0.000, 22:54:38.132
152, 19871.59, 24792.69, 187500.00, 187500.00, 187500.00, -187500.02, -187500.02, -187500.02, 0.000, 0.000, 0.000, 22:54:38.133
153, 20664.21, 25781.89, 187500.00, 187500.00, 187500.00, -187500.02, -187500.02, -187500.02, 0.000, 0.000, 0.000, 22:54:38.133
154, 23287.48, 29752.54, 187500.00, 187500.00, 187500.00, -187500.02, -187500.02, -187500.02, 0.000, 0.000, 0.000, 22:54:38.133
155, 23044.04, 29636.00, 187500.00, 187500.00, 187500.00, -187500.02, -187500.02, -187500.02, 0.158, 0.992, -0.128, 22:54:38.133
156, 20120.30, 25277.16, 187500.00, 187500.00, 187500.00, -187500.02, -187500.02, -187500.02, 0.000, 0.000, 0.000, 22:54:38.133
157, 20266.68, 25247.50, 187500.00, 187500.00, 187500.00, -187500.02, -187500.02, -187500.02, 0.000, 0.000, 0.000, 22:54:38.134
158, 22893.95, 29109.90, 187500.00, 187500.00, 187500.00, -187500.02, -187500.02, -187500.02, 0.000, 0.000, 0.000, 22:54:38.134
159, 23431.29, 30124.50, 187500.00, 187500.00, 187500.00, -187500.02, -187500.02, -187500.02, 0.000, 0.000, 0.000, 22:54:38.134
160, 20513.04, 25866.22, 187500.00, 187500.00, 187500.00, -187500.02, -187500.02, -187500.02, 0.000, 0.000, 0.000, 22:54:38.134
161, 19968.76, 24848.59, 187500.00, 187500.00, 187500.00, -187500.02, -187500.02, -187500.02, 0.000, 0.000, 0.000, 22:54:38.134
162, 22432.97, 28420.20, 187500.00, 187500.00, 187500.00, -187500.02, -187500.02, -187500.02, 0.000, 0.000, 0.000, 22:54:38.134
163, 23670.47, 30455.01, 187500.00, 187500.00, 187500.00, -187500.02, -187500.02, -187500.02, 0.000, 0.000, 0.000, 22:54:38.135
164, 20972.28, 26615.36, 187500.00, 187500.00, 187500.00, -187500.02, -187500.02, -187500.02, 0.000, 0.000, 0.000, 22:54:38.135
165, 19755.66, 24607.28, 187500.00, 187500.00, 187500.00, -187500.02, -187500.02, -187500.02, 0.162, 0.996, -0.138, 22:54:38.135
166, 21944.56, 27697.03, 187500.00, 187500.00, 187500.00, -187500.02, -187500.02, -187500.02, 0.000, 0.000, 0.000, 22:54:38.135
167, 23763.08, 30541.56, 187500.00, 187500.00, 187500.00, -187500.02, -187500.02, -187500.02, 0.000, 0.000, 0.000, 22:54:38.135
168, 21532.35, 27415.04, 187500.00, 187500.00, 187500.00, -187500.02, -187500.02, -187500.02, 0.000, 0.000, 0.000, 22:54:38.136
169, 19688.36, 24513.72, 187500.00, 187500.00, 187500.00, -187500.02, -187500.02, -187500.02, 0.000, 0.000, 0.000, 22:54:38.136
170, 21463.62, 26959.87, 187500.00, 187500.00, 187500.00, -187500.02, -187500.02, -187500.02, 0.000, 0.000, 0.000, 22:54:38.136
171, 23732.59, 30417.35, 187500.00, 187500.00, 187500.00, -187500.02, -187500.02, -187500.02, 0.000, 0.000, 0.000, 22:54:38.136
172, 22120.83, 28261.84, 187500.00, 187500.00, 187500.00, -187500.02, -187500.02, -187500.02, 0.000, 0.000, 0.000, 22:54:38.136
173, 19705.95, 24625.16, 187500.00, 187500.00, 187500.00, -187500.02, -187500.02, -187500.02, 0.000, 0.000, 0.000, 22:54:38.137
174, 20964.33, 26282.50, 187500.00, 187500.00, 187500.00, -187500.02, -187500.02, -187500.02, 0.000, 0.000, 0.000, 22:54:38.137
175, 23528.65, 30084.80, 187500.00, 187500.00, 187500.00, -187500.02, -187500.02, -187500.02, 0.166, 0.994, -0.150, 22:54:38.137
176, 22654.90, 29025.59, 187500.00, 187500.00, 187500.00, -187500.02, -187500.02, -187500.02, 0.000, 0.000, 0.000, 22:54:38.137
177, 19864.40, 24902.30, 187500.00, 187500.00, 187500.00, -187500.02, -187500.02, -187500.02, 0.000, 0.000, 0.000, 22:54:38.137
178, 20525.03, 25662.01, 187500.00, 187500.00, 187500.00, -187500.02, -187500.02, -187500.02, 0.000, 0.000, 0.000, 22:54:38.138
179, 23190.04, 29585.30, 187500.00, 187500.00, 187500.00, -187500.02, -187500.02, -187500.02, 0.000, 0.000, 0.000, 22:54:38.138
180, 23117.94, 29708.22, 187500.00, 187500.00, 187500.00, -187500.02, -187500.02, -187500.02, 0.000, 0.000, 0.000, 22:54:38.138
181, 20155.46, 25392.34, 187500.00, 187500.00, 187500.00, -187500.02, -187500.02, -187500.02, 0.000, 0.000, 0.000, 22:54:38.138
182, 20182.37, 25167.08, 187500.00, 187500.00, 187500.00, -187500.02, -187500.02, -187500.02, 0.000, 0.000, 0.000, 22:54:38.138
183, 22799.92, 28940.08, 187500.00, 187500.00, 187500.00, -187500.02, -187500.02, -187500.02, 0.000, 0.000, 0.000, 22:54:38.139
184, 23477.76, 30158.56, 187500.00, 187500.00, 187500.00, -187500.02, -187500.02, -187500.02, 0.000, 0.000, 0.000, 22:54:38.139
185, 20583.03, 26013.05, 187500.00, 187500.00, 187500.00, -187500.02, -187500.02, -187500.02, 0.156, 1.002, -0.148, 22:54:38.139
186, 19888.71, 24787.84, 187500.00, 187500.00, 187500.00, -187500.02, -187500.02, -187500.02, 0.000, 0.000, 0.000, 22:54:38.139
187, 22307.08, 28222.61, 187500.00, 187500.00, 187500.00, -187500.02, -187500.02, -187500.02, 0.000, 0.000, 0.000, 22:54:38.139
188, 23711.69, 30419.96, 187500.00, 187500.00, 187500.00, -187500.02, -187500.02, -187500.02, 0.000, 0.000, 0.000, 22:54:38.140
189, 21107.51, 26762.93, 187500.00, 187500.00, 187500.00, -187500.02, -187500.02, -187500.02, 0.000, 0.000, 0.000, 22:54:38.140
190, 19735.34, 24594.63, 187500.00, 187500.00, 187500.00, -187500.02, -187500.02, -187500.02, 0.000, 0.000, 0.000, 22:54:38.140
191, 21834.44, 27521.23, 187500.00, 187500.00, 187500.00, -187500.02, -187500.02, -187500.02, 0.000, 0.000, 0.000, 22:54:38.140
192, 23778.72, 30480.40, 187500.00, 187500.00, 187500.00, -187500.02, -187500.02, -187500.02, 0.000, 0.000, 0.000, 22:54:38.141
193, 21639.82, 27600.63, 187500.00, 187500.00, 187500.00, -187500.02, -187500.02, -187500.02, 0.000, 0.000, 0.000, 22:54:38.141
194, 19618.66, 24549.21, 187500.00, 187500.00, 187500.00, -187500.02, -187500.02, -187500.02, 0.000, 0.000, 0.000, 22:54:38.141
195, 21317.46, 26784.59, 187500.00, 187500.00, 187500.00, -187500.02, -187500.02, -187500.02, 0.150, 0.996, -0.146, 22:54:38.141
196, 23699.82, 30308.21, 187500.00, 187500.00, 187500.00, -187500.02, -187500.02, -187500.02, 0.000, 0.000, 0.000, 22:54:38.141
197, 22245.97, 28433.59, 187500.00, 187500.00, 187500.00, -187500.02, -187500.02, -187500.02, 0.000, 0.000, 0.000, 22:54:38.141
198, 19744.50, 24717.27, 187500.00, 187500.00, 187500.00, -187500.02, -187500.02, -187500.02, 0.000, 0.000, 0.000, 22:54:38.142
199, 20873.24, 26146.80, 187500.00, 187500.00, 187500.00, -187500.02, -187500.02, -187500.02, 0.000, 0.000, 0.000, 22:54:38.142
200, 23475.08, 29928.54, 187500.00, 187500.00, 187500.00, -187500.02, -187500.02, -187500.02, 0.000, 0.000, 0.000, 22:54:38.142
201, 22786.31, 29148.69, 187500.00, 187500.00, 187500.00, -187500.02, -187500.02, -187500.02, 0.000, 0.000, 0.000, 22:54:38.142
202, 19935.41, 25022.35, 187500.00, 187500.00, 187500.00, -187500.02, -187500.02, -187500.02, 0.000, 0.000, 0.000, 22:54:38.142
203, 20466.24, 25580.95, 187500.00, 187500.00, 187500.00, -187500.02, -187500.02, -187500.02, 0.000, 0.000, 0.000, 22:54:38.143
204, 23139.40, 29416.68, 187500.00, 187500.00, 187500.00, -187500.02, -187500.02, -187500.02, 0.148, 0.996, -0.154, 22:54:38.143
205, 23230.44, 29761.32, 187500.00, 187500.00, 187500.00, -187500.02, -187500.02, -187500.02, 0.000, 0.000, 0.000, 22:54:38.143
206, 20258.14, 25542.16, 187500.00, 187500.00, 187500.00, -187500.02, -187500.02, -187500.02, 0.000, 0.000, 0.000, 22:54:38.143
207, 20099.40, 25112.77, 187500.00, 187500.00, 187500.00, -187500.02, -187500.02, -187500.02, 0.000, 0.000, 0.000, 22:54:38.143
208, 22687.02, 28761.58, 187500.00, 187500.00, 187500.00, -187500.02, -187500.02, -187500.02, 0.000, 0.000, 0.000, 22:54:38.143
209, 23564.44, 30181.94, 187500.00, 187500.00, 187500.00, -187500.02, -187500.02, -187500.02, 0.000, 0.000, 0.000, 22:54:38.144
210, 20712.40, 26190.39, 187500.00, 187500.00, 187500.00, -187500.02, -187500.02, -187500.02, 0.000, 0.000, 0.000, 22:54:38.144
211, 19863.64, 24798.61, 187500.00, 187500.00, 187500.00, -187500.02, -187500.02, -187500.02, 0.000, 0.000, 0.000, 22:54:38.144
212, 22237.10, 28098.56, 187500.00, 187500.00, 187500.00, -187500.02, -187500.02, -187500.02, 0.000, 0.000, 0.000, 22:54:38.144
213, 23755.14, 30434.22, 187500.00, 187500.00, 187500.00, -187500.02, -187500.02, -187500.02, 0.000, 0.000, 0.000, 22:54:38.144
214, 21218.35, 26956.63, 187500.00, 187500.00, 187500.00, -187500.02, -187500.02, -187500.02, 0.146, 0.996, -0.156, 22:54:38.145
215, 19697.63, 24619.24, 187500.00, 187500.00, 187500.00, -187500.02, -187500.02, -187500.02, 0.000, 0.000, 0.000, 22:54:38.145
216, 21750.06, 27374.09, 187500.00, 187500.00, 187500.00, -187500.02, -187500.02, -187500.02, 0.000, 0.000, 0.000, 22:54:38.145
217, 23794.17, 30412.92, 187500.00, 187500.00, 187500.00, -187500.02, -187500.02, -187500.02, 0.000, 0.000, 0.000, 22:54:38.145
218, 21797.35, 27752.51, 187500.00, 187500.00, 187500.00, -187500.02, -187500.02, -187500.02, 0.000, 0.000, 0.000, 22:54:38.145
219, 19681.34, 24599.75, 187500.00, 187500.00, 187500.00, -187500.02, -187500.02, -187500.02, 0.000, 0.000, 0.000, 22:54:38.146
220, 21247.14, 26653.63, 187500.00, 187500.00, 187500.00, -187500.02, -187500.02, -187500.02, 0.000, 0.000, 0.000, 22:54:38.146
221, 23665.89, 30199.20, 187500.00, 187500.00, 187500.00, -187500.02, -187500.02, -187500.02, 0.000, 0.000, 0.000, 22:54:38.146
222, 22367.19, 28561.79, 187500.00, 187500.00, 187500.00, -187500.02, -187500.02, -187500.02, 0.000, 0.000, 0.000, 22:54:38.146
223, 19760.91, 24748.37, 187500.00, 187500.00, 187500.00, -187500.02, -187500.02, -187500.02, 0.000, 0.000, 0.000, 22:54:38.146
224, 20779.66, 25997.25, 187500.00, 187500.00, 187500.00, -187500.02, -187500.02, -187500.02, 0.138, 1.000, -0.164, 22:54:38.146
225, 23417.70, 29813.34, 187500.00, 187500.00, 187500.00, -187500.02, -187500.02, -187500.02, 0.000, 0.000, 0.000, 22:54:38.598
226, 22880.88, 29286.66, 187500.00, 187500.00, 187500.00, -187500.02, -187500.02, -187500.02, 0.000, 0.000, 0.000, 22:54:38.598
227, 19977.29, 25103.27, 187500.00, 187500.00, 187500.00, -187500.02, -187500.02, -187500.02, 0.000, 0.000, 0.000, 22:54:38.598
228, 20361.37, 25429.87, 187500.00, 187500.00, 187500.00, -187500.02, -187500.02, -187500.02, 0.000, 0.000, 0.000, 22:54:38.598
229, 23042.26, 29270.97, 187500.00, 187500.00, 187500.00, -187500.02, -187500.02, -187500.02, 0.000, 0.000, 0.000, 22:54:38.598
230, 23305.76, 29880.75, 187500.00, 187500.00, 187500.00, -187500.02, -187500.02, -187500.02, 0.000, 0.000, 0.000, 22:54:38.598
231, 20323.44, 25650.77, 187500.00, 187500.00, 187500.00, -187500.02, -187500.02, -187500.02, 0.000, 0.000, 0.000, 22:54:38.598
232, 20050.61, 25003.60, 187500.00, 187500.00, 187500.00, -187500.02, -187500.02, -187500.02, 0.000, 0.000, 0.000, 22:54:38.599
233, 22628.08, 28626.37, 187500.00, 187500.00, 187500.00, -187500.02, -187500.02, -187500.02, 0.000, 0.000, 0.000, 22:54:38.599
234, 23635.70, 30276.06, 187500.00, 187500.00, 187500.00, -187500.02, -187500.02, -187500.02, 0.148, 1.002, -0.168, 22:54:38.599
235, 20793.74, 26323.94, 187500.00, 187500.00, 187500.00, -187500.02, -187500.02, -187500.02, 0.000, 0.000, 0.000, 22:54:38.599
236, 19788.67, 24681.87, 187500.00, 187500.00, 187500.00, -187500.02, -187500.02, -187500.02, 0.000, 0.000, 0.000, 22:54:38.599
237, 22125.07, 27905.82, 187500.00, 187500.00, 187500.00, -187500.02, -187500.02, -187500.02, 0.000, 0.000, 0.000, 22:54:38.599
238, 23779.10, 30445.96, 187500.00, 187500.00, 187500.00, -187500.02, -187500.02, -187500.02, 0.000, 0.000, 0.000, 22:54:38.599
239, 21331.14, 27095.72, 187500.00, 187500.00, 187500.00, -187500.02, -187500.02, -187500.02, 0.000, 0.000, 0.000, 22:54:38.599
240, 19660.33, 24526.97, 187500.00, 187500.00, 187500.00, -187500.02, -187500.02, -187500.02, 0.000, 0.000, 0.000, 22:54:38.599
241, 21618.07, 27186.31, 187500.00, 187500.00, 187500.00, -187500.02, -187500.02, -187500.02, 0.000, 0.000, 0.000, 22:54:38.599
242, 23794.44, 30416.28, 187500.00, 187500.00, 187500.00, -187500.02, -187500.02, -187500.02, 0.000, 0.000, 0.000, 22:54:38.599
243, 21929.03, 27933.22, 187500.00, 187500.00, 187500.00, -187500.02, -187500.02, -187500.02, 0.000, 0.000, 0.000, 22:54:38.599
244, 19652.70, 24554.02, 187500.00, 187500.00, 187500.00, -187500.02, -187500.02, -187500.02, 0.148, 1.000, -0.166, 22:54:38.600
245, 21129.24, 26478.03, 187500.00, 187500.00, 187500.00, -187500.02, -187500.02, -187500.02, 0.000, 0.000, 0.000, 22:54:38.600
246, 23638.29, 30145.80, 187500.00, 187500.00, 187500.00, -187500.02, -187500.02, -187500.02, 0.000, 0.000, 0.000, 22:54:38.600
247, 22483.02, 28703.17, 187500.00, 187500.00, 187500.00, -187500.02, -187500.02, -187500.02, 0.000, 0.000, 0.000, 22:54:38.600
248, 19776.80, 24764.03, 187500.00, 187500.00, 187500.00, -187500.02, -187500.02, -187500.02, 0.000, 0.000, 0.000, 22:54:38.600
249, 20674.65, 25841.74, 187500.00, 187500.00, 187500.00, -187500.02, -187500.02, -187500.02, 0.000, 0.000, 0.000, 22:54:38.600
250, 23344.45, 29704.53, 187500.00, 187500.00, 187500.00, -187500.02, -187500.02, -187500.02, 0.000, 0.000, 0.000, 22:54:38.600
251, 22983.52, 29411.65, 187500.00, 187500.00, 187500.00, -187500.02, -187500.02, -187500.02, 0.000, 0.000, 0.000, 22:54:38.600
252, 20049.16, 25169.70, 187500.00, 187500.00, 187500.00, -187500.02, -187500.02, -187500.02, 0.000, 0.000, 0.000, 22:54:38.600
253, 20293.71, 25313.21, 187500.00, 187500.00, 187500.00, -187500.02, -187500.02, -187500.02, 0.000, 0.000, 0.000, 22:54:38.600
254, 22982.09, 29127.45, 187500.00, 187500.00, 187500.00, -187500.02, -187500.02, -187500.02, 0.160, 0.996, -0.164, 22:54:38.600
255, 23412.60, 29949.86, 187500.00, 187500.00, 187500.00, -187500.02, -187500.02, -187500.02, 0.000, 0.000, 0.000, 22:54:38.601
0, 20420.58, 25748.25, 187500.00, 187500.00, 187500.00, -187500.02, -187500.02, -187500.02, 0.000, 0.000, 0.000, 22:54:38.601
1, 19967.71, 24893.90, 187500.00, 187500.00, 187500.00, -187500.02, -187500.02, -187500.02, 0.000, 0.000, 0.000, 22:54:38.601
2, 22505.28, 28444.18, 187500.00, 187500.00, 187500.00, -187500.02, -187500.02, -187500.02, 0.000, 0.000, 0.000, 22:54:38.601
3, 23684.36, 30299.49, 187500.00, 187500.00, 187500.00, -187500.02, -187500.02, -187500.02, 0.000, 0.000, 0.000, 22:54:38.601
4, 20897.94, 26457.51, 187500.00, 187500.00, 187500.00, -187500.02, -187500.02, -187500.02, 0.000, 0.000, 0.000, 22:54:38.601
5, 19724.79, 24616.71, 187500.00, 187500.00, 187500.00, -187500.02, -187500.02, -187500.02, 0.000, 0.000, 0.000, 22:54:38.601
6, 21983.48, 27744.68, 187500.00, 187500.00, 187500.00, -187500.02, -187500.02, -187500.02, 0.000, 0.000, 0.000, 22:54:38.601
7, 23781.38, 30459.32, 187500.00, 187500.00, 187500.00, -187500.02, -187500.02, -187500.02, 0.162, 0.998, -0.162, 22:54:38.602
8, 21470.19, 27281.09, 187500.00, 187500.00, 187500.00, -187500.02, -187500.02, -187500.02, 0.000, 0.000, 0.000, 22:54:38.602
9, 19663.86, 24542.01, 187500.00, 187500.00, 187500.00, -187500.02, -187500.02, -187500.02, 0.000, 0.000, 0.000, 22:54:38.602
10, 21519.46, 27053.97, 187500.00, 187500.00, 187500.00, -187500.02, -187500.02, -187500.02, 0.000, 0.000, 0.000, 22:54:38.602
11, 23764.69, 30388.40, 187500.00, 187500.00, 187500.00, -187500.02, -187500.02, -187500.02, 0.000, 0.000, 0.000, 22:54:38.602
12, 22038.66, 28103.96, 187500.00, 187500.00, 187500.00, -187500.02, -187500.02, -187500.02, 0.000, 0.000, 0.000, 22:54:38.602
13, 19660.62, 24576.28, 187500.00, 187500.00, 187500.00, -187500.02, -187500.02, -187500.02, 0.000, 0.000, 0.000, 22:54:38.602
14, 21031.78, 26342.40, 187500.00, 187500.00, 187500.00, -187500.02, -187500.02, -187500.02, 0.000, 0.000, 0.000, 22:54:38.602
15, 23623.18, 30119.22, 187500.00, 187500.00, 187500.00, -187500.02, -187500.02, -187500.02, 0.000, 0.000, 0.000, 22:54:38.602
16, 22628.48, 28921.55, 187500.00, 187500.00, 187500.00, -187500.02, -187500.02, -187500.02, 0.000, 0.000, 0.000, 22:54:38.603
17, 19823.94, 24839.27, 187500.00, 187500.00, 187500.00, -187500.02, -187500.02, -187500.02, 0.162, 1.006, -0.150, 22:54:38.603
18, 20582.22, 25719.35, 187500.00, 187500.00, 187500.00, -187500.02, -187500.02, -187500.02, 0.000, 0.000, 0.000, 22:54:38.603
19, 23309.09, 29643.17, 187500.00, 187500.00, 187500.00, -187500.02, -187500.02, -187500.02, 0.000, 0.000, 0.000, 22:54:38.603
20, 23119.93, 29609.15, 187500.00, 187500.00, 187500.00, -187500.02, -187500.02, -187500.02, 0.000, 0.000, 0.000, 22:54:38.603
21, 20109.66, 25278.32, 187500.00, 187500.00, 187500.00, -187500.02, -187500.02, -187500.02, 0.000, 0.000, 0.000, 22:54:38.603
22, 20215.61, 25187.26, 187500.00, 187500.00, 187500.00, -187500.02, -187500.02, -187500.02, 0.000, 0.000, 0.000, 22:54:38.603
23, 22904.95, 29036.08, 187500.00, 187500.00, 187500.00, -187500.02, -187500.02, -187500.02, 0.000, 0.000, 0.000, 22:54:38.603
24, 23506.35, 30127.65, 187500.00, 187500.00, 187500.00, -187500.02, -187500.02, -187500.02, 0.000, 0.000, 0.000, 22:54:38.603
25, 20516.06, 25892.62, 187500.00, 187500.00, 187500.00, -187500.02, -187500.02, -187500.02, 0.000, 0.000, 0.000, 22:54:38.603
26, 19906.20, 24787.64, 187500.00, 187500.00, 187500.00, -187500.02, -187500.02, -187500.02, 0.000, 0.000, 0.000, 22:54:38.604
27, 22424.14, 28327.57, 187500.00, 187500.00, 187500.00, -187500.02, -187500.02, -187500.02, 0.168, 1.002, -0.144, 22:54:38.604
28, 23745.67, 30435.16, 187500.00, 187500.00, 187500.00, -187500.02, -187500.02, -187500.02, 0.000, 0.000, 0.000, 22:54:38.604
29, 21029.19, 26649.56, 187500.00, 187500.00, 187500.00, -187500.02, -187500.02, -187500.02, 0.000, 0.000, 0.000, 22:54:38.604
30, 19722.15, 24552.18, 187500.00, 187500.00, 187500.00, -187500.02, -187500.02, -187500.02, 0.000, 0.000, 0.000, 22:54:38.604
31, 21922.99, 27591.37, 187500.00, 187500.00, 187500.00, -187500.02, -187500.02, -187500.02, 0.000, 0.000, 0.000, 22:54:38.604
32, 23837.26, 30521.39, 187500.00, 187500.00, 187500.00, -187500.02, -187500.02, -187500.02, 0.000, 0.000, 0.000, 22:54:38.604
33, 21604.62, 27489.58, 187500.00, 187500.00, 187500.00, -187500.02, -187500.02, -187500.02, 0.000, 0.000, 0.000, 22:54:38.604
34, 19645.53, 24503.41, 187500.00, 187500.00, 187500.00, -187500.02, -187500.02, -187500.02, 0.000, 0.000, 0.000, 22:54:38.604
35, 21414.11, 26886.24, 187500.00, 187500.00, 187500.00, -187500.02, -187500.02, -187500.02, 0.000, 0.000, 0.000, 22:54:38.605
36, 23767.46, 30398.88, 187500.00, 187500.00, 187500.00, -187500.02, -187500.02, -187500.02, 0.000, 0.000, 0.000, 22:54:38.605
37, 22170.61, 28316.93, 187500.00, 187500.00, 187500.00, -187500.02, -187500.02, -187500.02, 0.168, 1.000, -0.140, 22:54:38.605
38, 19663.52, 24586.13, 187500.00, 187500.00, 187500.00, -187500.02, -187500.02, -187500.02, 0.000, 0.000, 0.000, 22:54:38.605
39, 20908.25, 26165.67, 187500.00, 187500.00, 187500.00, -187500.02, -187500.02, -187500.02, 0.000, 0.000, 0.000, 22:54:38.605
40, 23550.76, 30037.79, 187500.00, 187500.00, 187500.00, -187500.02, -187500.02, -187500.02, 0.000, 0.000, 0.000, 22:54:38.605
41, 22752.02, 29102.06, 187500.00, 187500.00, 187500.00, -187500.02, -187500.02, -187500.02, 0.000, 0.000, 0.000, 22:54:38.605
42, 19890.26, 24899.78, 187500.00, 187500.00, 187500.00, -187500.02, -187500.02, -187500.02, 0.000, 0.000, 0.000, 22:54:38.605
43, 20515.12, 25574.57, 187500.00, 187500.00, 187500.00, -187500.02, -187500.02, -187500.02, 0.000, 0.000, 0.000, 22:54:38.605
44, 23231.75, 29525.94, 187500.00, 187500.00, 187500.00, -187500.02, -187500.02, -187500.02, 0.000, 0.000, 0.000, 22:54:38.606
45, 23193.98, 29743.22, 187500.00, 187500.00, 187500.00, -187500.02, -187500.02, -187500.02, 0.000, 0.000, 0.000, 22:54:38.606
46, 20165.83, 25381.66, 187500.00, 187500.00, 187500.00, -187500.02, -187500.02, -187500.02, 0.000, 0.000, 0.000, 22:54:38.606
47, 20127.59, 25079.91, 187500.00, 187500.00, 187500.00, -187500.02, -187500.02, -187500.02, 0.168, 1.004, -0.140, 22:54:38.606
48, 22814.65, 28892.69, 187500.00, 187500.00, 187500.00, -187500.02, -187500.02, -187500.02, 0.000, 0.000, 0.000, 22:54:38.606
49, 23601.36, 30215.87, 187500.00, 187500.00, 187500.00, -187500.02, -187500.02, -187500.02, 0.000, 0.000, 0.000, 22:54:38.606
50, 20640.45, 26050.69, 187500.00, 187500.00, 187500.00, -187500.02, -187500.02, -187500.02, 0.000, 0.000, 0.000, 22:54:38.606
51, 19865.63, 24738.48, 187500.00, 187500.00, 187500.00, -187500.02, -187500.02, -187500.02, 0.000, 0.000, 0.000, 22:54:38.606
52, 22326.64, 28179.69, 187500.00, 187500.00, 187500.00, -187500.02, -187500.02, -187500.02, 0.000, 0.000, 0.000, 22:54:38.606
53, 23792.56, 30476.74, 187500.00, 187500.00, 187500.00, -187500.02, -187500.02, -187500.02, 0.000, 0.000, 0.000, 22:54:38.606
54, 21164.11, 26829.33, 187500.00, 187500.00, 187500.00, -187500.02, -187500.02, -187500.02, 0.000, 0.000, 0.000, 22:54:38.607
55, 19713.52, 24548.83, 187500.00, 187500.00, 187500.00, -187500.02, -187500.02, -187500.02, 0.000, 0.000, 0.000, 22:54:38.607
56, 21813.13, 27441.24, 187500.00, 187500.00, 187500.00, -187500.02, -187500.02, -187500.02, 0.000, 0.000, 0.000, 22:54:38.607
57, 23834.54, 30495.56, 187500.00, 187500.00, 187500.00, -187500.02, -187500.02, -187500.02, 0.168, 0.998, -0.142, 22:54:38.607
58, 21723.53, 27655.50, 187500.00, 187500.00, 187500.00, -187500.02, -187500.02, -187500.02, 0.000, 0.000, 0.000, 22:54:38.607
59, 19647.03, 24509.09, 187500.00, 187500.00, 187500.00, -187500.02, -187500.02, -187500.02, 0.000, 0.000, 0.000, 22:54:38.607
60, 21321.11, 26751.42, 187500.00, 187500.00, 187500.00, -187500.02, -187500.02, -187500.02, 0.000, 0.000, 0.000, 22:54:38.607
61, 23727.70, 30331.34, 187500.00, 187500.00, 187500.00, -187500.02, -187500.02, -187500.02, 0.000, 0.000, 0.000, 22:54:38.607
62, 22289.52, 28510.95, 187500.00, 187500.00, 187500.00, -187500.02, -187500.02, -187500.02, 0.000, 0.000, 0.000, 22:54:38.608
63, 19701.38, 24706.52, 187500.00, 187500.00, 187500.00, -187500.02, -187500.02, -187500.02, 0.000, 0.000, 0.000, 22:54:38.608
64, 20843.13, 26097.96, 187500.00, 187500.00, 187500.00, -187500.02, -187500.02, -187500.02, 0.000, 0.000, 0.000, 22:54:38.608
65, 23503.84, 29940.36, 187500.00, 187500.00, 187500.00, -187500.02, -187500.02, -187500.02, 0.000, 0.000, 0.000, 22:54:38.608
66, 22858.79, 29238.58, 187500.00, 187500.00, 187500.00, -187500.02, -187500.02, -187500.02, 0.000, 0.000, 0.000, 22:54:38.608
67, 19932.53, 25045.11, 187500.00, 187500.00, 187500.00, -187500.02, -187500.02, -187500.02, 0.166, 1.002, -0.148, 22:54:38.608
68, 20418.50, 25521.29, 187500.00, 187500.00, 187500.00, -187500.02, -187500.02, -187500.02, 0.000, 0.000, 0.000, 22:54:38.608
69, 23146.04, 29404.17, 187500.00, 187500.00, 187500.00, -187500.02, -187500.02, -187500.02, 0.000, 0.000, 0.000, 22:54:38.608
70, 23321.90, 29862.35, 187500.00, 187500.00, 187500.00, -187500.02, -187500.02, -187500.02, 0.000, 0.000, 0.000, 22:54:38.608
71, 20292.63, 25565.16, 187500.00, 187500.00, 187500.00, -187500.02, -187500.02, -187500.02, 0.000, 0.000, 0.000, 22:54:38.608
72, 20080.58, 25055.81, 187500.00, 187500.00, 187500.00, -187500.02, -187500.02, -187500.02, 0.000, 0.000, 0.000, 22:54:38.609
73, 22708.28, 28752.68, 187500.00, 187500.00, 187500.00, -187500.02, -187500.02, -187500.02, 0.000, 0.000, 0.000, 22:54:38.609
74, 23630.22, 30284.65, 187500.00, 187500.00, 187500.00, -187500.02, -187500.02, -187500.02, 0.000, 0.000, 0.000, 22:54:38.609
75, 20740.85, 26256.24, 187500.00, 187500.00, 187500.00, -187500.02, -187500.02, -187500.02, 0.000, 0.000, 0.000, 22:54:38.609
76, 19825.19, 24744.97, 187500.00, 187500.00, 187500.00, -187500.02, -187500.02, -187500.02, 0.158, 1.008, -0.146, 22:54:38.609
77, 22201.90, 28039.48, 187500.00, 187500.00, 187500.00, -187500.02, -187500.02, -187500.02, 0.000, 0.000, 0.000, 22:54:38.609
78, 23799.02, 30474.95, 187500.00, 187500.00, 187500.00, -187500.02, -187500.02, -187500.02, 0.000, 0.000, 0.000, 22:54:38.609
79, 21305.37, 27024.29, 187500.00, 187500.00, 187500.00, -187500.02, -187500.02, -187500.02, 0.000, 0.000, 0.000, 22:54:38.609
80, 19707.13, 24571.45, 187500.00, 187500.00, 187500.00, -187500.02, -187500.02, -187500.02, 0.000, 0.000, 0.000, 22:54:38.609
81, 21715.14, 27312.78, 187500.00, 187500.00, 187500.00, -187500.02, -187500.02, -187500.02, 0.000, 0.000, 0.000, 22:54:38.610
82, 23818.09, 30475.87, 187500.00, 187500.00, 187500.00, -187500.02, -187500.02, -187500.02, 0.000, 0.000, 0.000, 22:54:38.610
83, 21857.90, 27871.69, 187500.00, 187500.00, 187500.00, -187500.02, -187500.02, -187500.02, 0.000, 0.000, 0.000, 22:54:38.610
84, 19666.92, 24613.70, 187500.00, 187500.00, 187500.00, -187500.02, -187500.02, -187500.02, 0.000, 0.000, 0.000, 22:54:38.610
85, 21221.17, 26639.99, 187500.00, 187500.00, 187500.00, -187500.02, -187500.02, -187500.02, 0.000, 0.000, 0.000, 22:54:38.610
86, 23692.71, 30230.98, 187500.00, 187500.00, 187500.00, -187500.02, -187500.02, -187500.02, 0.154, 1.002, -0.148, 22:54:38.610
87, 22440.19, 28650.64, 187500.00, 187500.00, 187500.00, -187500.02, -187500.02, -187500.02, 0.000, 0.000, 0.000, 22:54:38.610
88, 19781.20, 24789.25, 187500.00, 187500.00, 187500.00, -187500.02, -187500.02, -187500.02, 0.000, 0.000, 0.000, 22:54:38.610
89, 20757.91, 25982.29, 187500.00, 187500.00, 187500.00, -187500.02, -187500.02, -187500.02, 0.000, 0.000, 0.000, 22:54:38.610
90, 23428.63, 29816.69, 187500.00, 187500.00, 187500.00, -187500.02, -187500.02, -187500.02, 0.000, 0.000, 0.000, 22:54:39.078
91, 22955.53, 29366.73, 187500.00, 187500.00, 187500.00, -187500.02, -187500.02, -187500.02, 0.000, 0.000, 0.000, 22:54:39.078
92, 20002.02, 25187.49, 187500.00, 187500.00, 187500.00, -187500.02, -187500.02, -187500.02, 0.000, 0.000, 0.000, 22:54:39.078
93, 20337.23, 25461.94, 187500.00, 187500.00, 187500.00, -187500.02, -187500.02, -187500.02, 0.000, 0.000, 0.000, 22:54:39.078
94, 23045.68, 29267.28, 187500.00, 187500.00, 187500.00, -187500.02, -187500.02, -187500.02, 0.000, 0.000, 0.000, 22:54:39.078
95, 23372.06, 29939.45, 187500.00, 187500.00, 187500.00, -187500.02, -187500.02, -187500.02, 0.000, 0.000, 0.000, 22:54:39.078
96, 20369.68, 25731.39, 187500.00, 187500.00, 187500.00, -187500.02, -187500.02, -187500.02, 0.150, 1.002, -0.154, 22:54:39.078
97, 20027.21, 25039.68, 187500.00, 187500.00, 187500.00, -187500.02, -187500.02, -187500.02, 0.000, 0.000, 0.000, 22:54:39.079
98, 22608.10, 28605.25, 187500.00, 187500.00, 187500.00, -187500.02, -187500.02, -187500.02, 0.000, 0.000, 0.000, 22:54:39.079
99, 23678.41, 30299.98, 187500.00, 187500.00, 187500.00, -187500.02, -187500.02, -187500.02, 0.000, 0.000, 0.000, 22:54:39.079
100, 20861.82, 26410.73, 187500.00, 187500.00, 187500.00, -187500.02, -187500.02, -187500.02, 0.000, 0.000, 0.000, 22:54:39.079
101, 19787.69, 24700.62, 187500.00, 187500.00, 187500.00, -187500.02, -187500.02, -187500.02, 0.000, 0.000, 0.000, 22:54:39.079
102, 22091.73, 27845.87, 187500.00, 187500.00, 187500.00, -187500.02, -187500.02, -187500.02, 0.000, 0.000, 0.000, 22:54:39.079
103, 23809.05, 30427.38, 187500.00, 187500.00, 187500.00, -187500.02, -187500.02, -187500.02, 0.000, 0.000, 0.000, 22:54:39.079
104, 21411.56, 27195.70, 187500.00, 187500.00, 187500.00, -187500.02, -187500.02, -187500.02, 0.000, 0.000, 0.000, 22:54:39.079
105, 19676.44, 24599.72, 187500.00, 187500.00, 187500.00, -187500.02, -187500.02, -187500.02, 0.000, 0.000, 0.000, 22:54:39.079
106, 21575.80, 27147.58, 187500.00, 187500.00, 187500.00, -187500.02, -187500.02, -187500.02, 0.148, 1.002, -0.158, 22:54:39.079
107, 23771.48, 30376.94, 187500.00, 187500.00, 187500.00, -187500.02, -187500.02, -187500.02, 0.000, 0.000, 0.000, 22:54:39.079
108, 21961.15, 27990.57, 187500.00, 187500.00, 187500.00, -187500.02, -187500.02, -187500.02, 0.000, 0.000, 0.000, 22:54:39.080
109, 19676.06, 24625.79, 187500.00, 187500.00, 187500.00, -187500.02, -187500.02, -187500.02, 0.000, 0.000, 0.000, 22:54:39.080
110, 21111.89, 26488.25, 187500.00, 187500.00, 187500.00, -187500.02, -187500.02, -187500.02, 0.000, 0.000, 0.000, 22:54:39.080
111, 23622.22, 30122.80, 187500.00, 187500.00, 187500.00, -187500.02, -187500.02, -187500.02, 0.000, 0.000, 0.000, 22:54:39.080
112, 22531.07, 28782.94, 187500.00, 187500.00, 187500.00, -187500.02, -187500.02, -187500.02, 0.000, 0.000, 0.000, 22:54:39.080
113, 19814.04, 24845.39, 187500.00, 187500.00, 187500.00, -187500.02, -187500.02, -187500.02, 0.000, 0.000, 0.000, 22:54:39.081
114, 20653.68, 25832.65, 187500.00, 187500.00, 187500.00, -187500.02, -187500.02, -187500.02, 0.000, 0.000, 0.000, 22:54:39.081
115, 23314.08, 29661.32, 187500.00, 187500.00, 187500.00, -187500.02, -187500.02, -187500.02, 0.000, 0.000, 0.000, 22:54:39.081
116, 23013.22, 29462.01, 187500.00, 187500.00, 187500.00, -187500.02, -187500.02, -187500.02, 0.148, 1.002, -0.164, 22:54:39.081
117, 20074.46, 25230.49, 187500.00, 187500.00, 187500.00, -187500.02, -187500.02, -187500.02, 0.000, 0.000, 0.000, 22:54:39.081
118, 20283.18, 25296.68, 187500.00, 187500.00, 187500.00, -187500.02, -187500.02, -187500.02, 0.000, 0.000, 0.000, 22:54:39.081
119, 22963.06, 29092.00, 187500.00, 187500.00, 187500.00, -187500.02, -187500.02, -187500.02, 0.000, 0.000, 0.000, 22:54:39.081
120, 23459.59, 30009.43, 187500.00, 187500.00, 187500.00, -187500.02, -187500.02, -187500.02, 0.000, 0.000, 0.000, 22:54:39.081
121, 20490.02, 25800.89, 187500.00, 187500.00, 187500.00, -187500.02, -187500.02, -187500.02, 0.000, 0.000, 0.000, 22:54:39.081
122, 19980.36, 24866.54, 187500.00, 187500.00, 187500.00, -187500.02, -187500.02, -187500.02, 0.000, 0.000, 0.000, 22:54:39.082
123, 22491.02, 28417.27, 187500.00, 187500.00, 187500.00, -187500.02, -187500.02, -187500.02, 0.000, 0.000, 0.000, 22:54:39.082
124, 23716.90, 30363.75, 187500.00, 187500.00, 187500.00, -187500.02, -187500.02, -187500.02, 0.000, 0.000, 0.000, 22:54:39.082
125, 20971.99, 26534.27, 187500.00, 187500.00, 187500.00, -187500.02, -187500.02, -187500.02, 0.000, 0.000, 0.000, 22:54:39.082
126, 19764.28, 24600.35, 187500.00, 187500.00, 187500.00, -187500.02, -187500.02, -187500.02, 0.142, 1.000, -0.168, 22:54:39.082
127, 22002.92, 27684.38, 187500.00, 187500.00, 187500.00, -187500.02, -187500.02, -187500.02, 0.000, 0.000, 0.000, 22:54:39.082
128, 23835.99, 30481.95, 187500.00, 187500.00, 187500.00, -187500.02, -187500.02, -187500.02, 0.000, 0.000, 0.000, 22:54:39.082
129, 21552.49, 27368.28, 187500.00, 187500.00, 187500.00, -187500.02, -187500.02, -187500.02, 0.000, 0.000, 0.000, 22:54:39.082
130, 19697.16, 24528.74, 187500.00, 187500.00, 187500.00, -187500.02, -187500.02, -187500.02, 0.000, 0.000, 0.000, 22:54:39.082
131, 21508.52, 26999.99, 187500.00, 187500.00, 187500.00, -187500.02, -187500.02, -187500.02, 0.000, 0.000, 0.000, 22:54:39.083
132, 23774.48, 30365.60, 187500.00, 187500.00, 187500.00, -187500.02, -187500.02, -187500.02, 0.000, 0.000, 0.000, 22:54:39.083
133, 22120.76, 28160.31, 187500.00, 187500.00, 187500.00, -187500.02, -187500.02, -187500.02, 0.000, 0.000, 0.000, 22:54:39.083
134, 19706.66, 24588.84, 187500.00, 187500.00, 187500.00, -187500.02, -187500.02, -187500.02, 0.000, 0.000, 0.000, 22:54:39.083
135, 20999.37, 26286.59, 187500.00, 187500.00, 187500.00, -187500.02, -187500.02, -187500.02, 0.142, 0.996, -0.162, 22:54:39.083
136, 23575.70, 30066.13, 187500.00, 187500.00, 187500.00, -187500.02, -187500.02, -187500.02, 0.000, 0.000, 0.000, 22:54:39.083
137, 22691.60, 28956.15, 187500.00, 187500.00, 187500.00, -187500.02, -187500.02, -187500.02, 0.000, 0.000, 0.000, 22:54:39.083
138, 19897.81, 24867.99, 187500.00, 187500.00, 187500.00, -187500.02, -187500.02, -187500.02, 0.000, 0.000, 0.000, 22:54:39.083
139, 20601.71, 25688.95, 187500.00, 187500.00, 187500.00, -187500.02, -187500.02, -187500.02, 0.000, 0.000, 0.000, 22:54:39.083
140, 23275.00, 29581.84, 187500.00, 187500.00, 187500.00, -187500.02, -187500.02, -187500.02, 0.000, 0.000, 0.000, 22:54:39.084
141, 23139.66, 29607.34, 187500.00, 187500.00, 187500.00, -187500.02, -187500.02, -187500.02, 0.000, 0.000, 0.000, 22:54:39.084
142, 20159.95, 25288.85, 187500.00, 187500.00, 187500.00, -187500.02, -187500.02, -187500.02, 0.000, 0.000, 0.000, 22:54:39.084
143, 20204.61, 25169.83, 187500.00, 187500.00, 187500.00, -187500.02, -187500.02, -187500.02, 0.000, 0.000, 0.000, 22:54:39.084
144, 22858.19, 28985.88, 187500.00, 187500.00, 187500.00, -187500.02, -187500.02, -187500.02, 0.000, 0.000, 0.000, 22:54:39.084
145, 23516.65, 30117.97, 187500.00, 187500.00, 187500.00, -187500.02, -187500.02, -187500.02, 0.152, 1.002, -0.162, 22:54:39.084
146, 20587.54, 25951.25, 187500.00, 187500.00, 187500.00, -187500.02, -187500.02, -187500.02, 0.000, 0.000, 0.000, 22:54:39.085
147, 19931.54, 24792.58, 187500.00, 187500.00, 187500.00, -187500.02, -187500.02, -187500.02, 0.000, 0.000, 0.000, 22:54:39.085
148, 22384.33, 28257.72, 187500.00, 187500.00, 187500.00, -187500.02, -187500.02, -187500.02, 0.000, 0.000, 0.000, 22:54:39.085
149, 23739.32, 30409.08, 187500.00, 187500.00, 187500.00, -187500.02, -187500.02, -187500.02, 0.000, 0.000, 0.000, 22:54:39.085
150, 21091.17, 26690.06, 187500.00, 187500.00, 187500.00, -187500.02, -187500.02, -187500.02, 0.000, 0.000, 0.000, 22:54:39.085
151, 19771.08, 24549.14, 187500.00, 187500.00, 187500.00, -187500.02, -187500.02, -187500.02, 0.000, 0.000, 0.000, 22:54:39.085
152, 21914.01, 27512.11, 187500.00, 187500.00, 187500.00, -187500.02, -187500.02, -187500.02, 0.000, 0.000, 0.000, 22:54:39.086
153, 23853.58, 30468.18, 187500.00, 187500.00, 187500.00, -187500.02, -187500.02, -187500.02, 0.000, 0.000, 0.000, 22:54:39.086
154, 21683.94, 27518.21, 187500.00, 187500.00, 187500.00, -187500.02, -187500.02, -187500.02, 0.000, 0.000, 0.000, 22:54:39.086
155, 19694.55, 24492.77, 187500.00, 187500.00, 187500.00, -187500.02, -187500.02, -187500.02, 0.158, 1.000, -0.156, 22:54:39.086
156, 21396.83, 26786.29, 187500.00, 187500.00, 187500.00, -187500.02, -187500.02, -187500.02, 0.000, 0.000, 0.000, 22:54:39.086
157, 23756.21, 30282.68, 187500.00, 187500.00, 187500.00, -187500.02, -187500.02, -187500.02, 0.000, 0.000, 0.000, 22:54:39.087
158, 22246.02, 28324.15, 187500.00, 187500.00, 187500.00, -187500.02, -187500.02, -187500.02, 0.000, 0.000, 0.000, 22:54:39.087
159, 19726.02, 24620.13, 187500.00, 187500.00, 187500.00, -187500.02, -187500.02, -187500.02, 0.000, 0.000, 0.000, 22:54:39.087
160, 20929.48, 26129.37, 187500.00, 187500.00, 187500.00, -187500.02, -187500.02, -187500.02, 0.000, 0.000, 0.000, 22:54:39.087
161, 23543.40, 29912.40, 187500.00, 187500.00, 187500.00, -187500.02, -187500.02, -187500.02, 0.000, 0.000, 0.000, 22:54:39.087
162, 22811.43, 29082.93, 187500.00, 187500.00, 187500.00, -187500.02, -187500.02, -187500.02, 0.000, 0.000, 0.000, 22:54:39.087
163, 19958.07, 24956.06, 187500.00, 187500.00, 187500.00, -187500.02, -187500.02, -187500.02, 0.000, 0.000, 0.000, 22:54:39.088
164, 20512.13, 25543.80, 187500.00, 187500.00, 187500.00, -187500.02, -187500.02, -187500.02, 0.000, 0.000, 0.000, 22:54:39.088
165, 23207.05, 29411.56, 187500.00, 187500.00, 187500.00, -187500.02, -187500.02, -187500.02, 0.164, 1.000, -0.154, 22:54:39.088
166, 23259.47, 29707.72, 187500.00, 187500.00, 187500.00, -187500.02, -187500.02, -187500.02, 0.000, 0.000, 0.000, 22:54:39.088
167, 20270.75, 25439.39, 187500.00, 187500.00, 187500.00, -187500.02, -187500.02, -187500.02, 0.000, 0.000, 0.000, 22:54:39.088
168, 20157.52, 25062.32, 187500.00, 187500.00, 187500.00, -187500.02, -187500.02, -187500.02, 0.000, 0.000, 0.000, 22:54:39.089
169, 22761.99, 28776.78, 187500.00, 187500.00, 187500.00, -187500.02, -187500.02, -187500.02, 0.000, 0.000, 0.000, 22:54:39.089
170, 23592.15, 30172.82, 187500.00, 187500.00, 187500.00, -187500.02, -187500.02, -187500.02, 0.000, 0.000, 0.000, 22:54:39.089
171, 20691.23, 26094.74, 187500.00, 187500.00, 187500.00, -187500.02, -187500.02, -187500.02, 0.000, 0.000, 0.000, 22:54:39.089
172, 19885.74, 24722.46, 187500.00, 187500.00, 187500.00, -187500.02, -187500.02, -187500.02, 0.000, 0.000, 0.000, 22:54:39.089
173, 22305.14, 28118.22, 187500.00, 187500.00, 187500.00, -187500.02, -187500.02, -187500.02, 0.000, 0.000, 0.000, 22:54:39.089
174, 23817.48, 30456.80, 187500.00, 187500.00, 187500.00, -187500.02, -187500.02, -187500.02, 0.000, 0.000, 0.000, 22:54:39.089
175, 21225.62, 26880.99, 187500.00, 187500.00, 187500.00, -187500.02, -187500.02, -187500.02, 0.166, 1.002, -0.146, 22:54:39.089
176, 19709.21, 24537.92, 187500.00, 187500.00, 187500.00, -187500.02, -187500.02, -187500.02, 0.000, 0.000, 0.000, 22:54:39.089
177, 21797.89, 27370.34, 187500.00, 187500.00, 187500.00, -187500.02, -187500.02, -187500.02, 0.000, 0.000, 0.000, 22:54:39.090
178, 23876.60, 30481.74, 187500.00, 187500.00, 187500.00, -187500.02, -187500.02, -187500.02, 0.000, 0.000, 0.000, 22:54:39.090
179, 21832.49, 27729.53, 187500.00, 187500.00, 187500.00, -187500.02, -187500.02, -187500.02, 0.000, 0.000, 0.000, 22:54:39.090
180, 19705.99, 24529.29, 187500.00, 187500.00, 187500.00, -187500.02, -187500.02, -187500.02, 0.000, 0.000, 0.000, 22:54:39.090
181, 21310.55, 26675.06, 187500.00, 187500.00, 187500.00, -187500.02, -187500.02, -187500.02, 0.000, 0.000, 0.000, 22:54:39.090
182, 23742.11, 30281.79, 187500.00, 187500.00, 187500.00, -187500.02, -187500.02, -187500.02, 0.000, 0.000, 0.000, 22:54:39.090
183, 22381.34, 28550.26, 187500.00, 187500.00, 187500.00, -187500.02, -187500.02, -187500.02, 0.000, 0.000, 0.000, 22:54:39.090
184, 19769.63, 24680.55, 187500.00, 187500.00, 187500.00, -187500.02, -187500.02, -187500.02, 0.000, 0.000, 0.000, 22:54:39.090
185, 20835.94, 26009.45, 187500.00, 187500.00, 187500.00, -187500.02, -187500.02, -187500.02, 0.164, 0.998, -0.142, 22:54:39.090
186, 23481.31, 29890.49, 187500.00, 187500.00, 187500.00, -187500.02, -187500.02, -187500.02, 0.000, 0.000, 0.000, 22:54:39.090
187, 22903.90, 29279.55, 187500.00, 187500.00, 187500.00, -187500.02, -187500.02, -187500.02, 0.000, 0.000, 0.000, 22:54:39.091
188, 19985.14, 25027.49, 187500.00, 187500.00, 187500.00, -187500.02, -187500.02, -187500.02, 0.000, 0.000, 0.000, 22:54:39.091
189, 20409.31, 25414.71, 187500.00, 187500.00, 187500.00, -187500.02, -187500.02, -187500.02, 0.000, 0.000, 0.000, 22:54:39.091
190, 23110.65, 29309.95, 187500.00, 187500.00, 187500.00, -187500.02, -187500.02, -187500.02, 0.000, 0.000, 0.000, 22:54:39.091
191, 23336.40, 29874.54, 187500.00, 187500.00, 187500.00, -187500.02, -187500.02, -187500.02, 0.000, 0.000, 0.000, 22:54:39.091
192, 20325.38, 25588.19, 187500.00, 187500.00, 187500.00, -187500.02, -187500.02, -187500.02, 0.000, 0.000, 0.000, 22:54:39.091
193, 20071.89, 24988.20, 187500.00, 187500.00, 187500.00, -187500.02, -187500.02, -187500.02, 0.000, 0.000, 0.000, 22:54:39.091
194, 22667.82, 28696.38, 187500.00, 187500.00, 187500.00, -187500.02, -187500.02, -187500.02, 0.162, 1.000, -0.142, 22:54:39.092
195, 23643.79, 30298.15, 187500.00, 187500.00, 187500.00, -187500.02, -187500.02, -187500.02, 0.000, 0.000, 0.000, 22:54:39.092
196, 20783.34, 26249.93, 187500.00, 187500.00, 187500.00, -187500.02, -187500.02, -187500.02, 0.000, 0.000, 0.000, 22:54:39.092
197, 19828.86, 24689.91, 187500.00, 187500.00, 187500.00, -187500.02, -187500.02, -187500.02, 0.000, 0.000, 0.000, 22:54:39.092
198, 22165.98, 27995.38, 187500.00, 187500.00, 187500.00, -187500.02, -187500.02, -187500.02, 0.000, 0.000, 0.000, 22:54:39.092
199, 23785.47, 30509.01, 187500.00, 187500.00, 187500.00, -187500.02, -187500.02, -187500.02, 0.000, 0.000, 0.000, 22:54:39.092
200, 21323.70, 27059.45, 187500.00, 187500.00, 187500.00, -187500.02, -187500.02, -187500.02, 0.000, 0.000, 0.000, 22:54:39.092
201, 19702.55, 24527.82, 187500.00, 187500.00, 187500.00, -187500.02, -187500.02, -187500.02, 0.000, 0.000, 0.000, 22:54:39.092
202, 21689.44, 27235.22, 187500.00, 187500.00, 187500.00, -187500.02, -187500.02, -187500.02, 0.000, 0.000, 0.000, 22:54:39.092
203, 23819.16, 30441.55, 187500.00, 187500.00, 187500.00, -187500.02, -187500.02, -187500.02, 0.000, 0.000, 0.000, 22:54:39.093
204, 21896.17, 27879.80, 187500.00, 187500.00, 187500.00, -187500.02, -187500.02, -187500.02, 0.164, 0.998, -0.146, 22:54:39.093
205, 19661.62, 24528.31, 187500.00, 187500.00, 187500.00, -187500.02, -187500.02, -187500.02, 0.000, 0.000, 0.000, 22:54:39.093
206, 21165.78, 26506.91, 187500.00, 187500.00, 187500.00, -187500.02, -187500.02, -187500.02, 0.000, 0.000, 0.000, 22:54:39.093
207, 23666.29, 30190.08, 187500.00, 187500.00, 187500.00, -187500.02, -187500.02, -187500.02, 0.000, 0.000, 0.000, 22:54:39.093
208, 22468.62, 28708.15, 187500.00, 187500.00, 187500.00, -187500.02, -187500.02, -187500.02, 0.000, 0.000, 0.000, 22:54:39.093
209, 19773.94, 24747.74, 187500.00, 187500.00, 187500.00, -187500.02, -187500.02, -187500.02, 0.000, 0.000, 0.000, 22:54:39.093
210, 20718.77, 25882.18, 187500.00, 187500.00, 187500.00, -187500.02, -187500.02, -187500.02, 0.000, 0.000, 0.000, 22:54:39.558
211, 23398.88, 29768.50, 187500.00, 187500.00, 187500.00, -187500.02, -187500.02, -187500.02, 0.000, 0.000, 0.000, 22:54:39.558
212, 22990.02, 29422.25, 187500.00, 187500.00, 187500.00, -187500.02, -187500.02, -187500.02, 0.000, 0.000, 0.000, 22:54:39.558
213, 20038.14, 25162.54, 187500.00, 187500.00, 187500.00, -187500.02, -187500.02, -187500.02, 0.000, 0.000, 0.000, 22:54:39.558
214, 20315.75, 25334.72, 187500.00, 187500.00, 187500.00, -187500.02, -187500.02, -187500.02, 0.166, 0.998, -0.148, 22:54:39.559
215, 23009.42, 29191.09, 187500.00, 187500.00, 187500.00, -187500.02, -187500.02, -187500.02, 0.000, 0.000, 0.000, 22:54:39.559
216, 23392.64, 29947.34, 187500.00, 187500.00, 187500.00, -187500.02, -187500.02, -187500.02, 0.000, 0.000, 0.000, 22:54:39.559
217, 20397.55, 25705.53, 187500.00, 187500.00, 187500.00, -187500.02, -187500.02, -187500.02, 0.000, 0.000, 0.000, 22:54:39.559
218, 19999.04, 24941.55, 187500.00, 187500.00, 187500.00, -187500.02, -187500.02, -187500.02, 0.000, 0.000, 0.000, 22:54:39.559
219, 22557.47, 28540.20, 187500.00, 187500.00, 187500.00, -187500.02, -187500.02, -187500.02, 0.000, 0.000, 0.000, 22:54:39.559
220, 23684.27, 30359.32, 187500.00, 187500.00, 187500.00, -187500.02, -187500.02, -187500.02, 0.000, 0.000, 0.000, 22:54:39.559
221, 20873.06, 26450.09, 187500.00, 187500.00, 187500.00, -187500.02, -187500.02, -187500.02, 0.000, 0.000, 0.000, 22:54:39.560
222, 19763.12, 24657.73, 187500.00, 187500.00, 187500.00, -187500.02, -187500.02, -187500.02, 0.000, 0.000, 0.000, 22:54:39.560
223, 22057.55, 27819.92, 187500.00, 187500.00, 187500.00, -187500.02, -187500.02, -187500.02, 0.000, 0.000, 0.000, 22:54:39.560
224, 23812.86, 30490.77, 187500.00, 187500.00, 187500.00, -187500.02, -187500.02, -187500.02, 0.168, 1.002, -0.148, 22:54:39.560
225, 21423.95, 27248.34, 187500.00, 187500.00, 187500.00, -187500.02, -187500.02, -187500.02, 0.000, 0.000, 0.000, 22:54:39.560
226, 19654.42, 24556.01, 187500.00, 187500.00, 187500.00, -187500.02, -187500.02, -187500.02, 0.000, 0.000, 0.000, 22:54:39.560
227, 21559.44, 27114.90, 187500.00, 187500.00, 187500.00, -187500.02, -187500.02, -187500.02, 0.000, 0.000, 0.000, 22:54:39.560
228, 23795.58, 30441.78, 187500.00, 187500.00, 187500.00, -187500.02, -187500.02, -187500.02, 0.000, 0.000, 0.000, 22:54:39.560
229, 22016.54, 28114.27, 187500.00, 187500.00, 187500.00, -187500.02, -187500.02, -187500.02, 0.000, 0.000, 0.000, 22:54:39.560
230, 19653.69, 24651.76, 187500.00, 187500.00, 187500.00, -187500.02, -187500.02, -187500.02, 0.000, 0.000, 0.000, 22:54:39.561
231, 21057.64, 26441.35, 187500.00, 187500.00, 187500.00, -187500.02, -187500.02, -187500.02, 0.000, 0.000, 0.000, 22:54:39.561
232, 23605.99, 30131.69, 187500.00, 187500.00, 187500.00, -187500.02, -187500.02, -187500.02, 0.000, 0.000, 0.000, 22:54:39.561
233, 22556.29, 28888.15, 187500.00, 187500.00, 187500.00, -187500.02, -187500.02, -187500.02, 0.000, 0.000, 0.000, 22:54:39.561
234, 19794.73, 24894.90, 187500.00, 187500.00, 187500.00, -187500.02, -187500.02, -187500.02, 0.168, 1.000, -0.158, 22:54:39.561
235, 20622.37, 25825.50, 187500.00, 187500.00, 187500.00, -187500.02, -187500.02, -187500.02, 0.000, 0.000, 0.000, 22:54:39.561
236, 23325.03, 29652.56, 187500.00, 187500.00, 187500.00, -187500.02, -187500.02, -187500.02, 0.000, 0.000, 0.000, 22:54:39.561
237, 23086.29, 29538.99, 187500.00, 187500.00, 187500.00, -187500.02, -187500.02, -187500.02, 0.000, 0.000, 0.000, 22:54:39.561
238, 20089.12, 25342.88, 187500.00, 187500.00, 187500.00, -187500.02, -187500.02, -187500.02, 0.000, 0.000, 0.000, 22:54:39.561
239, 20226.83, 25334.67, 187500.00, 187500.00, 187500.00, -187500.02, -187500.02, -187500.02, 0.000, 0.000, 0.000, 22:54:39.562
240, 22913.20, 29091.64, 187500.00, 187500.00, 187500.00, -187500.02, -187500.02, -187500.02, 0.000, 0.000, 0.000, 22:54:39.562
241, 23491.59, 30112.00, 187500.00, 187500.00, 187500.00, -187500.02, -187500.02, -187500.02, 0.000, 0.000, 0.000, 22:54:39.562
242, 20525.27, 25981.29, 187500.00, 187500.00, 187500.00, -187500.02, -187500.02, -187500.02, 0.000, 0.000, 0.000, 22:54:39.562
243, 19950.63, 24971.05, 187500.00, 187500.00, 187500.00, -187500.02, -187500.02, -187500.02, 0.000, 0.000, 0.000, 22:54:39.562
244, 22469.27, 28415.77, 187500.00, 187500.00, 187500.00, -187500.02, -187500.02, -187500.02, 0.160, 0.996, -0.158, 22:54:39.562
245, 23750.29, 30388.18, 187500.00, 187500.00, 187500.00, -187500.02, -187500.02, -187500.02, 0.000, 0.000, 0.000, 22:54:39.562
246, 21019.18, 26671.49, 187500.00, 187500.00, 187500.00, -187500.02, -187500.02, -187500.02, 0.000, 0.000, 0.000, 22:54:39.562
247, 19737.33, 24708.85, 187500.00, 187500.00, 187500.00, -187500.02, -187500.02, -187500.02, 0.000, 0.000, 0.000, 22:54:39.562
248, 21958.38, 27703.42, 187500.00, 187500.00, 187500.00, -187500.02, -187500.02, -187500.02, 0.000, 0.000, 0.000, 22:54:39.562
249, 23848.51, 30479.04, 187500.00, 187500.00, 187500.00, -187500.02, -187500.02, -187500.02, 0.000, 0.000, 0.000, 22:54:39.563
250, 21586.15, 27462.56, 187500.00, 187500.00, 187500.00, -187500.02, -187500.02, -187500.02, 0.000, 0.000, 0.000, 22:54:39.563
251, 19659.57, 24619.87, 187500.00, 187500.00, 187500.00, -187500.02, -187500.02, -187500.02, 0.000, 0.000, 0.000, 22:54:39.563
252, 21450.43, 26976.70, 187500.00, 187500.00, 187500.00, -187500.02, -187500.02, -187500.02, 0.000, 0.000, 0.000, 22:54:39.563
253, 23769.25, 30358.99, 187500.00, 187500.00, 187500.00, -187500.02, -187500.02, -187500.02, 0.000, 0.000, 0.000, 22:54:39.563
254, 22144.32, 28269.95, 187500.00, 187500.00, 187500.00, -187500.02, -187500.02, -187500.02, 0.160, 0.998, -0.164, 22:54:39.563
255, 19683.06, 24704.00, 187500.00, 187500.00, 187500.00, -187500.02, -187500.02, -187500.02, 0.000, 0.000, 0.000, 22:54:39.563
0, 20954.29, 26309.01, 187500.00, 187500.00, 187500.00, -187500.02, -187500.02, -187500.02, 0.000, 0.000, 0.000, 22:54:39.563
1, 23545.95, 30039.13, 187500.00, 187500.00, 187500.00, -187500.02, -187500.02, -187500.02, 0.000, 0.000, 0.000, 22:54:39.563
2, 22675.82, 29035.27, 187500.00, 187500.00, 187500.00, -187500.02, -187500.02, -187500.02, 0.000, 0.000, 0.000, 22:54:39.563
3, 19851.97, 24977.92, 187500.00, 187500.00, 187500.00, -187500.02, -187500.02, -187500.02, 0.000, 0.000, 0.000, 22:54:39.563
4, 20535.73, 25709.54, 187500.00, 187500.00, 187500.00, -187500.02, -187500.02, -187500.02, 0.000, 0.000, 0.000, 22:54:39.564
5, 23251.29, 29540.33, 187500.00, 187500.00, 187500.00, -187500.02, -187500.02, -187500.02, 0.000, 0.000, 0.000, 22:54:39.564
6, 23191.83, 29662.64, 187500.00, 187500.00, 187500.00, -187500.02, -187500.02, -187500.02, 0.000, 0.000, 0.000, 22:54:39.564
7, 20189.01, 25421.60, 187500.00, 187500.00, 187500.00, -187500.02, -187500.02, -187500.02, 0.162, 1.004, -0.166, 22:54:39.564
8, 20183.60, 25202.22, 187500.00, 187500.00, 187500.00, -187500.02, -187500.02, -187500.02, 0.000, 0.000, 0.000, 22:54:39.564
9, 22846.97, 28912.16, 187500.00, 187500.00, 187500.00, -187500.02, -187500.02, -187500.02, 0.000, 0.000, 0.000, 22:54:39.564
10, 23567.28, 30142.89, 187500.00, 187500.00, 187500.00, -187500.02, -187500.02, -187500.02, 0.000, 0.000, 0.000, 22:54:39.564
11, 20618.03, 26058.00, 187500.00, 187500.00, 187500.00, -187500.02, -187500.02, -187500.02, 0.000, 0.000, 0.000, 22:54:39.564
12, 19913.97, 24849.57, 187500.00, 187500.00, 187500.00, -187500.02, -187500.02, -187500.02, 0.000, 0.000, 0.000, 22:54:39.564
13, 22386.30, 28266.33, 187500.00, 187500.00, 187500.00, -187500.02, -187500.02, -187500.02, 0.000, 0.000, 0.000, 22:54:39.564
14, 23800.12, 30437.96, 187500.00, 187500.00, 187500.00, -187500.02, -187500.02, -187500.02, 0.000, 0.000, 0.000, 22:54:39.564
15, 21148.62, 26820.30, 187500.00, 187500.00, 187500.00, -187500.02, -187500.02, -187500.02, 0.000, 0.000, 0.000, 22:54:39.564
16, 19740.10, 24656.72, 187500.00, 187500.00, 187500.00, -187500.02, -187500.02, -187500.02, 0.000, 0.000, 0.000, 22:54:39.564
17, 21863.11, 27545.71, 187500.00, 187500.00, 187500.00, -187500.02, -187500.02, -187500.02, 0.158, 0.996, -0.166, 22:54:39.565
18, 23844.73, 30483.08, 187500.00, 187500.00, 187500.00, -187500.02, -187500.02, -187500.02, 0.000, 0.000, 0.000, 22:54:39.565
19, 21700.32, 27619.92, 187500.00, 187500.00, 187500.00, -187500.02, -187500.02, -187500.02, 0.000, 0.000, 0.000, 22:54:39.565
20, 19666.05, 24609.18, 187500.00, 187500.00, 187500.00, -187500.02, -187500.02, -187500.02, 0.000, 0.000, 0.000, 22:54:39.565
21, 21354.61, 26850.37, 187500.00, 187500.00, 187500.00, -187500.02, -187500.02, -187500.02, 0.000, 0.000, 0.000, 22:54:39.565
22, 23754.29, 30335.41, 187500.00, 187500.00, 187500.00, -187500.02, -187500.02, -187500.02, 0.000, 0.000, 0.000, 22:54:39.565
23, 22293.56, 28462.06, 187500.00, 187500.00, 187500.00, -187500.02, -187500.02, -187500.02, 0.000, 0.000, 0.000, 22:54:39.565
24, 19733.06, 24747.98, 187500.00, 187500.00, 187500.00, -187500.02, -187500.02, -187500.02, 0.000, 0.000, 0.000, 22:54:39.565
25, 20881.22, 26175.54, 187500.00, 187500.00, 187500.00, -187500.02, -187500.02, -187500.02, 0.000, 0.000, 0.000, 22:54:39.565
26, 23518.33, 29965.33, 187500.00, 187500.00, 187500.00, -187500.02, -187500.02, -187500.02, 0.000, 0.000, 0.000, 22:54:39.565
27, 22837.25, 29203.45, 187500.00, 187500.00, 187500.00, -187500.02, -187500.02, -187500.02, 0.150, 0.998, -0.164, 22:54:39.565
28, 19937.76, 25061.09, 187500.00, 187500.00, 187500.00, -187500.02, -187500.02, -187500.02, 0.000, 0.000, 0.000, 22:54:39.565
29, 20454.48, 25596.30, 187500.00, 187500.00, 187500.00, -187500.02, -187500.02, -187500.02, 0.000, 0.000, 0.000, 22:54:39.565
30, 23172.19, 29440.24, 187500.00, 187500.00, 187500.00, -187500.02, -187500.02, -187500.02, 0.000, 0.000, 0.000, 22:54:39.566
31, 23273.64, 29801.85, 187500.00, 187500.00, 187500.00, -187500.02, -187500.02, -187500.02, 0.000, 0.000, 0.000, 22:54:39.566
32, 20268.92, 25554.05, 187500.00, 187500.00, 187500.00, -187500.02, -187500.02, -187500.02, 0.000, 0.000, 0.000, 22:54:39.566
33, 20136.15, 25125.33, 187500.00, 187500.00, 187500.00, -187500.02, -187500.02, -187500.02, 0.000, 0.000, 0.000, 22:54:39.566
34, 22765.45, 28804.63, 187500.00, 187500.00, 187500.00, -187500.02, -187500.02, -187500.02, 0.000, 0.000, 0.000, 22:54:39.566
35, 23636.43, 30225.26, 187500.00, 187500.00, 187500.00, -187500.02, -187500.02, -187500.02, 0.000, 0.000, 0.000, 22:54:39.566
36, 20728.87, 26209.99, 187500.00, 187500.00, 187500.00, -187500.02, -187500.02, -187500.02, 0.000, 0.000, 0.000, 22:54:39.566
37, 19870.12, 24818.17, 187500.00, 187500.00, 187500.00, -187500.02, -187500.02, -187500.02, 0.154, 0.990, -0.164, 22:54:39.566
38, 22284.60, 28115.99, 187500.00, 187500.00, 187500.00, -187500.02, -187500.02, -187500.02, 0.000, 0.000, 0.000, 22:54:39.566
39, 23825.55, 30465.96, 187500.00, 187500.00, 187500.00, -187500.02, -187500.02, -187500.02, 0.000, 0.000, 0.000, 22:54:39.566
40, 21276.69, 26979.27, 187500.00, 187500.00, 187500.00, -187500.02, -187500.02, -187500.02, 0.000, 0.000, 0.000, 22:54:39.566
41, 19718.96, 24607.91, 187500.00, 187500.00, 187500.00, -187500.02, -187500.02, -187500.02, 0.000, 0.000, 0.000, 22:54:39.566
42, 21768.32, 27384.80, 187500.00, 187500.00, 187500.00, -187500.02, -187500.02, -187500.02, 0.000, 0.000, 0.000, 22:54:39.567
43, 23861.07, 30497.86, 187500.00, 187500.00, 187500.00, -187500.02, -187500.02, -187500.02, 0.000, 0.000, 0.000, 22:54:39.567
44, 21840.69, 27824.90, 187500.00, 187500.00, 187500.00, -187500.02, -187500.02, -187500.02, 0.000, 0.000, 0.000, 22:54:39.567
45, 19692.33, 24616.85, 187500.00, 187500.00, 187500.00, -187500.02, -187500.02, -187500.02, 0.000, 0.000, 0.000, 22:54:39.567
46, 21282.62, 26688.85, 187500.00, 187500.00, 187500.00, -187500.02, -187500.02, -187500.02, 0.000, 0.000, 0.000, 22:54:39.567
47, 23761.18, 30277.61, 187500.00, 187500.00, 187500.00, -187500.02, -187500.02, -187500.02, 0.152, 0.992, -0.162, 22:54:39.567
48, 22441.46, 28605.38, 187500.00, 187500.00, 187500.00, -187500.02, -187500.02, -187500.02, 0.000, 0.000, 0.000, 22:54:39.567
49, 19788.76, 24778.65, 187500.00, 187500.00, 187500.00, -187500.02, -187500.02, -187500.02, 0.000, 0.000, 0.000, 22:54:39.567
50, 20816.92, 26042.87, 187500.00, 187500.00, 187500.00, -187500.02, -187500.02, -187500.02, 0.000, 0.000, 0.000, 22:54:39.567
51, 23493.78, 29865.95, 187500.00, 187500.00, 187500.00, -187500.02, -187500.02, -187500.02, 0.000, 0.000, 0.000, 22:54:39.568
52, 22975.54, 29333.49, 187500.00, 187500.00, 187500.00, -187500.02, -187500.02, -187500.02, 0.000, 0.000, 0.000, 22:54:39.568
53, 20031.90, 25146.14, 187500.00, 187500.00, 187500.00, -187500.02, -187500.02, -187500.02, 0.000, 0.000, 0.000, 22:54:39.568
54, 20409.29, 25473.68, 187500.00, 187500.00, 187500.00, -187500.02, -187500.02, -187500.02, 0.000, 0.000, 0.000, 22:54:39.568
55, 23136.49, 29295.04, 187500.00, 187500.00, 187500.00, -187500.02, -187500.02, -187500.02, 0.000, 0.000, 0.000, 22:54:39.568
56, 23425.23, 29909.96, 187500.00, 187500.00, 187500.00, -187500.02, -187500.02, -187500.02, 0.000, 0.000, 0.000, 22:54:39.568
57, 20394.13, 25674.89, 187500.00, 187500.00, 187500.00, -187500.02, -187500.02, -187500.02, 0.160, 0.990, -0.158, 22:54:39.568
58, 20079.78, 25041.55, 187500.00, 187500.00, 187500.00, -187500.02, -187500.02, -187500.02, 0.000, 0.000, 0.000, 22:54:39.568
59, 22706.78, 28652.37, 187500.00, 187500.00, 187500.00, -187500.02, -187500.02, -187500.02, 0.000, 0.000, 0.000, 22:54:39.568
60, 23736.90, 30298.28, 187500.00, 187500.00, 187500.00, -187500.02, -187500.02, -187500.02, 0.000, 0.000, 0.000, 22:54:39.569
61, 20867.07, 26377.40, 187500.00, 187500.00, 187500.00, -187500.02, -187500.02, -187500.02, 0.000, 0.000, 0.000, 22:54:39.569
62, 19848.04, 24751.90, 187500.00, 187500.00, 187500.00, -187500.02, -187500.02, -187500.02, 0.000, 0.000, 0.000, 22:54:39.569
63, 22205.29, 27946.12, 187500.00, 187500.00, 187500.00, -187500.02, -187500.02, -187500.02, 0.000, 0.000, 0.000, 22:54:39.582
64, 23881.43, 30452.33, 187500.00, 187500.00, 187500.00, -187500.02, -187500.02, -187500.02, 0.000, 0.000, 0.000, 22:54:39.582
65, 21389.46, 27115.24, 187500.00, 187500.00, 187500.00, -187500.02, -187500.02, -187500.02, 0.000, 0.000, 0.000, 22:54:39.582
66, 19705.07, 24592.75, 187500.00, 187500.00, 187500.00, -187500.02, -187500.02, -187500.02, 0.164, 0.996, -0.154, 22:54:39.583
67, 21695.92, 27241.63, 187500.00, 187500.00, 187500.00, -187500.02, -187500.02, -187500.02, 0.000, 0.000, 0.000, 22:54:39.583
68, 23886.73, 30432.84, 187500.00, 187500.00, 187500.00, -187500.02, -187500.02, -187500.02, 0.000, 0.000, 0.000, 22:54:39.583
69, 21989.69, 27980.90, 187500.00, 187500.00, 187500.00, -187500.02, -187500.02, -187500.02, 0.000, 0.000, 0.000, 22:54:39.583
70, 19701.97, 24656.34, 187500.00, 187500.00, 187500.00, -187500.02, -187500.02, -187500.02, 0.000, 0.000, 0.000, 22:54:39.583
71, 21163.55, 26542.38, 187500.00, 187500.00, 187500.00, -187500.02, -187500.02, -187500.02, 0.000, 0.000, 0.000, 22:54:39.583
72, 23738.04, 30183.48, 187500.00, 187500.00, 187500.00, -187500.02, -187500.02, -187500.02, 0.000, 0.000, 0.000, 22:54:39.583
73, 22599.58, 28779.21, 187500.00, 187500.00, 187500.00, -187500.02, -187500.02, -187500.02, 0.000, 0.000, 0.000, 22:54:39.583
74, 19868.08, 24868.75, 187500.00, 187500.00, 187500.00, -187500.02, -187500.02, -187500.02, 0.000, 0.000, 0.000, 22:54:40.038
75, 20765.44, 25933.63, 187500.00, 187500.00, 187500.00, -187500.02, -187500.02, -187500.02, 0.000, 0.000, 0.000, 22:54:40.039
76, 23458.29, 29778.96, 187500.00, 187500.00, 187500.00, -187500.02, -187500.02, -187500.02, 0.162, 1.000, -0.150, 22:54:40.039
77, 23114.63, 29497.08, 187500.00, 187500.00, 187500.00, -187500.02, -187500.02, -187500.02, 0.000, 0.000, 0.000, 22:54:40.039
78, 20121.22, 25296.68, 187500.00, 187500.00, 187500.00, -187500.02, -187500.02, -187500.02, 0.000, 0.000, 0.000, 22:54:40.039
79, 20366.04, 25432.04, 187500.00, 187500.00, 187500.00, -187500.02, -187500.02, -187500.02, 0.000, 0.000, 0.000, 22:54:40.039
80, 23076.79, 29201.75, 187500.00, 187500.00, 187500.00, -187500.02, -187500.02, -187500.02, 0.000, 0.000, 0.000, 22:54:40.039
81, 23501.94, 30003.73, 187500.00, 187500.00, 187500.00, -187500.02, -187500.02, -187500.02, 0.000, 0.000, 0.000, 22:54:40.039
82, 20450.82, 25822.70, 187500.00, 187500.00, 187500.00, -187500.02, -187500.02, -187500.02, 0.000, 0.000, 0.000, 22:54:40.039
83, 20011.16, 24999.60, 187500.00, 187500.00, 187500.00, -187500.02, -187500.02, -187500.02, 0.000, 0.000, 0.000, 22:54:40.039
84, 22604.97, 28523.93, 187500.00, 187500.00, 187500.00, -187500.02, -187500.02, -187500.02, 0.000, 0.000, 0.000, 22:54:40.040
85, 23779.24, 30376.09, 187500.00, 187500.00, 187500.00, -187500.02, -187500.02, -187500.02, 0.000, 0.000, 0.000, 22:54:40.040
86, 20973.11, 26566.37, 187500.00, 187500.00, 187500.00, -187500.02, -187500.02, -187500.02, 0.162, 1.000, -0.140, 22:54:40.040
87, 19791.44, 24737.97, 187500.00, 187500.00, 187500.00, -187500.02, -187500.02, -187500.02, 0.000, 0.000, 0.000, 22:54:40.040
88, 22075.92, 27819.52, 187500.00, 187500.00, 187500.00, -187500.02, -187500.02, -187500.02, 0.000, 0.000, 0.000, 22:54:40.040
89, 23890.84, 30515.47, 187500.00, 187500.00, 187500.00, -187500.02, -187500.02, -187500.02, 0.000, 0.000, 0.000, 22:54:40.040
90, 21510.38, 27350.00, 187500.00, 187500.00, 187500.00, -187500.02, -187500.02, -187500.02, 0.000, 0.000, 0.000, 22:54:40.040
91, 19684.78, 24617.85, 187500.00, 187500.00, 187500.00, -187500.02, -187500.02, -187500.02, 0.000, 0.000, 0.000, 22:54:40.040
92, 21573.08, 27114.01, 187500.00, 187500.00, 187500.00, -187500.02, -187500.02, -187500.02, 0.000, 0.000, 0.000, 22:54:40.041
93, 23851.52, 30419.20, 187500.00, 187500.00, 187500.00, -187500.02, -187500.02, -187500.02, 0.000, 0.000, 0.000, 22:54:40.041
94, 22104.11, 28166.84, 187500.00, 187500.00, 187500.00, -187500.02, -187500.02, -187500.02, 0.000, 0.000, 0.000, 22:54:40.041
95, 19710.86, 24691.03, 187500.00, 187500.00, 187500.00, -187500.02, -187500.02, -187500.02, 0.000, 0.000, 0.000, 22:54:40.041
96, 21092.11, 26435.70, 187500.00, 187500.00, 187500.00, -187500.02, -187500.02, -187500.02, 0.164, 0.996, -0.142, 22:54:40.041
97, 23673.49, 30106.08, 187500.00, 187500.00, 187500.00, -187500.02, -187500.02, -187500.02, 0.000, 0.000, 0.000, 22:54:40.041
98, 22677.01, 28928.23, 187500.00, 187500.00, 187500.00, -187500.02, -187500.02, -187500.02, 0.000, 0.000, 0.000, 22:54:40.041
99, 19862.41, 24951.43, 187500.00, 187500.00, 187500.00, -187500.02, -187500.02, -187500.02, 0.000, 0.000, 0.000, 22:54:40.041
100, 20631.60, 25819.01, 187500.00, 187500.00, 187500.00, -187500.02, -187500.02, -187500.02, 0.000, 0.000, 0.000, 22:54:40.041
101, 23351.00, 29640.49, 187500.00, 187500.00, 187500.00, -187500.02, -187500.02, -187500.02, 0.000, 0.000, 0.000, 22:54:40.042
102, 23152.21, 29599.99, 187500.00, 187500.00, 187500.00, -187500.02, -187500.02, -187500.02, 0.000, 0.000, 0.000, 22:54:40.042
103, 20153.07, 25399.58, 187500.00, 187500.00, 187500.00, -187500.02, -187500.02, -187500.02, 0.000, 0.000, 0.000, 22:54:40.042
104, 20263.80, 25324.68, 187500.00, 187500.00, 187500.00, -187500.02, -187500.02, -187500.02, 0.000, 0.000, 0.000, 22:54:40.042
105, 22958.10, 29050.65, 187500.00, 187500.00, 187500.00, -187500.02, -187500.02, -187500.02, 0.000, 0.000, 0.000, 22:54:40.042
106, 23560.32, 30102.12, 187500.00, 187500.00, 187500.00, -187500.02, -187500.02, -187500.02, 0.160, 0.992, -0.144, 22:54:40.042
107, 20563.80, 25968.50, 187500.00, 187500.00, 187500.00, -187500.02, -187500.02, -187500.02, 0.000, 0.000, 0.000, 22:54:40.042
108, 19956.84, 24930.02, 187500.00, 187500.00, 187500.00, -187500.02, -187500.02, -187500.02, 0.000, 0.000, 0.000, 22:54:40.042
109, 22464.13, 28378.13, 187500.00, 187500.00, 187500.00, -187500.02, -187500.02, -187500.02, 0.000, 0.000, 0.000, 22:54:40.042
110, 23809.77, 30416.01, 187500.00, 187500.00, 187500.00, -187500.02, -187500.02, -187500.02, 0.000, 0.000, 0.000, 22:54:40.042
111, 21086.10, 26738.32, 187500.00, 187500.00, 187500.00, -187500.02, -187500.02, -187500.02, 0.000, 0.000, 0.000, 22:54:40.042
112, 19762.47, 24718.12, 187500.00, 187500.00, 187500.00, -187500.02, -187500.02, -187500.02, 0.000, 0.000, 0.000, 22:54:40.043
113, 21966.44, 27675.93, 187500.00, 187500.00, 187500.00, -187500.02, -187500.02, -187500.02, 0.000, 0.000, 0.000, 22:54:40.043
114, 23891.09, 30500.59, 187500.00, 187500.00, 187500.00, -187500.02, -187500.02, -187500.02, 0.000, 0.000, 0.000, 22:54:40.043
115, 21663.00, 27518.53, 187500.00, 187500.00, 187500.00, -187500.02, -187500.02, -187500.02, 0.000, 0.000, 0.000, 22:54:40.043
116, 19706.10, 24643.60, 187500.00, 187500.00, 187500.00, -187500.02, -187500.02, -187500.02, 0.160, 0.994, -0.152, 22:54:40.043
117, 21466.68, 26980.74, 187500.00, 187500.00, 187500.00, -187500.02, -187500.02, -187500.02, 0.000, 0.000, 0.000, 22:54:40.043
118, 23814.96, 30367.79, 187500.00, 187500.00, 187500.00, -187500.02, -187500.02, -187500.02, 0.000, 0.000, 0.000, 22:54:40.043
119, 22225.28, 28348.85, 187500.00, 187500.00, 187500.00, -187500.02, -187500.02, -187500.02, 0.000, 0.000, 0.000, 22:54:40.043
120, 19726.35, 24772.50, 187500.00, 187500.00, 187500.00, -187500.02, -187500.02, -187500.02, 0.000, 0.000, 0.000, 22:54:40.043
121, 20974.70, 26313.12, 187500.00, 187500.00, 187500.00, -187500.02, -187500.02, -187500.02, 0.000, 0.000, 0.000, 22:54:40.043
122, 23607.11, 30022.88, 187500.00, 187500.00, 187500.00, -187500.02, -187500.02, -187500.02, 0.000, 0.000, 0.000, 22:54:40.043
123, 22804.01, 29113.59, 187500.00, 187500.00, 187500.00, -187500.02, -187500.02, -187500.02, 0.000, 0.000, 0.000, 22:54:40.043
124, 19933.75, 25075.88, 187500.00, 187500.00, 187500.00, -187500.02, -187500.02, -187500.02, 0.000, 0.000, 0.000, 22:54:40.043
125, 20543.46, 25732.02, 187500.00, 187500.00, 187500.00, -187500.02, -187500.02, -187500.02, 0.000, 0.000, 0.000, 22:54:40.044
126, 23260.01, 29514.83, 187500.00, 187500.00, 187500.00, -187500.02, -187500.02, -187500.02, 0.160, 0.998, -0.150, 22:54:40.044
127, 23260.05, 29726.39, 187500.00, 187500.00, 187500.00, -187500.02, -187500.02, -187500.02, 0.000, 0.000, 0.000, 22:54:40.044
128, 20247.01, 25518.52, 187500.00, 187500.00, 187500.00, -187500.02, -187500.02, -187500.02, 0.000, 0.000, 0.000, 22:54:40.044
129, 20192.43, 25253.18, 187500.00, 187500.00, 187500.00, -187500.02, -187500.02, -187500.02, 0.000, 0.000, 0.000, 22:54:40.044
130, 22852.91, 28947.61, 187500.00, 187500.00, 187500.00, -187500.02, -187500.02, -187500.02, 0.000, 0.000, 0.000, 22:54:40.044
131, 23618.08, 30201.41, 187500.00, 187500.00, 187500.00, -187500.02, -187500.02, -187500.02, 0.000, 0.000, 0.000, 22:54:40.044
132, 20659.47, 26172.28, 187500.00, 187500.00, 187500.00, -187500.02, -187500.02, -187500.02, 0.000, 0.000, 0.000, 22:54:40.044
133, 19891.98, 24906.53, 187500.00, 187500.00, 187500.00, -187500.02, -187500.02, -187500.02, 0.000, 0.000, 0.000, 22:54:40.044
134, 22353.62, 28237.43, 187500.00, 187500.00, 187500.00, -187500.02, -187500.02, -187500.02, 0.000, 0.000, 0.000, 22:54:40.044
135, 23823.18, 30432.86, 187500.00, 187500.00, 187500.00, -187500.02, -187500.02, -187500.02, 0.154, 0.996, -0.152, 22:54:40.045
136, 21183.71, 26911.90, 187500.00, 187500.00, 187500.00, -187500.02, -187500.02, -187500.02, 0.000, 0.000, 0.000, 22:54:40.045
137, 19733.48, 24734.53, 187500.00, 187500.00, 187500.00, -187500.02, -187500.02, -187500.02, 0.000, 0.000, 0.000, 22:54:40.045
138, 21838.03, 27536.30, 187500.00, 187500.00, 187500.00, -187500.02, -187500.02, -187500.02, 0.000, 0.000, 0.000, 22:54:40.045
139, 23881.52, 30462.54, 187500.00, 187500.00, 187500.00, -187500.02, -187500.02, -187500.02, 0.000, 0.000, 0.000, 22:54:40.046
140, 21792.10, 27722.00, 187500.00, 187500.00, 187500.00, -187500.02, -187500.02, -187500.02, 0.000, 0.000, 0.000, 22:54:40.046
141, 19712.52, 24693.92, 187500.00, 187500.00, 187500.00, -187500.02, -187500.02, -187500.02, 0.000, 0.000, 0.000, 22:54:40.046
142, 21361.67, 26833.96, 187500.00, 187500.00, 187500.00, -187500.02, -187500.02, -187500.02, 0.000, 0.000, 0.000, 22:54:40.046
143, 23796.47, 30274.63, 187500.00, 187500.00, 187500.00, -187500.02, -187500.02, -187500.02, 0.000, 0.000, 0.000, 22:54:40.046
144, 22382.97, 28506.32, 187500.00, 187500.00, 187500.00, -187500.02, -187500.02, -187500.02, 0.000, 0.000, 0.000, 22:54:40.046
145, 19795.17, 24857.93, 187500.00, 187500.00, 187500.00, -187500.02, -187500.02, -187500.02, 0.152, 0.994, -0.154, 22:54:40.046
146, 20908.89, 26216.23, 187500.00, 187500.00, 187500.00, -187500.02, -187500.02, -187500.02, 0.000, 0.000, 0.000, 22:54:40.046
147, 23563.19, 29922.37, 187500.00, 187500.00, 187500.00, -187500.02, -187500.02, -187500.02, 0.000, 0.000, 0.000, 22:54:40.046
148, 22926.68, 29225.13, 187500.00, 187500.00, 187500.00, -187500.02, -187500.02, -187500.02, 0.000, 0.000, 0.000, 22:54:40.046
149, 19997.01, 25163.50, 187500.00, 187500.00, 187500.00, -187500.02, -187500.02, -187500.02, 0.000, 0.000, 0.000, 22:54:40.046
150, 20452.83, 25644.13, 187500.00, 187500.00, 187500.00, -187500.02, -187500.02, -187500.02, 0.000, 0.000, 0.000, 22:54:40.046
151, 23158.51, 29393.97, 187500.00, 187500.00, 187500.00, -187500.02, -187500.02, -187500.02, 0.000, 0.000, 0.000, 22:54:40.047
152, 23345.90, 29824.27, 187500.00, 187500.00, 187500.00, -187500.02, -187500.02, -187500.02, 0.000, 0.000, 0.000, 22:54:40.047
153, 20346.70, 25685.48, 187500.00, 187500.00, 187500.00, -187500.02, -187500.02, -187500.02, 0.000, 0.000, 0.000, 22:54:40.047
154, 20121.98, 25182.53, 187500.00, 187500.00, 187500.00, -187500.02, -187500.02, -187500.02, 0.000, 0.000, 0.000, 22:54:40.047
155, 22757.16, 28773.27, 187500.00, 187500.00, 187500.00, -187500.02, -187500.02, -187500.02, 0.154, 1.000, -0.152, 22:54:40.047
156, 23683.04, 30248.97, 187500.00, 187500.00, 187500.00, -187500.02, -187500.02, -187500.02, 0.000, 0.000, 0.000, 22:54:40.047
157, 20768.59, 26291.33, 187500.00, 187500.00, 187500.00, -187500.02, -187500.02, -187500.02, 0.000, 0.000, 0.000, 22:54:40.047
158, 19856.95, 24852.37, 187500.00, 187500.00, 187500.00, -187500.02, -187500.02, -187500.02, 0.000, 0.000, 0.000, 22:54:40.047
159, 22256.44, 28097.17, 187500.00, 187500.00, 187500.00, -187500.02, -187500.02, -187500.02, 0.000, 0.000, 0.000, 22:54:40.047
160, 23872.96, 30463.59, 187500.00, 187500.00, 187500.00, -187500.02, -187500.02, -187500.02, 0.000, 0.000, 0.000, 22:54:40.047
161, 21335.77, 27075.20, 187500.00, 187500.00, 187500.00, -187500.02, -187500.02, -187500.02, 0.000, 0.000, 0.000, 22:54:40.047
162, 19723.25, 24685.69, 187500.00, 187500.00, 187500.00, -187500.02, -187500.02, -187500.02, 0.000, 0.000, 0.000, 22:54:40.047
163, 21744.63, 27368.73, 187500.00, 187500.00, 187500.00, -187500.02, -187500.02, -187500.02, 0.000, 0.000, 0.000, 22:54:40.047
164, 23869.38, 30453.89, 187500.00, 187500.00, 187500.00, -187500.02, -187500.02, -187500.02, 0.000, 0.000, 0.000, 22:54:40.048
165, 21908.93, 27880.36, 187500.00, 187500.00, 187500.00, -187500.02, -187500.02, -187500.02, 0.152, 1.000, -0.156, 22:54:40.048
166, 19695.71, 24693.67, 187500.00, 187500.00, 187500.00, -187500.02, -187500.02, -187500.02, 0.000, 0.000, 0.000, 22:54:40.048
167, 21235.36, 26692.65, 187500.00, 187500.00, 187500.00, -187500.02, -187500.02, -187500.02, 0.000, 0.000, 0.000, 22:54:40.048
168, 23736.03, 30235.34, 187500.00, 187500.00, 187500.00, -187500.02, -187500.02, -187500.02, 0.000, 0.000, 0.000, 22:54:40.048
169, 22483.60, 28679.72, 187500.00, 187500.00, 187500.00, -187500.02, -187500.02, -187500.02, 0.000, 0.000, 0.000, 22:54:40.048
