# Mains_Frequency_(Hz) =,60,,,,,,,,,,,,,,,,,,,,,,,,,,,
# Sample_Frequency_(Hz) =,300,,,,,,,,,,,,,,,,,,,,,,,,,,,
# Filter_Delay_(ms) =,43.3,,,,,,,,,,,,,,,,,,,,,,,,,,,
# Sensor_Data_Units =,uV,,,,,,,,,,,,,,,,,,,,,,,,,,,
# Headset_Name =,DSI-24 SN:1580,,,,,,,,,,,,,,,,,,,,,,,,,,,
# Data_Logger =,DSI-Streamer-v.1.08.31,,,,,,,,,,,,,,,,,,,,,,,,,,,
# Date =,4/20/2018,,,,,,,,,,,,,,,,,,,,,,,,,,,
# Time =,11:28:18,,,,,,,,,,,,,,,,,,,,,,,,,,,
# Patient_ID =,X F 01-MAY-1999 X,,,,,,,,,,,,,,,,,,,,,,,,,,,
# Record_ID =,Startdate 20-APR-2018 EEG_XX X X,,,,,,,,,,,,,,,,,,,,,,,,,,,
# Filter =,Non-Filtered,,,,,,,,,,,,,,,,,,,,,,,,,,,
# Comments =,,,,,,,,,,,,,,,,,,,,,,,,,,,,
# Reference location:,Pz,,,,,,,,,,,,,,,,,,,,,,,,,,,
# Trigger Source,Wireless,,,,,,,,,,,,,,,,,,,,,,,,,,,
# Channel_Number =,ch_1,ch_2,ch_3,ch_4,ch_5,ch_6,ch_7,ch_8,ch_9,ch_10,ch_11,ch_12,ch_13,ch_14,ch_15,ch_16,ch_17,ch_18,ch_19,ch_20,ch_21,ch_22,ch_23,ch_24,Trigger,Time_Offset,ADC_Status,ADC_Sequence,Event,Comments
Time,P3,C3,F3,Fz,F4,C4,P4,Cz,CM,A1,Fp1,Fp2,T3,T5,O1,O2,X3,X2,F7,F8,X1,A2,T6,T4,Trigger,Time_Offset,ADC_Status,ADC_Sequence,Event,Comments
0.0033,-84.6,-86.7,-24.9,-97.8,-2.1,-148.5,330.9,-346.2,-2815.8,325.5,-225.0,-82.2,105.9,50.1,-128.4,-449.1,-6.3,-4.2,-52.8,-137.4,-1.5,92.7,-119.4,33.6,0,6,0,62,0,Start Data Acquisition
0.0067,-83.7,-87.3,-20.4,-95.1,0.3,-147.0,334.2,-342.9,-2889.9,326.4,-221.7,-77.1,99.6,51.0,-135.3,-451.5,-6.3,-4.5,-48.9,-135.9,-1.8,83.4,-118.8,29.1,0,12,0,63,0,
0.0100,-86.1,-84.9,-24.6,-96.6,3.9,-144.9,338.7,-341.7,-3260.4,326.1,-220.2,-74.4,100.8,54.0,-139.8,-432.0,-6.3,-4.5,-49.8,-134.1,-1.8,95.1,-107.1,34.8,0,18,0,64,0,
0.0133,-84.9,-86.7,-26.1,-101.7,1.2,-150.3,333.9,-341.1,-3260.4,331.2,-222.3,-78.3,103.2,63.0,-127.2,-458.4,-6.3,-4.8,-50.1,-139.8,-2.1,98.1,-122.4,35.4,0,24,0,65,0,
0.0167,-89.1,-94.5,-38.1,-106.5,-7.8,-156.9,322.5,-348.6,-2964.0,312.6,-235.2,-86.1,93.0,62.7,-85.5,-444.3,-6.0,-4.5,-64.2,-147.9,-1.5,88.8,-127.5,26.4,0,30,0,66,0,
0.0200,-85.2,-80.4,-26.7,-93.3,7.8,-147.0,333.0,-337.2,-2741.7,326.7,-222.6,-76.2,101.4,62.7,-127.8,-454.2,-6.3,-4.2,-54.3,-132.9,-2.1,94.8,-121.2,37.2,0,36,0,67,0,
0.0233,-84.0,-81.3,-25.2,-86.7,10.2,-143.7,334.8,-335.7,-2964.0,331.2,-216.9,-70.8,104.4,60.0,-143.4,-459.3,-6.3,-4.8,-49.8,-130.2,-1.5,96.0,-122.1,38.7,0,42,0,68,0,
0.0267,-85.2,-84.6,-31.2,-96.6,0.6,-150.3,332.4,-339.0,-3186.3,319.2,-225.3,-81.9,99.9,70.2,-114.9,-454.2,-6.3,-4.5,-57.6,-142.2,-1.8,87.0,-132.3,27.0,0,48,0,69,0,
0.0300,-85.8,-88.2,-33.9,-97.5,-5.7,-152.1,325.8,-344.1,-3334.5,318.6,-225.3,-83.1,99.3,55.5,-129.6,-449.1,-6.3,-4.5,-56.7,-143.4,-1.8,88.8,-127.5,28.5,0,54,0,70,0,
0.0333,-88.8,-90.9,-38.4,-103.2,-3.6,-159.3,325.8,-350.7,-2889.9,312.3,-228.9,-86.1,93.9,59.4,-132.9,-450.6,-6.0,-4.8,-64.2,-147.3,-1.5,75.3,-132.3,20.1,0,60,0,71,0,
0.0367,-94.2,-97.2,-45.3,-111.3,-15.0,-165.3,321.3,-359.7,-2815.8,303.3,-241.2,-97.5,87.0,60.9,-89.4,-437.7,-6.6,-4.5,-74.1,-157.2,-1.8,63.0,-136.8,10.5,0,66,0,72,0,
0.0400,-92.7,-88.2,-37.8,-102.3,-5.7,-160.8,323.7,-355.8,-2964.0,304.2,-235.2,-91.2,92.1,55.2,-112.8,-438.3,-6.0,-4.5,-69.9,-152.4,-1.8,70.2,-135.0,13.8,0,72,0,73,0,
0.0433,-88.5,-82.2,-21.6,-86.4,14.4,-145.5,327.9,-344.7,-3260.4,325.5,-215.7,-74.1,105.9,47.7,-154.5,-482.4,-6.3,-4.5,-49.2,-131.1,-1.5,105.9,-133.5,31.2,0,78,0,74,0,
0.0467,-89.4,-94.2,-36.6,-103.8,-5.7,-156.9,327.3,-354.0,-3260.4,299.4,-238.2,-101.1,93.0,59.7,-132.0,-456.9,-6.3,-4.8,-72.9,-159.6,-1.5,78.9,-123.6,15.3,0,84,0,75,0,
0.0500,-91.8,-93.0,-36.0,-104.7,-4.5,-159.6,330.3,-354.0,-3038.1,303.9,-239.7,-103.2,79.2,37.5,-145.8,-433.8,-6.6,-4.5,-73.2,-158.4,-1.8,77.7,-109.8,20.1,0,90,0,76,0,
0.0533,-87.3,-88.8,-31.8,-94.2,0.9,-153.6,327.9,-351.6,-2741.7,314.7,-221.1,-81.0,84.9,50.7,-130.2,-439.2,-6.0,-4.5,-58.2,-140.7,-1.8,84.3,-126.3,24.9,0,96,0,77,0,
0.0567,-85.5,-94.5,-39.3,-103.2,-3.9,-156.3,326.7,-357.6,-2889.9,299.7,-227.4,-83.4,84.6,60.6,-86.7,-432.9,-6.3,-4.5,-64.8,-143.7,-1.8,72.0,-130.5,19.2,0,102,0,78,0,
0.0600,-82.8,-92.4,-43.2,-109.2,-10.2,-159.0,318.6,-360.0,-3186.3,303.6,-235.2,-91.2,91.2,70.5,-79.2,-462.9,-5.7,-4.2,-77.7,-150.9,-1.8,77.7,-139.8,13.5,0,108,0,79,0,
0.0633,-81.6,-84.9,-29.1,-95.7,3.9,-149.1,333.0,-345.6,-3260.4,317.4,-221.1,-77.4,98.1,63.9,-145.8,-466.2,-6.0,-4.5,-60.6,-132.6,-1.8,95.4,-117.3,30.9,0,114,0,80,0,
0.0667,-79.5,-78.9,-22.2,-88.5,9.0,-142.8,329.4,-344.4,-2815.8,330.0,-215.4,-70.2,100.5,49.8,-167.7,-484.2,-6.6,-4.8,-54.0,-128.1,-1.5,103.5,-124.8,37.5,0,120,0,81,0,
0.0700,-80.1,-81.0,-28.8,-92.4,4.8,-147.3,334.5,-345.3,-2815.8,315.9,-223.5,-80.1,94.5,57.6,-136.8,-462.3,-6.0,-4.8,-61.8,-133.8,-1.8,99.3,-120.3,38.4,0,126,0,82,0,
0.0733,-77.4,-84.9,-33.0,-96.0,-1.8,-150.3,328.8,-343.5,-2964.0,305.4,-231.9,-84.6,93.6,63.3,-127.8,-471.9,-6.0,-4.8,-69.6,-138.6,-1.8,90.0,-127.8,32.7,0,132,0,83,0,
0.0767,-77.1,-74.4,-19.5,-80.7,12.3,-142.5,329.1,-336.0,-3260.4,315.6,-212.7,-67.8,99.9,53.7,-165.6,-485.4,-6.0,-4.2,-56.4,-124.8,-1.8,91.5,-138.3,35.7,0,138,0,84,0,
0.0800,-81.6,-81.0,-25.5,-89.1,7.2,-148.2,326.4,-341.7,-3260.4,316.2,-217.8,-73.8,95.1,59.7,-150.9,-483.0,-6.3,-4.5,-62.1,-131.7,-1.8,84.6,-142.5,26.7,0,144,0,85,0,
0.0833,-81.9,-80.4,-25.8,-85.2,9.3,-146.4,336.9,-338.4,-2964.0,309.0,-217.8,-70.5,91.8,53.4,-155.7,-468.3,-6.3,-4.2,-60.0,-129.9,-2.1,82.8,-131.1,26.4,0,150,0,86,0,
0.0867,-87.6,-89.4,-34.2,-99.9,-2.4,-158.7,326.1,-344.4,-2889.9,291.9,-234.9,-87.0,84.0,45.3,-122.1,-456.6,-6.3,-4.8,-75.6,-145.2,-1.8,62.1,-137.4,13.2,0,156,0,87,0,
0.0900,-83.7,-79.8,-21.6,-81.9,13.5,-146.1,329.1,-334.8,-3038.1,316.8,-215.7,-69.6,100.2,48.3,-172.8,-480.0,-6.0,-4.2,-58.5,-126.3,-1.8,81.3,-131.1,28.8,0,162,0,88,0,
0.0933,-81.6,-76.8,-23.4,-85.2,10.2,-147.3,331.5,-337.2,-3260.4,306.9,-218.7,-71.7,99.3,69.0,-164.7,-470.1,-6.0,-4.2,-60.3,-129.6,-1.8,75.0,-129.0,29.4,0,168,0,89,0,
0.0967,-80.7,-76.8,-21.3,-83.1,13.8,-144.6,329.4,-337.5,-3260.4,321.3,-207.6,-64.5,98.4,58.5,-165.3,-475.2,-6.0,-4.5,-53.4,-126.0,-1.8,93.6,-131.4,31.2,0,174,0,90,0,
0.1000,-77.7,-76.2,-20.1,-86.7,9.0,-151.2,324.9,-340.5,-2964.0,322.2,-214.2,-69.9,106.5,66.0,-135.6,-483.3,-6.0,-4.5,-55.5,-129.3,-1.8,91.5,-155.4,27.6,0,180,0,91,0,
0.1033,-79.2,-72.6,-15.0,-74.1,18.0,-142.8,329.7,-333.3,-2815.8,330.6,-202.8,-61.2,109.5,65.7,-158.1,-484.2,-6.3,-4.5,-44.4,-121.8,-1.5,92.7,-140.4,34.2,0,186,0,92,0,
0.1067,-85.2,-81.0,-16.8,-80.7,15.3,-144.6,329.1,-338.1,-2964.0,315.0,-210.3,-66.3,99.0,59.4,-145.5,-470.4,-6.3,-4.5,-50.1,-124.8,-1.5,91.2,-133.2,31.2,0,192,0,93,0,
0.1100,-84.3,-79.2,-15.0,-75.9,20.1,-144.3,330.3,-335.1,-3112.2,318.0,-204.0,-59.7,100.8,59.4,-153.6,-470.1,-6.0,-4.5,-46.2,-119.1,-2.1,95.1,-132.0,37.8,0,198,0,94,0,
0.1133,-88.2,-88.8,-27.0,-90.0,8.7,-154.2,326.4,-346.5,-3186.3,301.5,-215.7,-72.6,92.4,57.6,-124.5,-442.8,-6.3,-4.5,-59.1,-132.0,-1.5,75.6,-137.7,24.9,0,204,0,95,0,
0.1167,-83.4,-88.5,-24.6,-84.9,10.5,-153.6,331.5,-350.1,-2889.9,309.0,-215.1,-70.8,97.2,63.6,-101.7,-445.2,-6.3,-4.5,-59.7,-131.4,-1.8,83.4,-133.2,21.3,0,210,0,96,0,
0.1200,-85.2,-82.2,-20.1,-81.9,12.0,-153.9,331.8,-343.5,-2741.7,324.9,-211.2,-62.4,100.5,60.9,-126.9,-450.0,-6.3,-4.5,-50.7,-125.7,-1.5,100.8,-123.9,32.7,0,216,0,97,0,
0.1233,-81.3,-76.2,-13.2,-74.4,20.7,-144.9,332.1,-336.6,-2964.0,330.9,-198.3,-56.4,106.2,60.0,-132.3,-468.0,-6.0,-4.5,-39.9,-116.4,-1.8,112.8,-126.6,44.4,0,222,0,98,0,
0.1267,-84.3,-85.8,-20.1,-86.4,9.6,-150.0,327.9,-344.7,-3186.3,324.3,-207.9,-67.8,99.0,60.9,-116.1,-451.8,-6.0,-4.2,-50.1,-128.7,-1.8,104.7,-126.3,36.0,0,228,0,99,0,
0.1300,-83.4,-81.3,-21.0,-85.8,10.8,-147.0,329.1,-342.6,-3334.5,326.1,-210.3,-67.8,99.9,72.3,-113.7,-450.3,-5.7,-4.2,-55.8,-127.5,-1.5,104.7,-122.1,39.3,0,234,0,100,0,
0.1333,-88.2,-93.0,-37.2,-98.7,-0.9,-153.0,327.3,-349.8,-2964.0,304.2,-225.0,-81.9,84.9,54.9,-87.6,-419.1,-6.3,-4.5,-65.4,-141.9,-1.5,88.5,-125.1,25.2,0,240,0,101,0,
0.1367,-83.1,-77.1,-16.5,-76.8,18.0,-137.1,338.1,-332.1,-2741.7,335.1,-203.4,-59.7,109.5,53.1,-129.6,-450.6,-6.3,-4.5,-47.7,-120.6,-1.5,104.7,-114.6,38.1,0,246,0,102,0,
0.1400,-90.9,-87.3,-23.7,-89.1,6.9,-148.5,330.6,-340.8,-2964.0,324.3,-214.8,-71.1,97.5,51.0,-123.3,-438.9,-6.3,-4.5,-56.1,-133.8,-1.8,92.7,-119.4,28.5,0,252,0,103,0,
0.1433,-89.7,-90.9,-27.0,-93.0,2.4,-153.9,329.1,-345.6,-3260.4,309.9,-218.1,-78.0,94.2,57.3,-128.1,-441.3,-6.3,-4.2,-63.9,-138.9,-1.8,88.8,-120.6,27.0,0,258,0,104,0,
0.1467,-91.5,-88.8,-26.7,-90.3,2.7,-151.5,333.0,-343.2,-3186.3,318.3,-218.4,-77.1,104.4,63.3,-146.7,-447.3,-6.6,-4.8,-60.9,-139.8,-2.1,81.9,-118.2,28.2,0,264,0,105,0,
0.1500,-88.2,-94.5,-40.5,-100.8,-9.3,-162.0,325.5,-353.1,-3112.2,306.9,-234.0,-88.5,86.4,61.2,-126.9,-439.8,-6.0,-4.8,-75.9,-149.1,-1.5,70.2,-131.7,15.6,0,270,0,106,0,
0.1533,-88.2,-91.8,-35.7,-100.5,-4.8,-161.1,326.7,-349.5,-2889.9,310.5,-226.5,-86.4,84.3,53.1,-144.0,-437.4,-6.3,-4.5,-67.8,-147.6,-1.8,78.6,-126.6,18.0,0,276,0,107,0,
0.1567,-89.1,-89.4,-32.7,-99.6,-0.3,-154.5,324.3,-350.1,-2889.9,316.2,-224.1,-80.7,80.7,46.8,-160.2,-462.3,-6.3,-4.5,-69.3,-139.8,-1.5,85.5,-132.0,25.8,0,282,0,108,0,
0.1600,-87.6,-88.2,-35.4,-99.6,-2.7,-157.2,325.5,-353.4,-3186.3,312.9,-225.9,-80.1,88.8,41.4,-141.3,-446.7,-6.3,-4.5,-66.0,-142.5,-1.5,87.0,-128.7,23.4,0,288,0,109,0,
0.1633,-87.9,-87.3,-43.8,-108.3,-14.1,-160.5,327.3,-357.9,-3186.3,307.5,-233.4,-90.6,88.5,55.2,-108.3,-423.6,-6.3,-4.2,-74.1,-149.4,-1.8,78.3,-126.9,20.7,0,294,0,110,0,
0.1667,-84.6,-81.9,-34.2,-100.2,-7.2,-158.7,329.1,-348.9,-2964.0,315.3,-226.2,-85.5,95.7,65.7,-132.6,-451.2,-6.6,-4.5,-67.2,-145.2,-1.8,88.2,-130.5,22.2,0,300,0,111,0,
0.1700,-85.5,-85.2,-39.0,-100.5,-6.6,-159.6,324.3,-352.8,-2889.9,312.3,-228.3,-83.4,96.9,55.8,-135.0,-460.8,-6.0,-4.5,-69.3,-143.7,-2.1,79.2,-141.3,10.5,0,306,0,112,0,
0.1733,-89.4,-86.1,-42.6,-103.5,-12.6,-165.9,328.5,-351.0,-3038.1,303.3,-234.0,-91.5,94.5,55.2,-133.5,-422.4,-6.3,-4.2,-73.5,-151.8,-1.8,68.7,-127.5,11.4,0,312,0,113,0,
0.1767,-85.5,-84.3,-35.4,-99.9,-6.3,-162.9,324.9,-348.6,-3186.3,317.1,-225.6,-83.1,91.8,62.1,-133.8,-469.8,-6.0,-3.9,-66.9,-143.4,-1.5,83.1,-143.4,17.7,0,318,0,114,0,
0.1800,-90.3,-92.4,-44.1,-107.4,-12.3,-164.4,320.1,-354.6,-3186.3,300.0,-233.4,-89.1,84.9,60.6,-121.2,-473.1,-6.3,-4.5,-76.5,-149.4,-1.8,83.4,-151.8,17.4,0,324,0,115,0,
0.1833,-94.2,-93.3,-45.0,-105.6,-8.7,-164.1,321.0,-351.0,-2964.0,306.0,-233.7,-91.2,85.2,53.4,-143.7,-450.9,-6.3,-4.5,-75.9,-151.8,-1.8,81.9,-150.0,15.6,0,330,0,116,0,
0.1867,-92.1,-87.9,-38.1,-100.2,-9.3,-162.3,326.4,-347.4,-2889.9,313.8,-229.5,-88.5,94.2,42.9,-145.8,-459.6,-6.3,-4.2,-69.3,-151.8,-1.5,78.9,-144.3,10.8,0,336,0,117,0,
0.1900,-89.7,-88.2,-40.5,-99.3,-5.4,-159.6,322.5,-344.7,-3038.1,312.3,-228.3,-88.5,90.6,46.2,-150.9,-469.5,-6.6,-4.2,-69.6,-147.9,-2.1,76.8,-147.0,16.2,0,342,0,118,0,
0.1933,-87.9,-91.8,-45.9,-105.6,-9.3,-164.7,322.2,-349.2,-3186.3,299.7,-235.2,-91.2,84.6,56.7,-133.2,-462.6,-6.0,-4.5,-79.2,-155.4,-2.1,68.1,-139.2,9.3,0,348,0,119,0,
0.1967,-89.1,-93.9,-47.7,-108.3,-10.5,-165.6,321.0,-351.6,-3186.3,294.6,-237.3,-96.0,84.9,53.7,-131.7,-464.7,-6.6,-4.5,-81.3,-159.3,-1.8,66.3,-144.0,6.6,0,354,0,120,0,
0.2000,-92.4,-93.6,-46.2,-107.4,-15.0,-165.9,321.9,-352.8,-3038.1,291.9,-236.7,-97.5,86.4,50.1,-129.0,-442.5,-5.7,-4.5,-80.7,-160.2,-1.8,61.2,-138.6,5.1,0,360,0,121,0,
0.2033,-93.3,-95.1,-46.5,-105.0,-14.1,-168.3,318.9,-354.0,-2741.7,292.5,-236.7,-94.2,84.3,46.5,-129.6,-456.3,-6.0,-4.5,-78.0,-159.0,-1.5,68.1,-138.9,8.1,0,366,0,122,0,
0.2067,-91.8,-97.5,-47.1,-101.1,-11.1,-162.3,325.2,-351.0,-3038.1,295.8,-234.0,-93.3,82.5,47.7,-128.1,-458.1,-6.3,-4.2,-76.8,-156.3,-2.1,67.8,-146.1,12.6,0,372,0,123,0,
0.2100,-90.6,-90.3,-40.5,-96.0,-0.9,-158.1,321.3,-345.3,-3260.4,303.6,-224.7,-81.9,90.0,49.5,-146.7,-484.2,-6.3,-4.5,-66.9,-144.0,-1.5,86.4,-159.3,13.8,0,378,0,124,0,
0.2133,-89.4,-84.0,-29.1,-87.6,6.6,-152.1,327.0,-337.5,-3038.1,310.8,-217.5,-75.3,99.3,43.5,-171.9,-474.6,-6.0,-4.8,-61.5,-139.8,-1.8,88.2,-135.0,14.1,0,384,0,125,0,
0.2167,-93.9,-87.9,-29.4,-90.9,0.9,-158.4,323.4,-336.6,-2964.0,309.9,-222.0,-81.6,89.7,26.1,-191.1,-460.5,-6.3,-4.5,-66.6,-146.7,-1.8,75.3,-133.2,16.2,0,390,0,126,0,
0.2200,-89.7,-86.4,-32.4,-87.6,0.6,-157.5,326.1,-337.8,-2815.8,309.0,-222.9,-80.1,84.0,42.6,-177.3,-464.7,-6.3,-4.2,-66.0,-147.6,-1.8,75.9,-137.4,15.9,0,396,0,127,0,
0.2233,-87.9,-85.2,-32.7,-87.9,1.5,-157.5,326.1,-334.2,-3038.1,306.3,-219.0,-79.2,87.3,45.0,-156.0,-473.4,-6.6,-4.5,-64.2,-145.5,-1.8,78.6,-146.7,13.2,0,402,0,128,0,
0.2267,-89.7,-90.0,-36.6,-92.1,-2.7,-160.5,326.1,-339.0,-3260.4,300.0,-224.1,-84.3,86.7,42.6,-152.4,-467.7,-6.0,-4.5,-72.6,-148.5,-1.5,76.2,-147.0,9.3,0,408,0,129,0,
0.2300,-91.2,-89.7,-39.3,-94.8,-6.3,-167.1,321.3,-340.5,-3186.3,306.3,-226.8,-85.8,93.9,36.6,-151.2,-453.9,-6.3,-4.2,-70.8,-150.9,-1.5,73.8,-151.5,9.3,0,414,0,130,0,
0.2333,-89.4,-89.4,-36.3,-91.8,-3.9,-162.9,322.8,-338.7,-2889.9,304.5,-225.0,-83.7,92.7,45.3,-136.5,-456.6,-6.3,-4.5,-69.3,-147.3,-1.5,61.5,-147.3,9.3,0,420,0,131,0,
0.2367,-88.5,-92.1,-41.1,-97.5,-10.5,-167.4,319.8,-343.2,-2889.9,297.6,-234.3,-93.0,84.6,53.7,-118.2,-448.8,-6.3,-4.5,-78.3,-156.9,-1.5,60.0,-144.9,3.3,0,426,0,132,0,
0.2400,-90.9,-100.8,-52.5,-108.9,-19.2,-171.3,316.2,-353.7,-3038.1,277.2,-244.8,-103.5,74.1,52.8,-93.0,-432.9,-6.6,-3.9,-86.4,-165.6,-1.8,57.6,-145.5,-0.9,0,432,0,133,0,
0.2433,-88.2,-82.8,-31.2,-87.3,1.5,-152.1,327.6,-336.3,-3260.4,309.0,-216.6,-79.2,96.3,50.4,-160.2,-453.9,-6.3,-4.2,-59.7,-143.1,-1.5,84.9,-141.9,18.3,0,438,0,134,0,
0.2467,-86.1,-73.5,-19.2,-79.5,12.3,-140.7,330.6,-332.1,-3186.3,330.6,-201.3,-66.9,106.5,37.5,-197.7,-464.4,-6.3,-4.5,-44.4,-130.8,-2.1,93.6,-135.3,27.6,0,444,0,135,0,
0.2500,-93.3,-85.5,-33.3,-94.5,-3.3,-157.5,325.8,-344.7,-2964.0,308.4,-217.8,-81.9,91.2,32.4,-154.8,-440.7,-6.6,-4.5,-60.3,-147.9,-1.5,76.2,-135.9,15.0,0,450,0,136,0,
0.2533,-93.9,-93.6,-45.9,-107.1,-10.5,-162.0,325.5,-351.0,-2815.8,288.6,-233.4,-94.8,81.9,38.7,-116.7,-418.8,-6.3,-4.2,-76.2,-156.6,-1.8,68.7,-138.9,6.6,0,456,0,137,0,
0.2567,-86.7,-86.1,-38.1,-94.2,0.0,-153.0,328.8,-345.0,-3112.2,308.4,-220.8,-87.3,93.0,37.8,-135.3,-444.0,-6.0,-4.2,-65.7,-147.9,-1.8,78.6,-135.0,15.3,0,462,0,138,0,
0.2600,-89.4,-84.6,-36.3,-98.7,0.0,-155.4,329.7,-347.1,-3186.3,309.3,-222.9,-84.6,94.5,41.1,-148.2,-453.9,-6.3,-4.2,-63.9,-145.5,-1.8,88.8,-146.4,13.8,0,468,0,139,0,
0.2633,-93.9,-95.4,-42.9,-105.9,-12.6,-165.9,321.6,-354.0,-3186.3,300.9,-230.7,-90.3,90.9,44.1,-124.5,-445.8,-5.7,-4.5,-74.7,-153.9,-1.8,72.0,-152.4,4.2,0,474,0,140,0,
0.2667,-90.3,-90.0,-40.2,-104.1,-9.0,-163.2,320.4,-352.5,-2964.0,305.4,-228.9,-87.0,95.1,43.8,-135.0,-465.3,-6.3,-4.8,-69.9,-150.9,-1.8,80.4,-167.1,9.6,0,480,0,141,0,
0.2700,-91.5,-95.7,-40.2,-102.0,-9.6,-160.2,319.8,-354.9,-2815.8,302.7,-227.7,-86.1,88.5,56.4,-147.6,-453.9,-6.3,-3.9,-70.2,-149.7,-1.8,79.5,-149.7,12.6,0,486,0,142,0,
0.2733,-92.7,-90.0,-34.8,-97.8,-2.7,-154.8,323.1,-350.1,-2815.8,308.4,-222.9,-78.6,99.0,47.7,-152.7,-464.7,-6.0,-4.8,-66.3,-143.4,-1.5,84.3,-147.0,15.6,0,492,0,143,0,
0.2767,-93.9,-93.9,-38.1,-103.2,-6.6,-162.3,320.1,-353.4,-3334.5,297.9,-229.5,-84.6,86.7,44.4,-121.2,-443.1,-6.6,-4.2,-74.4,-150.0,-1.8,77.4,-152.1,7.5,0,498,0,144,0,
0.2800,-95.4,-90.6,-37.5,-99.9,-6.3,-162.0,318.0,-349.5,-3260.4,305.7,-224.7,-81.9,86.7,42.6,-135.9,-467.1,-6.3,-4.2,-65.4,-146.1,-1.5,86.1,-159.0,15.0,0,504,0,145,0,
0.2833,-92.7,-87.6,-34.5,-95.4,-4.2,-160.8,322.8,-348.3,-2964.0,307.2,-222.9,-81.6,89.1,49.8,-156.6,-470.4,-6.0,-4.5,-63.3,-146.4,-1.8,74.4,-145.8,10.5,0,510,0,146,0,
0.2867,-91.5,-91.8,-38.1,-101.4,-9.0,-163.8,320.4,-356.4,-2815.8,298.8,-228.0,-87.3,89.4,47.1,-137.7,-452.7,-6.0,-4.5,-69.6,-149.4,-1.8,65.4,-138.6,9.3,0,516,0,147,0,
0.2900,-95.7,-98.7,-50.7,-111.3,-20.1,-174.6,308.4,-362.1,-2964.0,292.8,-235.5,-95.4,80.4,59.4,-113.7,-454.2,-6.3,-4.2,-78.0,-159.6,-1.2,59.7,-148.5,-5.1,0,522,0,148,0,
0.2933,-94.2,-94.2,-46.8,-103.5,-16.2,-169.2,315.0,-356.1,-3186.3,300.3,-231.9,-93.0,83.4,48.9,-139.2,-447.0,-6.0,-4.5,-75.3,-156.3,-2.1,79.8,-149.4,6.3,0,528,0,149,0,
0.2967,-93.9,-89.7,-36.0,-98.7,-8.4,-167.7,319.5,-354.9,-3186.3,318.0,-224.7,-84.0,91.5,48.3,-151.8,-459.9,-6.6,-4.5,-65.1,-146.7,-2.1,78.3,-145.8,9.0,0,534,0,150,0,
0.3000,-96.0,-103.8,-57.6,-117.3,-29.1,-183.0,309.9,-369.9,-3038.1,289.5,-243.0,-103.5,81.9,51.6,-113.7,-440.7,-6.3,-4.2,-86.1,-169.2,-1.8,53.1,-148.8,-9.6,0,540,0,151,0,
0.3033,-96.9,-98.7,-51.0,-114.3,-23.1,-177.9,311.1,-364.5,-2889.9,297.0,-238.8,-97.2,80.7,48.0,-121.8,-454.2,-6.3,-4.5,-82.5,-162.9,-2.1,58.8,-149.7,-0.6,0,546,0,152,0,
0.3067,-92.1,-96.6,-51.3,-107.7,-15.6,-164.7,320.4,-353.4,-3038.1,299.1,-234.0,-91.8,84.3,57.6,-153.0,-463.8,-5.7,-4.5,-76.8,-156.3,-1.5,69.0,-141.9,12.0,0,552,0,153,0,
0.3100,-92.7,-92.4,-43.5,-102.6,-11.4,-155.1,325.2,-347.4,-3186.3,303.3,-225.0,-84.0,84.6,46.5,-168.3,-462.0,-6.3,-4.5,-74.4,-147.0,-1.8,81.9,-128.7,20.7,0,558,0,154,0,
0.3133,-95.7,-98.1,-43.8,-102.3,-6.3,-151.8,331.5,-345.9,-3260.4,305.4,-227.4,-84.6,84.0,33.9,-181.8,-451.5,-6.0,-4.5,-75.6,-145.2,-1.8,87.3,-120.0,19.8,0,564,0,155,0,
0.3167,-95.1,-96.9,-49.8,-110.4,-14.4,-162.3,323.4,-348.0,-2964.0,297.9,-234.6,-87.9,78.6,42.9,-145.2,-464.1,-6.0,-3.9,-81.6,-151.2,-1.8,78.0,-135.0,13.2,0,570,0,156,0,
0.3200,-95.4,-103.5,-59.1,-117.6,-28.5,-171.9,319.8,-357.3,-2889.9,284.4,-243.0,-102.6,74.4,59.1,-102.3,-451.2,-6.6,-4.5,-92.1,-167.4,-1.5,58.2,-144.0,2.1,0,576,0,157,0,
0.3233,-90.6,-95.4,-48.3,-110.1,-18.9,-164.4,325.5,-348.3,-2889.9,298.8,-236.4,-92.7,81.9,48.9,-146.7,-454.5,-6.3,-4.8,-83.1,-155.1,-1.5,74.7,-144.0,15.0,0,582,0,158,0,
0.3267,-91.5,-95.7,-45.0,-108.3,-14.7,-160.5,323.7,-344.7,-3260.4,300.3,-234.3,-89.1,84.0,44.1,-150.3,-453.3,-6.3,-4.2,-80.7,-153.3,-1.8,66.9,-138.9,10.5,0,588,0,159,0,
0.3300,-92.4,-95.1,-42.3,-106.5,-10.5,-158.1,330.3,-342.3,-3112.2,299.7,-228.6,-81.9,84.0,40.2,-159.6,-444.9,-6.3,-4.5,-76.5,-146.4,-1.5,77.7,-128.1,17.1,0,594,0,160,0,
0.3333,-92.1,-93.3,-43.5,-102.9,-8.1,-156.3,328.8,-336.3,-3112.2,306.9,-226.8,-81.6,84.6,41.4,-170.7,-457.5,-6.3,-4.5,-70.2,-144.9,-1.8,86.1,-130.5,20.4,0,600,0,161,0,
0.3367,-96.6,-102.6,-53.4,-111.6,-18.0,-165.9,327.0,-346.2,-2815.8,287.7,-242.7,-95.4,76.2,33.9,-141.9,-435.0,-6.3,-4.8,-87.6,-156.9,-2.1,60.0,-123.6,12.0,0,606,0,162,0,
0.3400,-93.0,-99.6,-51.0,-110.1,-16.8,-163.5,326.1,-349.5,-3038.1,289.8,-239.4,-90.3,76.2,34.5,-138.9,-438.9,-5.7,-4.2,-82.2,-153.9,-1.8,70.8,-124.5,13.2,0,612,0,163,0,
0.3433,-89.1,-88.2,-37.5,-100.5,-4.8,-153.6,333.0,-341.1,-3186.3,310.5,-223.5,-78.6,90.6,39.9,-180.3,-458.4,-6.3,-4.5,-66.3,-142.8,-1.8,87.9,-127.2,21.3,0,618,0,164,0,
0.3467,-85.5,-83.7,-33.3,-97.5,-2.1,-151.8,328.2,-340.5,-3260.4,306.0,-219.3,-75.0,92.1,47.4,-169.2,-475.8,-6.6,-4.5,-67.8,-139.2,-1.8,84.6,-134.1,20.7,0,624,0,165,0,
0.3500,-85.2,-85.8,-37.2,-104.7,-7.8,-159.3,324.0,-349.5,-3186.3,309.9,-224.1,-84.9,93.6,57.3,-129.9,-466.2,-6.6,-4.5,-69.0,-146.7,-1.8,81.3,-133.5,16.2,0,630,0,166,0,
0.3533,-87.0,-90.9,-41.7,-106.8,-9.6,-161.1,324.3,-351.0,-2741.7,312.3,-223.8,-84.3,86.1,56.1,-128.7,-461.7,-5.7,-4.5,-69.0,-147.0,-1.8,84.9,-135.6,13.8,0,636,0,167,0,
0.3567,-84.9,-87.9,-42.0,-108.6,-11.1,-159.6,327.6,-350.1,-3038.1,306.3,-227.7,-83.7,85.8,65.4,-139.5,-451.8,-6.3,-4.5,-69.6,-146.1,-1.8,83.1,-127.8,15.3,0,642,0,168,0,
0.3600,-86.1,-85.8,-44.1,-112.2,-12.6,-155.1,330.3,-354.3,-3186.3,302.7,-229.2,-84.9,90.3,54.0,-133.2,-438.0,-6.0,-4.5,-69.6,-149.1,-1.8,79.5,-123.6,18.9,0,648,0,169,0,
0.3633,-88.5,-94.2,-48.6,-115.8,-17.7,-159.9,329.7,-359.1,-3112.2,302.4,-233.7,-90.9,84.9,53.1,-126.3,-431.4,-6.0,-4.8,-77.1,-150.9,-1.8,72.6,-122.7,8.1,0,654,0,170,0,
0.3667,-88.8,-94.5,-50.7,-115.5,-18.0,-165.9,321.0,-360.6,-2964.0,295.5,-234.3,-90.0,83.7,61.5,-105.3,-438.6,-6.3,-4.8,-77.4,-153.3,-1.8,75.6,-136.5,11.1,0,660,0,171,0,
0.3700,-89.1,-86.1,-42.3,-111.3,-14.7,-160.2,327.9,-355.8,-2815.8,311.4,-231.0,-88.5,97.2,54.0,-151.5,-463.2,-6.3,-4.5,-68.1,-148.5,-1.8,83.4,-132.3,11.4,0,666,0,172,0,
0.3733,-91.8,-89.7,-42.9,-109.8,-10.8,-157.5,330.6,-356.1,-2964.0,307.8,-230.4,-86.1,94.5,45.0,-164.7,-453.6,-6.0,-4.5,-70.8,-146.4,-1.8,77.7,-120.6,13.2,0,672,0,173,0,
0.3767,-91.5,-89.1,-39.9,-109.2,-9.6,-156.6,326.1,-355.2,-3260.4,314.4,-230.4,-84.9,101.1,46.2,-150.6,-450.6,-6.3,-4.2,-69.9,-147.0,-1.8,81.0,-126.0,11.7,0,678,0,174,0,
0.3800,-96.6,-92.4,-38.4,-108.6,-7.8,-156.6,321.3,-354.9,-3334.5,312.6,-227.7,-82.5,92.4,46.5,-147.3,-451.2,-6.0,-4.5,-70.2,-145.5,-2.1,91.2,-131.7,19.5,0,684,0,175,0,
0.3833,-93.9,-94.5,-43.5,-112.2,-13.8,-161.1,319.5,-361.2,-2964.0,300.3,-230.7,-91.8,90.9,61.2,-125.4,-442.5,-6.0,-4.2,-74.7,-154.2,-1.8,74.1,-134.7,6.3,0,690,0,176,0,
0.3867,-92.4,-90.6,-40.2,-105.6,-8.7,-159.0,327.3,-354.3,-2964.0,299.1,-227.1,-87.0,90.6,54.3,-127.5,-435.6,-6.0,-4.2,-70.5,-146.7,-1.8,75.3,-123.6,8.7,0,696,0,177,0,
0.3900,-90.6,-97.2,-50.1,-113.1,-16.5,-164.7,322.8,-355.5,-2964.0,286.2,-238.2,-94.2,85.2,63.0,-103.5,-453.9,-6.3,-4.2,-81.3,-153.6,-1.8,66.6,-137.4,0.3,0,702,0,178,0,
0.3933,-88.2,-89.4,-41.7,-106.8,-9.0,-163.8,321.9,-354.6,-3186.3,305.7,-230.7,-86.1,92.4,60.0,-102.9,-453.6,-6.6,-4.5,-75.9,-147.3,-1.5,64.8,-145.8,-0.6,0,708,0,179,0,
0.3967,-87.3,-79.5,-28.2,-98.1,3.0,-154.2,326.4,-346.5,-3112.2,321.9,-213.3,-72.6,108.3,54.0,-142.5,-450.9,-6.0,-4.5,-59.1,-134.1,-1.8,87.0,-129.0,13.8,0,714,0,180,0,
0.4000,-86.4,-82.2,-31.2,-99.3,-0.9,-157.2,328.8,-348.3,-3038.1,316.2,-220.5,-73.5,96.6,54.9,-152.1,-430.8,-6.3,-4.5,-64.5,-137.1,-1.5,83.7,-123.0,15.3,0,720,0,181,0,
0.4033,-87.0,-84.9,-33.6,-96.3,-0.3,-152.4,325.2,-342.9,-2889.9,310.2,-215.1,-75.6,91.2,51.6,-150.6,-456.9,-6.0,-4.5,-61.5,-137.7,-1.8,85.8,-129.0,18.9,0,726,0,182,0,
0.4067,-89.1,-83.4,-29.1,-92.4,4.5,-150.3,329.1,-340.5,-2964.0,309.3,-216.6,-72.6,92.7,46.2,-169.5,-445.8,-6.3,-4.5,-63.3,-135.9,-1.5,81.3,-106.5,21.9,0,732,0,183,0,
0.4100,-88.5,-91.8,-36.3,-101.4,-5.4,-157.2,321.3,-349.2,-3260.4,303.9,-226.2,-81.6,88.5,58.5,-118.2,-441.6,-6.3,-4.5,-75.0,-142.2,-1.8,72.9,-117.0,9.6,0,738,0,184,0,
0.4133,-92.1,-88.2,-30.9,-96.3,5.4,-149.1,329.4,-341.4,-3186.3,305.7,-217.5,-70.2,90.3,45.6,-133.5,-444.6,-6.0,-4.5,-67.8,-132.6,-1.5,90.0,-113.4,23.7,0,744,0,185,0,
0.4167,-97.2,-91.8,-33.9,-100.5,1.5,-151.5,328.8,-347.1,-3038.1,296.4,-224.7,-76.5,88.5,43.5,-140.4,-430.5,-6.0,-4.5,-73.2,-138.0,-1.8,72.0,-118.5,12.0,0,750,0,186,0,
0.4200,-97.5,-87.9,-29.1,-95.4,4.5,-143.4,332.7,-346.2,-2741.7,302.4,-220.2,-72.3,88.5,34.8,-162.6,-438.3,-6.6,-4.5,-69.3,-132.6,-1.5,81.9,-111.0,21.0,0,756,0,187,0,
0.4233,-87.9,-73.2,-16.8,-79.8,18.9,-137.1,334.2,-338.7,-2964.0,318.6,-203.7,-58.8,100.2,50.1,-154.2,-475.8,-6.3,-4.5,-52.2,-120.3,-1.5,98.7,-126.9,26.1,0,762,0,188,0,
0.4267,-90.6,-83.1,-23.7,-87.3,10.5,-145.2,330.6,-343.2,-3038.1,313.5,-212.4,-68.7,92.4,53.1,-132.0,-456.3,-6.3,-4.2,-65.4,-129.9,-1.5,90.0,-129.6,22.5,0,768,0,189,0,
0.4300,-97.2,-86.1,-25.2,-90.3,7.5,-146.4,332.7,-344.7,-3260.4,316.5,-215.7,-71.4,98.4,34.8,-164.1,-443.7,-6.3,-4.8,-63.0,-130.5,-1.8,83.7,-117.0,24.6,0,774,0,190,0,
0.4333,-94.2,-90.6,-33.6,-98.4,5.1,-150.6,327.3,-350.1,-2964.0,308.4,-218.7,-72.6,98.7,47.7,-134.7,-446.4,-6.0,-4.5,-66.9,-134.1,-1.5,83.4,-131.4,23.4,0,780,0,191,0,
0.4367,-91.2,-87.9,-35.7,-99.0,-1.8,-152.4,328.8,-348.6,-2889.9,311.1,-222.0,-75.6,104.1,53.1,-135.6,-442.2,-6.0,-4.8,-67.8,-140.4,-1.8,72.0,-122.4,16.2,0,786,0,192,0,
0.4400,-85.2,-88.8,-40.5,-99.6,-2.1,-155.4,329.7,-350.1,-3038.1,307.8,-222.9,-76.8,102.0,61.5,-125.1,-452.7,-6.3,-4.2,-69.9,-141.6,-1.5,74.7,-122.1,18.0,0,792,0,193,0,
0.4433,-89.1,-87.3,-39.0,-94.2,5.1,-147.6,327.3,-345.6,-3186.3,305.1,-222.9,-71.7,97.5,54.3,-157.2,-463.8,-6.3,-4.5,-70.5,-132.3,-1.8,85.2,-126.6,21.9,0,798,0,194,0,
0.4467,-88.8,-85.8,-33.3,-90.3,7.5,-141.6,333.9,-342.0,-3260.4,313.2,-217.8,-66.6,100.2,42.9,-168.3,-444.0,-6.0,-4.2,-66.3,-127.5,-2.1,87.3,-114.0,28.5,0,804,0,195,0,
0.4500,-87.9,-84.6,-35.4,-89.1,11.7,-141.3,336.9,-343.8,-2815.8,307.8,-214.8,-66.6,98.4,37.5,-159.0,-438.6,-6.0,-4.5,-63.3,-126.6,-1.8,88.8,-118.2,30.6,0,810,0,196,0,
0.4533,-93.0,-85.5,-33.3,-92.4,6.0,-143.1,339.9,-343.2,-2889.9,304.2,-218.7,-68.1,96.0,36.9,-153.6,-423.9,-6.0,-4.2,-63.0,-131.1,-1.5,86.4,-106.2,32.1,0,816,0,197,0,
0.4567,-91.8,-82.2,-33.0,-93.3,9.3,-136.8,337.5,-340.2,-2889.9,306.6,-213.9,-66.3,98.4,51.0,-154.8,-461.7,-6.3,-4.8,-63.0,-125.7,-1.8,96.3,-113.4,31.5,0,822,0,198,0,
0.4600,-92.4,-83.7,-40.8,-102.6,0.6,-149.1,327.0,-345.6,-3186.3,300.3,-224.1,-72.3,90.3,59.4,-118.2,-454.5,-6.3,-4.8,-69.6,-137.4,-1.8,78.6,-134.1,17.4,0,828,0,199,0,
0.4633,-90.9,-85.8,-42.3,-96.6,3.0,-145.2,331.2,-345.3,-3260.4,305.4,-223.2,-70.5,93.6,46.5,-128.1,-447.6,-6.3,-4.5,-74.4,-132.3,-1.8,78.0,-128.7,21.6,0,834,0,200,0,
0.4667,-89.1,-84.9,-35.1,-95.7,8.1,-142.5,330.3,-342.0,-3038.1,303.3,-219.0,-67.5,98.1,38.4,-151.5,-453.6,-6.6,-4.5,-68.7,-132.0,-1.5,84.0,-120.0,25.2,0,840,0,201,0,
0.4700,-90.9,-81.0,-35.1,-93.6,10.5,-135.0,336.0,-339.3,-2815.8,312.6,-216.9,-66.3,102.0,39.9,-181.2,-446.4,-6.6,-4.5,-64.8,-128.1,-1.8,95.7,-110.7,34.5,0,846,0,202,0,
0.4733,-92.1,-84.9,-36.6,-97.8,4.8,-142.2,330.0,-343.8,-3038.1,309.6,-222.6,-70.8,100.2,45.9,-163.5,-456.0,-6.0,-4.2,-70.2,-131.4,-2.4,87.3,-121.5,25.8,0,852,0,203,0,
0.4767,-88.2,-83.4,-36.9,-101.4,0.3,-144.6,325.5,-345.3,-3112.2,309.3,-225.0,-78.6,103.5,55.8,-144.3,-469.2,-6.3,-4.8,-70.8,-138.0,-1.5,79.8,-132.9,19.5,0,858,0,204,0,
0.4800,-93.0,-95.1,-50.7,-114.9,-12.3,-154.8,325.8,-357.3,-3260.4,285.6,-239.4,-90.6,89.7,52.5,-117.6,-435.0,-6.0,-4.5,-87.6,-150.3,-2.1,66.3,-118.8,15.9,0,864,0,205,0,
0.4833,-92.4,-91.5,-46.8,-111.9,-11.1,-153.0,323.4,-353.4,-2889.9,294.3,-237.3,-87.6,92.7,48.6,-115.8,-445.2,-6.3,-4.5,-83.4,-146.1,-1.8,75.3,-124.5,17.4,0,870,0,206,0,
0.4867,-90.9,-91.5,-43.2,-113.4,-15.6,-155.7,321.6,-354.0,-2815.8,295.5,-231.9,-87.3,90.0,46.8,-124.5,-449.4,-6.3,-4.5,-82.5,-147.9,-1.8,78.6,-123.9,12.9,0,876,0,207,0,
0.4900,-93.6,-83.1,-33.3,-106.2,-5.4,-147.6,327.6,-351.3,-2964.0,317.1,-220.8,-77.1,102.3,35.1,-164.4,-436.2,-6.0,-4.5,-69.6,-136.2,-1.8,91.2,-116.1,28.5,0,882,0,208,0,
0.4933,-89.4,-96.0,-51.9,-118.8,-18.6,-156.9,327.6,-357.6,-3112.2,288.6,-245.4,-97.5,84.6,53.1,-114.0,-425.4,-6.0,-4.5,-93.0,-153.9,-1.8,69.6,-118.2,15.9,0,888,0,209,0,
0.4967,-98.1,-106.2,-62.1,-129.6,-28.8,-167.7,322.5,-367.8,-3408.6,276.3,-263.4,-111.9,70.8,52.2,-112.5,-426.0,-6.3,-4.2,-109.8,-168.3,-1.8,49.2,-121.5,3.9,0,894,0,210,0,
0.5000,-96.3,-93.3,-43.2,-114.3,-12.6,-157.2,326.7,-354.6,-2964.0,304.2,-234.6,-93.0,86.7,41.4,-164.1,-451.2,-6.0,-4.2,-83.7,-151.5,-1.8,73.8,-113.4,15.0,0,900,0,211,0,
0.5033,-99.6,-95.1,-42.6,-113.1,-11.4,-156.0,324.3,-351.3,-2815.8,300.9,-229.2,-89.7,87.6,34.2,-175.5,-457.5,-6.0,-4.2,-74.1,-148.2,-1.8,81.0,-117.9,21.3,0,906,0,212,0,
0.5067,-93.0,-91.8,-41.1,-113.4,-17.7,-158.7,325.5,-350.7,-2964.0,307.8,-221.7,-90.0,95.1,48.3,-153.6,-460.2,-6.3,-4.5,-68.7,-152.7,-1.5,73.2,-127.8,13.2,0,912,0,213,0,
0.5100,-96.6,-89.7,-40.8,-114.0,-12.6,-152.1,329.7,-353.1,-3334.5,307.5,-221.7,-86.7,94.8,37.2,-165.3,-443.1,-6.3,-4.5,-68.1,-147.0,-1.8,83.4,-121.5,17.1,0,918,0,214,0,
0.5133,-97.2,-95.7,-50.7,-119.1,-23.4,-160.8,324.3,-355.5,-3112.2,290.7,-234.6,-94.5,83.4,40.5,-144.0,-431.7,-6.3,-4.5,-84.0,-154.5,-1.8,67.5,-127.8,11.7,0,924,0,215,0,
0.5167,-98.4,-102.9,-60.0,-128.1,-29.1,-170.7,318.3,-365.4,-2964.0,270.9,-248.4,-103.5,79.8,43.5,-96.9,-429.0,-6.0,-4.2,-95.7,-164.4,-1.8,52.5,-134.1,-1.5,0,930,0,216,0,
0.5200,-98.4,-98.4,-55.8,-124.5,-24.6,-166.8,318.3,-362.7,-2889.9,286.8,-243.9,-101.4,78.0,35.1,-118.8,-448.8,-6.3,-4.2,-92.1,-160.8,-1.8,62.4,-137.1,2.1,0,936,0,217,0,
0.5233,-102.6,-96.3,-50.1,-115.8,-14.1,-156.9,328.8,-352.8,-3038.1,300.9,-235.8,-91.5,87.3,23.1,-166.2,-445.8,-5.7,-4.2,-83.4,-150.6,-1.8,67.8,-126.9,15.3,0,942,0,218,0,
0.5267,-99.0,-89.1,-44.4,-108.6,-7.2,-147.6,333.6,-349.5,-3112.2,307.2,-222.6,-78.0,93.9,31.2,-177.9,-464.1,-6.0,-4.5,-73.2,-138.3,-2.1,83.7,-131.7,24.6,0,948,0,219,0,
0.5300,-95.4,-89.4,-44.1,-108.6,-9.9,-148.8,328.2,-350.1,-3260.4,307.2,-224.7,-77.4,104.4,42.0,-155.1,-460.5,-6.0,-4.8,-78.3,-138.3,-1.8,81.3,-132.9,14.1,0,954,0,220,0,
0.5333,-96.9,-95.1,-52.8,-117.6,-17.7,-160.2,325.8,-359.7,-2964.0,300.3,-235.5,-87.9,94.2,43.2,-144.3,-462.6,-6.3,-4.8,-90.0,-148.2,-2.1,58.8,-127.2,8.4,0,960,0,221,0,
0.5367,-98.1,-93.6,-51.9,-121.2,-18.3,-161.7,321.9,-359.1,-2815.8,295.5,-237.9,-96.0,89.7,58.2,-114.0,-457.2,-6.3,-4.2,-87.0,-150.3,-1.8,59.7,-145.8,7.8,0,966,0,222,0,
0.5400,-98.1,-93.3,-52.2,-122.4,-20.4,-156.6,324.3,-361.5,-3038.1,289.2,-240.9,-97.5,85.5,44.4,-126.9,-446.1,-6.6,-4.5,-92.7,-151.8,-1.8,63.9,-133.5,7.2,0,972,0,223,0,
0.5433,-99.6,-93.6,-43.8,-115.8,-15.6,-156.3,329.7,-358.8,-3260.4,301.8,-230.7,-91.5,87.0,38.4,-141.9,-444.9,-6.3,-4.2,-82.8,-147.0,-2.1,68.4,-119.1,8.4,0,978,0,224,0,
0.5467,-98.1,-96.9,-51.3,-122.1,-22.5,-162.0,326.7,-364.2,-3186.3,304.2,-240.6,-97.5,84.6,45.3,-135.3,-443.1,-6.3,-4.8,-90.6,-153.6,-1.8,67.2,-128.1,8.1,0,984,0,225,0,
0.5500,-98.4,-96.0,-51.6,-120.3,-17.1,-162.9,331.8,-361.2,-2889.9,288.9,-242.7,-96.3,83.4,49.2,-136.2,-436.2,-6.3,-4.5,-89.1,-149.7,-1.8,61.2,-125.1,6.6,0,990,0,226,0,
0.5533,-97.2,-94.5,-44.7,-117.0,-14.7,-157.5,331.8,-354.9,-2815.8,305.1,-240.0,-94.5,97.8,34.2,-142.5,-458.1,-6.3,-4.8,-87.0,-147.9,-2.1,68.4,-129.6,8.1,0,996,0,227,0,
0.5567,-92.1,-84.3,-36.0,-109.8,-3.0,-153.6,331.8,-352.2,-2964.0,305.4,-229.5,-85.5,98.7,56.4,-147.3,-473.1,-6.3,-4.5,-76.2,-139.2,-1.5,88.5,-127.5,19.5,0,1002,0,228,0,
0.5600,-92.1,-84.3,-32.1,-107.1,-1.2,-152.4,335.4,-350.1,-3186.3,305.7,-226.2,-80.1,97.8,49.2,-169.2,-461.4,-6.0,-4.2,-74.7,-133.8,-1.8,92.4,-120.9,27.3,0,1008,0,229,0,
0.5633,-96.6,-90.0,-43.5,-114.0,-5.1,-154.2,331.2,-354.0,-3112.2,290.1,-236.7,-86.7,88.5,48.3,-143.7,-446.7,-6.3,-4.5,-87.9,-141.9,-1.5,78.3,-118.8,16.2,0,1014,0,230,0,
0.5667,-96.6,-93.0,-45.6,-115.8,-12.3,-159.6,330.3,-355.8,-2964.0,286.8,-238.2,-93.6,87.3,43.8,-132.0,-436.8,-6.0,-4.2,-89.7,-150.0,-2.1,63.6,-123.6,9.0,0,1020,0,231,0,
0.5700,-91.2,-73.2,-20.7,-89.7,13.2,-137.1,340.5,-334.8,-2889.9,319.8,-210.9,-62.4,105.6,42.3,-181.5,-453.9,-6.3,-5.1,-58.5,-116.7,-1.8,105.3,-96.6,39.3,0,1026,0,232,0,
0.5733,-89.4,-80.1,-31.8,-102.9,6.3,-148.5,331.8,-345.9,-3038.1,306.3,-220.8,-73.2,101.1,57.3,-126.9,-441.3,-6.3,-4.5,-68.1,-128.7,-1.8,78.0,-116.7,23.4,0,1032,0,233,0,
0.5767,-89.4,-77.7,-31.5,-97.8,8.4,-147.6,328.5,-342.0,-3112.2,310.5,-219.0,-67.5,105.3,57.0,-133.2,-455.4,-6.6,-4.2,-65.7,-124.2,-1.5,93.9,-116.4,27.0,0,1038,0,234,0,
0.5800,-89.4,-80.4,-25.2,-98.7,7.5,-145.2,332.1,-346.8,-3260.4,317.7,-215.4,-69.6,104.1,53.1,-158.4,-454.5,-6.3,-3.9,-63.6,-122.1,-2.1,92.7,-111.0,30.6,0,1044,0,235,0,
0.5833,-97.8,-84.3,-34.5,-107.4,-1.2,-153.9,327.0,-349.8,-3038.1,308.4,-223.8,-76.2,98.1,50.4,-143.4,-456.6,-6.3,-4.5,-70.8,-132.6,-1.8,78.0,-114.0,21.0,0,1050,0,236,0,
0.5867,-93.9,-87.0,-34.8,-113.1,-4.2,-149.4,327.9,-357.3,-2741.7,307.5,-227.1,-78.0,99.6,50.4,-142.8,-451.5,-6.3,-5.1,-75.0,-133.2,-1.8,85.2,-115.2,24.9,0,1056,0,237,0,
0.5900,-96.9,-91.2,-41.4,-115.5,-7.8,-154.8,329.1,-362.1,-3038.1,297.3,-236.7,-85.2,92.1,54.0,-128.7,-420.0,-6.0,-4.2,-85.2,-138.3,-1.5,78.0,-98.4,23.1,0,1062,0,238,0,
0.5933,-97.5,-88.2,-30.9,-105.0,1.2,-144.9,329.1,-352.5,-3260.4,311.1,-222.9,-71.4,96.0,57.6,-148.5,-461.7,-6.3,-4.5,-70.8,-129.6,-1.8,89.4,-121.2,29.7,0,1068,0,239,0,
0.5967,-92.4,-81.3,-27.9,-100.2,5.1,-144.6,327.9,-342.6,-3260.4,319.5,-221.1,-66.6,103.8,51.3,-156.3,-471.3,-6.0,-4.2,-66.6,-126.0,-1.8,85.8,-119.1,21.3,0,1074,0,240,0,
0.6000,-95.4,-82.2,-32.7,-103.5,0.0,-152.4,325.2,-346.8,-2964.0,304.2,-229.8,-76.8,95.4,48.0,-170.4,-463.2,-6.3,-4.8,-76.2,-133.5,-2.1,78.0,-114.3,18.9,0,1080,0,241,0,
0.6033,-92.1,-85.8,-37.5,-107.1,-4.8,-156.0,327.0,-352.8,-2889.9,303.0,-230.1,-80.4,94.8,57.0,-153.0,-456.6,-6.0,-4.5,-78.3,-139.5,-1.5,79.8,-108.9,20.4,0,1086,0,242,0,
0.6067,-93.6,-93.0,-48.3,-118.2,-16.8,-165.3,317.7,-360.0,-2889.9,287.1,-242.7,-93.6,87.0,50.1,-115.8,-428.7,-6.3,-4.5,-90.3,-150.0,-2.1,56.7,-122.4,3.0,0,1092,0,243,0,
0.6100,-93.9,-97.8,-48.9,-123.6,-21.3,-170.1,314.7,-367.2,-3112.2,289.5,-246.0,-97.2,84.0,51.6,-114.3,-431.1,-6.6,-4.5,-92.4,-153.6,-1.8,63.6,-129.6,-0.9,0,1098,0,244,0,
0.6133,-94.8,-93.9,-39.0,-112.8,-12.9,-161.7,318.3,-358.8,-3186.3,304.8,-233.4,-87.6,88.2,34.5,-171.6,-452.1,-6.3,-4.5,-82.8,-148.2,-1.5,81.6,-131.4,13.8,0,1104,0,245,0,
0.6167,-92.1,-95.4,-44.7,-119.1,-21.0,-170.4,315.9,-361.8,-3038.1,307.8,-238.8,-93.3,100.5,47.7,-137.4,-457.2,-6.0,-4.5,-84.3,-156.3,-1.5,68.1,-135.9,3.9,0,1110,0,246,0,
0.6200,-93.0,-99.0,-51.6,-129.3,-31.5,-178.2,315.6,-366.6,-2889.9,287.1,-249.6,-103.5,93.9,57.0,-102.6,-439.2,-6.6,-4.5,-96.0,-163.8,-1.5,50.7,-131.4,-6.9,0,1116,0,247,0,
0.6233,-95.1,-97.2,-51.6,-122.1,-23.1,-172.8,317.1,-364.8,-2964.0,291.9,-245.1,-97.8,85.5,48.6,-113.1,-455.7,-6.0,-4.8,-90.9,-154.8,-1.5,68.4,-134.4,1.5,0,1122,0,248,0,
0.6267,-94.2,-90.0,-39.0,-113.1,-12.3,-164.7,324.6,-357.0,-3186.3,302.7,-231.6,-87.6,91.5,36.3,-162.9,-454.2,-6.3,-4.5,-79.8,-147.3,-2.1,82.8,-123.9,10.5,0,1128,0,249,0,
0.6300,-92.7,-90.9,-37.5,-113.4,-13.2,-164.7,324.9,-357.9,-3186.3,305.4,-231.3,-87.0,105.0,48.9,-151.8,-453.9,-6.0,-4.5,-80.4,-147.0,-1.8,86.7,-120.9,15.0,0,1134,0,250,0,
0.6333,-89.1,-87.0,-33.9,-108.0,-10.5,-159.6,325.2,-352.8,-2889.9,311.1,-225.3,-80.1,101.1,51.9,-157.2,-468.6,-6.6,-4.8,-74.7,-143.1,-2.1,93.0,-112.5,23.1,0,1140,0,251,0,
0.6367,-89.1,-91.8,-43.2,-116.1,-18.3,-164.1,322.2,-360.6,-2815.8,301.5,-237.6,-93.6,100.5,53.7,-135.9,-458.4,-6.3,-4.5,-87.0,-154.2,-2.1,76.5,-117.6,11.4,0,1146,0,252,0,
0.6400,-89.1,-92.7,-42.9,-121.8,-20.1,-166.8,320.1,-361.5,-3038.1,292.2,-242.4,-97.2,90.0,51.3,-125.1,-455.4,-6.3,-4.5,-91.8,-157.8,-1.5,64.8,-120.9,-0.3,0,1152,0,253,0,
0.6433,-94.8,-102.6,-47.7,-123.9,-27.6,-169.5,315.6,-368.4,-3186.3,284.1,-248.4,-100.2,75.6,52.8,-113.1,-450.6,-6.0,-4.2,-92.7,-162.0,-1.8,61.2,-127.2,-1.8,0,1158,0,254,0,
0.6467,-90.9,-89.1,-39.3,-114.9,-15.6,-161.4,321.6,-356.1,-3260.4,308.1,-233.7,-88.5,94.8,57.9,-147.6,-463.5,-6.0,-4.2,-81.9,-151.2,-2.1,65.7,-123.0,5.7,0,1164,0,255,0,
0.6500,-88.2,-95.1,-41.4,-113.7,-15.6,-162.6,321.6,-356.1,-2964.0,301.5,-237.6,-93.9,93.6,45.3,-137.4,-432.6,-6.0,-4.2,-84.6,-155.4,-2.1,57.6,-122.7,8.4,0,1170,0,0,0,
0.6533,-87.0,-84.3,-33.6,-109.5,-9.6,-156.6,324.0,-349.5,-2815.8,309.6,-229.5,-91.8,105.9,48.3,-132.0,-460.5,-6.3,-4.5,-74.4,-151.2,-1.8,70.2,-123.6,9.0,0,1176,0,1,0,
0.6567,-83.7,-83.1,-28.8,-99.3,-2.4,-148.8,331.8,-341.4,-2889.9,311.4,-219.3,-78.9,102.0,59.4,-165.0,-459.3,-6.3,-4.5,-69.0,-138.6,-1.8,95.7,-103.2,25.2,0,1182,0,2,0,
0.6600,-90.3,-87.0,-35.7,-109.8,-12.9,-158.4,323.7,-348.9,-3260.4,302.1,-233.7,-90.9,93.6,46.2,-155.7,-457.5,-6.3,-4.2,-81.6,-150.3,-1.8,75.0,-111.3,14.7,0,1188,0,3,0,
0.6633,-92.1,-84.3,-28.8,-103.2,-9.6,-156.6,323.7,-346.2,-3260.4,305.1,-227.1,-88.5,96.0,45.3,-159.9,-474.0,-6.3,-4.2,-78.3,-147.3,-1.5,81.9,-112.8,18.0,0,1194,0,4,0,
0.6667,-90.0,-91.2,-36.6,-112.8,-15.6,-161.7,321.9,-353.7,-3038.1,288.3,-240.3,-95.1,88.2,54.6,-135.0,-462.6,-6.3,-4.2,-86.1,-150.6,-1.8,74.4,-117.0,13.5,0,1200,0,5,0,
0.6700,-91.5,-95.7,-42.0,-120.3,-21.0,-166.5,320.1,-360.6,-2815.8,294.3,-244.2,-100.8,86.4,42.9,-139.8,-441.3,-6.3,-4.5,-89.7,-156.0,-2.1,63.6,-117.0,12.3,0,1206,0,6,0,
0.6733,-93.0,-100.5,-51.9,-128.4,-29.1,-173.4,312.6,-366.6,-3112.2,284.7,-254.1,-113.4,85.5,52.8,-119.4,-452.7,-6.3,-4.2,-100.5,-167.7,-1.8,48.0,-128.1,-1.5,0,1212,0,7,0,
0.6767,-92.7,-98.7,-46.2,-120.3,-23.7,-167.7,316.8,-360.3,-3334.5,291.6,-246.0,-102.3,88.8,39.3,-143.7,-453.3,-6.0,-4.5,-90.0,-160.5,-1.8,63.6,-120.6,7.2,0,1218,0,8,0,
0.6800,-93.9,-95.1,-44.4,-116.7,-18.0,-160.5,320.7,-356.7,-3112.2,294.9,-242.4,-95.4,91.2,37.8,-161.4,-461.1,-6.3,-4.5,-87.6,-151.2,-1.8,67.8,-123.9,9.9,0,1224,0,9,0,
0.6833,-95.4,-96.6,-45.3,-118.2,-22.2,-168.0,313.5,-357.0,-3038.1,295.5,-244.5,-101.1,92.1,51.6,-155.7,-477.6,-6.3,-4.5,-90.0,-157.2,-1.8,58.5,-136.2,2.7,0,1230,0,10,0,
0.6867,-93.6,-91.5,-40.2,-114.0,-16.5,-159.9,321.0,-354.0,-2964.0,303.3,-237.9,-90.3,96.9,39.6,-165.0,-480.0,-6.3,-4.8,-84.6,-147.0,-2.4,71.7,-143.4,16.8,0,1236,0,11,0,
0.6900,-102.3,-104.4,-52.5,-126.6,-28.5,-172.2,313.8,-361.2,-2964.0,290.1,-251.1,-104.7,82.2,36.6,-138.3,-466.2,-6.6,-4.8,-95.4,-162.3,-1.8,57.9,-141.3,-0.6,0,1242,0,12,0,
0.6933,-104.4,-109.8,-59.1,-134.1,-30.9,-172.8,315.3,-365.4,-3408.6,285.0,-258.6,-111.3,72.3,33.0,-132.6,-457.8,-6.0,-4.8,-107.7,-166.5,-1.5,45.9,-135.3,-4.2,0,1248,0,13,0,
0.6967,-100.2,-111.0,-59.1,-136.8,-32.4,-174.3,319.2,-369.6,-3260.4,277.5,-260.7,-114.9,73.8,33.3,-118.2,-449.1,-6.6,-4.8,-109.8,-169.8,-1.8,40.5,-125.7,-5.4,0,1254,0,14,0,
0.7000,-101.1,-101.4,-49.8,-123.6,-19.8,-162.9,323.1,-359.1,-3038.1,282.3,-250.2,-103.8,76.2,34.8,-153.6,-465.3,-6.0,-4.2,-96.3,-157.8,-1.8,54.0,-119.7,6.0,0,1260,0,15,0,
0.7033,-102.6,-96.0,-37.5,-114.3,-10.8,-152.1,325.8,-354.3,-2815.8,299.1,-240.6,-93.6,83.7,31.2,-180.6,-467.1,-6.3,-4.5,-87.6,-149.4,-1.8,75.6,-121.2,15.3,0,1266,0,16,0,
0.7067,-102.9,-93.9,-35.4,-110.4,-9.6,-155.4,326.7,-351.6,-2964.0,296.1,-236.7,-91.2,84.0,38.7,-167.1,-467.4,-6.3,-4.8,-82.8,-150.0,-1.5,81.3,-117.9,15.6,0,1272,0,17,0,
0.7100,-102.3,-93.9,-33.0,-111.9,-11.4,-154.5,323.4,-355.5,-3260.4,303.6,-233.7,-88.8,91.5,32.7,-173.1,-463.5,-6.6,-4.5,-84.0,-149.1,-1.5,83.4,-105.9,14.4,0,1278,0,18,0,
0.7133,-101.4,-99.0,-39.3,-114.3,-16.5,-160.8,324.0,-359.4,-3408.6,296.1,-238.2,-96.9,81.9,39.0,-139.8,-456.0,-6.0,-4.2,-89.7,-155.4,-1.8,69.3,-115.8,13.8,0,1284,0,19,0,
0.7167,-99.9,-100.8,-44.7,-122.1,-23.7,-165.9,321.9,-362.1,-2964.0,290.1,-245.1,-103.5,79.8,49.5,-113.7,-443.7,-6.3,-4.5,-89.7,-164.1,-2.1,60.6,-122.7,3.6,0,1290,0,20,0,
0.7200,-95.4,-89.4,-31.5,-102.0,-4.5,-148.2,328.5,-351.0,-2889.9,317.1,-226.8,-83.7,95.4,41.4,-170.1,-462.3,-6.3,-4.2,-71.1,-143.7,-1.5,85.5,-113.7,23.7,0,1296,0,21,0,
0.7233,-98.4,-96.0,-35.4,-114.3,-13.5,-156.0,327.3,-358.2,-3038.1,303.6,-232.2,-90.9,85.2,39.9,-147.3,-440.7,-6.3,-4.8,-77.7,-149.1,-2.1,73.2,-115.2,15.9,0,1302,0,22,0,
0.7267,-101.1,-101.1,-40.5,-121.5,-14.7,-156.9,327.9,-360.9,-3260.4,293.7,-240.3,-95.4,81.6,36.3,-141.9,-437.4,-6.6,-4.5,-82.8,-154.2,-1.8,71.7,-108.9,12.3,0,1308,0,23,0,
0.7300,-102.9,-109.2,-56.7,-135.0,-30.0,-172.8,315.9,-373.8,-3260.4,276.0,-261.3,-116.4,67.8,44.1,-90.9,-412.5,-6.3,-4.5,-103.2,-173.1,-1.8,51.6,-122.1,-1.5,0,1314,0,24,0,
0.7333,-97.2,-93.9,-34.8,-114.0,-6.6,-154.2,326.4,-357.0,-2964.0,298.2,-240.0,-92.1,84.3,48.0,-149.1,-470.1,-6.3,-4.5,-82.2,-147.6,-1.8,82.8,-115.8,18.3,0,1320,0,25,0,
0.7367,-96.3,-95.1,-36.9,-114.3,-11.1,-155.7,324.6,-361.8,-2741.7,300.0,-237.9,-98.4,83.1,47.7,-148.2,-468.0,-6.0,-4.5,-78.3,-152.1,-1.8,78.9,-125.7,10.5,0,1326,0,26,0,
0.7400,-98.1,-91.8,-37.8,-115.5,-9.6,-151.5,329.1,-359.4,-3112.2,303.0,-241.8,-96.6,84.6,36.6,-169.2,-452.1,-6.0,-4.5,-83.7,-150.3,-1.5,77.1,-113.7,15.0,0,1332,0,27,0,
0.7433,-99.3,-100.5,-44.7,-123.9,-13.2,-154.8,322.2,-364.8,-3334.5,293.7,-245.4,-99.9,78.9,39.0,-147.0,-452.4,-6.0,-4.2,-91.2,-155.7,-2.1,74.1,-117.3,14.4,0,1338,0,28,0,
0.7467,-96.0,-101.7,-48.6,-123.6,-17.1,-162.0,323.4,-366.3,-3260.4,288.9,-249.0,-103.8,73.5,45.3,-138.0,-455.4,-6.0,-4.2,-93.6,-160.8,-1.5,56.1,-122.4,3.6,0,1344,0,29,0,
0.7500,-100.8,-108.3,-64.2,-139.5,-32.1,-175.2,319.2,-375.6,-3112.2,271.5,-264.0,-121.2,60.6,43.8,-90.0,-431.1,-6.0,-4.5,-105.9,-177.0,-1.8,44.4,-130.8,-11.4,0,1350,0,30,0,
0.7533,-99.3,-103.2,-59.1,-131.4,-27.6,-169.5,320.7,-367.5,-2889.9,283.8,-260.4,-114.6,74.7,36.9,-121.8,-436.8,-6.3,-4.5,-101.4,-172.5,-1.8,47.1,-118.2,-3.9,0,1356,0,31,0,
0.7567,-96.6,-98.1,-49.8,-122.4,-17.4,-159.6,328.2,-359.1,-3038.1,286.2,-248.4,-105.6,68.1,33.9,-150.6,-440.4,-6.3,-4.2,-88.8,-161.1,-2.1,65.7,-116.1,9.3,0,1362,0,32,0,
0.7600,-100.5,-102.0,-53.1,-121.8,-18.6,-163.2,325.2,-358.5,-3260.4,294.3,-249.9,-105.9,71.1,33.6,-137.1,-450.9,-6.3,-4.2,-89.7,-161.4,-1.5,63.0,-124.5,3.3,0,1368,0,33,0,
0.7633,-98.7,-105.6,-56.7,-125.7,-25.2,-164.4,321.9,-365.7,-3260.4,286.5,-258.0,-107.4,66.3,47.1,-125.7,-459.6,-6.0,-4.8,-98.4,-167.4,-1.8,55.5,-125.1,-3.9,0,1374,0,34,0,
0.7667,-102.0,-102.6,-52.8,-123.0,-21.0,-164.1,323.1,-363.9,-2964.0,292.2,-252.3,-105.3,67.2,39.9,-145.2,-454.2,-6.6,-4.5,-93.3,-162.0,-1.8,58.2,-118.8,-2.7,0,1380,0,35,0,
0.7700,-98.4,-95.1,-48.6,-114.3,-14.4,-156.3,327.6,-363.3,-2964.0,297.9,-242.4,-95.7,73.5,37.5,-158.7,-453.6,-6.0,-4.2,-84.6,-153.9,-1.8,69.3,-124.8,7.5,0,1386,0,36,0,
0.7733,-95.1,-95.7,-44.4,-112.5,-8.1,-157.2,324.6,-359.1,-2889.9,309.9,-239.7,-90.9,82.5,43.5,-155.4,-463.8,-6.3,-4.5,-80.7,-150.6,-1.8,70.5,-129.9,9.0,0,1392,0,37,0,
0.7767,-96.3,-97.8,-47.7,-118.5,-12.9,-158.7,323.1,-363.3,-3112.2,307.5,-243.6,-95.4,69.6,47.1,-144.3,-468.0,-6.0,-4.5,-87.6,-153.3,-1.8,72.3,-131.7,6.9,0,1398,0,38,0,
0.7800,-93.6,-102.0,-60.3,-124.5,-22.5,-166.8,323.4,-368.7,-3186.3,291.3,-254.7,-106.8,63.6,57.3,-111.3,-462.0,-6.3,-4.5,-96.0,-163.5,-1.8,61.5,-124.8,4.2,0,1404,0,39,0,
0.7833,-92.1,-94.5,-51.6,-119.7,-13.2,-158.7,328.5,-364.5,-2889.9,301.5,-246.6,-99.6,80.4,59.1,-132.6,-465.3,-6.3,-3.9,-87.3,-155.1,-1.8,70.5,-125.1,14.1,0,1410,0,40,0,
0.7867,-93.3,-98.4,-52.2,-119.4,-10.5,-156.6,328.2,-364.8,-2741.7,301.5,-242.1,-91.8,82.2,58.8,-135.0,-461.1,-6.3,-4.5,-83.4,-147.9,-1.8,80.4,-117.3,17.4,0,1416,0,41,0,
0.7900,-100.5,-100.8,-54.0,-118.8,-8.4,-150.6,332.7,-362.1,-3112.2,304.8,-243.3,-92.4,73.8,42.0,-150.3,-450.0,-6.3,-4.5,-82.2,-147.6,-2.1,75.9,-104.1,16.5,0,1422,0,42,0,
0.7933,-100.8,-99.6,-49.2,-112.5,-6.9,-147.0,332.1,-358.2,-3112.2,302.1,-238.2,-90.3,71.4,34.8,-156.9,-448.8,-6.0,-4.5,-78.6,-142.2,-1.8,82.2,-100.5,19.2,0,1428,0,43,0,
0.7967,-101.1,-101.4,-52.8,-117.6,-9.6,-152.7,327.6,-361.8,-3334.5,295.8,-242.7,-92.1,76.2,44.4,-138.0,-456.9,-6.0,-5.1,-85.5,-150.0,-1.8,78.0,-111.6,15.9,0,1434,0,44,0,
0.8000,-95.4,-92.7,-46.5,-111.6,-5.7,-148.2,324.9,-354.3,-2889.9,304.2,-238.5,-86.1,82.8,44.1,-154.2,-459.3,-6.6,-4.5,-78.3,-143.7,-1.5,83.7,-114.0,21.3,0,1440,0,45,0,
0.8033,-98.4,-103.2,-55.8,-119.1,-14.7,-155.1,326.1,-363.0,-2964.0,294.0,-251.4,-97.5,71.7,43.5,-129.3,-423.9,-6.3,-4.5,-89.7,-154.2,-1.8,64.2,-113.7,15.6,0,1446,0,46,0,
0.8067,-92.4,-92.7,-42.9,-109.8,-5.4,-148.2,330.3,-351.6,-2964.0,306.3,-236.4,-84.3,84.0,48.3,-144.0,-453.6,-6.3,-4.2,-73.8,-142.8,-1.5,76.8,-111.0,24.6,0,1452,0,47,0,
0.8100,-93.0,-84.9,-37.8,-104.7,-0.3,-139.5,332.7,-349.5,-3260.4,319.5,-229.5,-77.4,91.2,43.8,-168.3,-460.5,-6.3,-3.9,-70.8,-133.5,-1.5,98.7,-111.0,33.9,0,1458,0,48,0,
0.8133,-96.6,-99.6,-54.9,-123.6,-18.3,-154.8,327.3,-361.5,-3260.4,296.1,-250.5,-99.9,78.3,45.9,-111.3,-432.6,-6.0,-4.5,-91.5,-158.7,-1.5,75.3,-123.3,18.3,0,1464,0,49,0,
0.8167,-90.0,-91.2,-44.7,-114.3,-11.7,-147.0,333.6,-353.1,-2964.0,315.3,-238.2,-86.1,85.2,43.8,-133.8,-456.0,-6.3,-4.2,-79.2,-147.9,-2.1,86.1,-116.4,25.5,0,1470,0,50,0,
0.8200,-88.8,-90.0,-43.2,-113.4,-9.9,-143.1,338.1,-352.5,-2667.6,310.5,-236.1,-84.0,86.4,57.9,-140.7,-457.5,-6.3,-4.5,-75.9,-145.2,-1.8,86.7,-118.5,24.3,0,1476,0,51,0,
0.8233,-88.5,-88.5,-46.8,-118.2,-13.8,-150.9,330.3,-357.0,-2889.9,310.8,-237.3,-91.2,96.6,45.0,-135.0,-448.2,-6.0,-4.5,-76.5,-150.3,-1.5,83.4,-119.4,17.4,0,1482,0,52,0,
0.8267,-96.6,-100.8,-63.0,-131.1,-30.6,-162.9,327.6,-369.3,-3260.4,285.6,-260.4,-106.8,79.2,48.6,-105.6,-418.8,-6.3,-4.5,-98.4,-164.7,-1.8,67.2,-117.6,11.1,0,1488,0,53,0,
0.8300,-94.8,-94.5,-56.7,-121.2,-21.6,-154.2,332.4,-358.8,-3260.4,294.3,-246.3,-94.8,80.1,46.2,-140.7,-438.9,-6.0,-4.5,-84.6,-156.0,-1.8,78.0,-111.0,21.6,0,1494,0,54,0,
0.8333,-86.7,-89.7,-53.1,-118.8,-15.9,-151.2,324.9,-357.0,-2889.9,302.1,-243.9,-95.7,84.9,59.7,-136.5,-471.3,-6.3,-4.5,-79.5,-152.4,-2.1,87.3,-128.4,20.7,0,1500,0,55,0,
0.8367,-90.0,-84.0,-43.8,-108.6,-9.0,-144.9,328.8,-349.2,-2889.9,308.4,-232.8,-83.7,86.1,39.3,-165.9,-482.7,-6.6,-4.2,-69.6,-142.8,-1.5,99.6,-125.7,26.4,0,1506,0,56,0,
0.8400,-91.2,-84.6,-46.2,-112.2,-10.2,-148.8,326.1,-351.9,-2964.0,308.4,-238.8,-88.2,86.1,47.1,-150.3,-480.3,-6.0,-4.2,-73.2,-147.0,-1.8,88.5,-128.4,18.9,0,1512,0,57,0,
0.8433,-95.4,-88.8,-50.4,-117.3,-16.2,-153.3,318.9,-354.6,-3260.4,307.5,-241.8,-93.9,86.7,42.9,-143.4,-479.4,-6.3,-4.8,-77.4,-154.8,-1.5,79.2,-131.7,11.7,0,1518,0,58,0,
0.8467,-91.2,-90.3,-48.9,-115.8,-12.0,-151.2,326.1,-349.5,-3260.4,311.4,-238.8,-89.4,89.7,44.4,-167.4,-456.6,-6.3,-4.2,-74.1,-148.5,-1.8,72.3,-124.2,16.2,0,1524,0,59,0,
0.8500,-98.1,-99.9,-58.2,-128.7,-24.6,-160.2,316.8,-361.2,-3038.1,293.1,-251.7,-107.1,81.6,35.7,-148.2,-455.4,-6.3,-4.2,-88.2,-163.2,-1.8,58.2,-134.1,1.5,0,1530,0,60,0,
0.8533,-101.4,-106.8,-66.9,-136.2,-36.6,-164.4,318.0,-371.1,-2889.9,285.0,-261.3,-114.3,69.6,33.6,-123.3,-442.8,-6.3,-4.5,-96.3,-171.3,-1.8,59.4,-135.3,-5.1,0,1536,0,61,0,
0.8567,-102.9,-113.1,-79.5,-148.2,-48.0,-180.0,314.4,-378.6,-2964.0,279.9,-274.2,-123.6,63.6,42.0,-93.9,-422.7,-6.0,-4.5,-108.6,-181.2,-1.8,48.9,-135.3,-13.5,0,1542,0,62,0,
0.8600,-93.0,-93.9,-57.9,-125.1,-26.7,-161.4,318.6,-363.3,-3186.3,309.6,-250.5,-100.8,85.2,38.4,-147.3,-462.0,-6.0,-4.5,-84.9,-158.4,-1.8,69.9,-134.7,6.9,0,1548,0,63,0,
0.8633,-92.1,-80.7,-41.7,-111.6,-9.0,-146.7,322.5,-352.5,-3186.3,323.1,-230.7,-78.9,102.9,48.3,-169.5,-492.3,-6.3,-4.8,-65.1,-138.3,-2.1,96.6,-144.3,23.1,0,1554,0,64,0,
0.8667,-99.0,-98.1,-55.8,-126.0,-22.5,-159.3,320.7,-360.9,-2964.0,292.2,-250.8,-96.0,80.4,48.0,-135.6,-465.3,-6.3,-4.5,-86.7,-155.1,-1.5,70.8,-131.7,11.4,0,1560,0,65,0,
0.8700,-98.1,-95.1,-53.1,-123.9,-21.6,-155.4,324.0,-362.7,-2815.8,292.8,-247.8,-98.1,79.2,54.3,-143.1,-460.2,-6.3,-4.5,-82.5,-156.0,-2.1,75.9,-122.4,16.2,0,1566,0,66,0,
0.8733,-98.7,-92.4,-47.1,-117.6,-12.9,-146.1,325.2,-358.5,-3112.2,308.4,-238.2,-88.5,84.6,44.1,-156.9,-466.8,-6.6,-4.8,-74.4,-147.0,-1.8,84.6,-128.7,21.0,0,1572,0,67,0,
0.8767,-99.6,-96.3,-52.8,-119.4,-18.9,-151.2,328.2,-360.3,-3260.4,301.8,-243.0,-90.9,77.4,37.8,-131.4,-448.2,-6.0,-4.8,-76.5,-151.2,-1.8,80.1,-122.4,15.0,0,1578,0,68,0,
0.8800,-99.0,-95.4,-53.4,-123.6,-22.2,-153.9,325.2,-357.9,-3186.3,298.5,-246.3,-101.4,75.9,49.8,-125.1,-446.1,-6.0,-4.5,-84.0,-160.5,-1.5,71.7,-125.4,12.6,0,1584,0,69,0,
0.8833,-96.6,-98.1,-58.5,-124.2,-22.5,-157.8,324.0,-362.4,-2964.0,296.4,-244.8,-99.3,73.8,46.5,-111.3,-444.3,-6.0,-4.5,-83.1,-163.5,-2.1,66.0,-126.6,6.0,0,1590,0,70,0,
0.8867,-102.3,-100.8,-56.7,-120.9,-18.9,-154.8,324.0,-359.4,-2889.9,293.1,-247.5,-98.7,76.5,33.9,-135.6,-435.6,-6.0,-4.5,-86.4,-158.4,-1.8,70.8,-121.8,11.4,0,1596,0,71,0,
0.8900,-101.1,-89.7,-40.2,-106.5,-2.4,-140.4,328.5,-342.9,-2889.9,316.2,-225.9,-80.4,84.6,28.5,-190.5,-459.6,-6.3,-4.5,-65.4,-139.8,-1.5,98.4,-114.9,28.8,0,1602,0,72,0,
0.8933,-99.0,-96.9,-51.9,-113.1,-12.9,-150.6,322.2,-350.7,-3112.2,290.7,-240.0,-93.0,75.6,34.8,-148.8,-471.0,-6.0,-4.5,-84.9,-151.8,-1.8,80.7,-121.2,17.1,0,1608,0,73,0,
0.8967,-103.8,-102.3,-58.2,-123.6,-23.1,-154.5,324.0,-359.7,-3408.6,283.5,-250.8,-104.4,66.3,20.4,-132.0,-428.7,-6.0,-4.2,-93.0,-161.7,-1.8,61.5,-117.0,8.4,0,1614,0,74,0,
0.9000,-102.6,-101.4,-56.7,-120.6,-19.8,-152.1,324.9,-356.7,-3038.1,278.4,-248.7,-97.2,60.6,33.6,-150.3,-448.2,-6.0,-4.2,-93.3,-153.6,-1.8,69.0,-114.0,15.6,0,1620,0,75,0,
0.9033,-94.8,-85.5,-43.2,-112.2,-7.5,-148.2,324.9,-350.4,-2741.7,301.2,-233.4,-81.6,75.0,38.1,-162.0,-489.0,-6.0,-4.5,-76.5,-141.0,-1.8,79.2,-126.3,20.7,0,1626,0,76,0,
0.9067,-99.0,-91.8,-41.7,-114.6,-7.5,-145.2,322.8,-351.6,-3038.1,297.0,-236.1,-85.2,74.4,36.9,-153.3,-471.0,-6.3,-4.8,-78.6,-143.1,-2.1,85.8,-130.5,20.4,0,1632,0,77,0,
0.9100,-95.1,-96.9,-51.9,-123.3,-17.1,-154.5,326.1,-357.6,-3260.4,284.4,-253.5,-99.6,68.4,48.0,-114.9,-447.6,-6.0,-4.2,-93.3,-153.6,-1.8,63.3,-126.0,10.8,0,1638,0,78,0,
0.9133,-93.6,-94.8,-42.0,-112.2,-2.1,-145.8,325.8,-350.7,-3186.3,294.3,-239.7,-88.5,78.6,40.8,-146.4,-465.0,-6.6,-4.5,-81.0,-143.7,-1.8,86.4,-127.8,20.7,0,1644,0,79,0,
0.9167,-97.5,-99.6,-49.5,-116.1,-5.1,-149.4,325.2,-360.0,-3112.2,293.7,-241.8,-91.2,70.5,33.0,-144.0,-466.8,-6.0,-3.9,-82.5,-145.2,-1.8,82.2,-127.2,19.5,0,1650,0,80,0,
0.9200,-101.1,-99.6,-52.2,-121.5,-8.1,-150.0,325.5,-360.3,-2964.0,291.6,-244.8,-94.2,71.4,31.5,-141.0,-463.5,-6.3,-4.2,-87.6,-151.2,-1.5,72.0,-118.5,12.6,0,1656,0,81,0,
0.9233,-99.6,-98.1,-50.7,-118.8,-10.2,-148.2,327.9,-358.2,-2889.9,295.8,-243.0,-93.6,77.1,33.3,-146.4,-459.9,-6.3,-4.8,-84.0,-148.5,-1.8,67.5,-117.6,12.3,0,1662,0,82,0,
0.9267,-100.8,-105.6,-57.0,-126.0,-12.9,-152.7,323.1,-365.4,-3260.4,281.7,-249.0,-96.0,69.3,44.7,-114.6,-449.7,-6.0,-4.5,-95.4,-154.8,-2.1,64.8,-121.2,9.6,0,1668,0,83,0,
0.9300,-97.2,-92.7,-42.0,-107.7,2.7,-141.0,329.7,-355.2,-3260.4,299.1,-237.3,-78.9,80.4,34.2,-160.8,-471.0,-6.3,-4.5,-78.3,-134.7,-1.8,85.5,-112.2,26.1,0,1674,0,84,0,
0.9333,-93.6,-86.1,-33.9,-104.7,6.0,-133.5,336.9,-348.0,-3038.1,310.8,-225.6,-70.8,84.9,35.7,-179.4,-474.3,-6.0,-4.2,-71.7,-129.9,-1.8,93.0,-102.9,31.5,0,1680,0,85,0,
0.9367,-90.9,-85.5,-41.1,-114.3,-0.6,-139.2,333.3,-354.3,-2741.7,305.4,-231.0,-78.6,87.6,49.2,-144.0,-457.5,-6.6,-4.5,-74.4,-138.6,-2.1,81.3,-105.3,27.3,0,1686,0,86,0,
0.9400,-91.2,-90.6,-50.1,-118.8,-8.4,-146.4,329.4,-357.6,-2889.9,299.1,-239.7,-88.2,81.0,40.8,-138.9,-447.3,-6.3,-4.8,-83.7,-147.6,-1.8,69.3,-109.8,18.0,0,1692,0,87,0,
0.9433,-89.7,-84.9,-46.5,-113.1,-3.3,-140.1,327.6,-357.0,-3186.3,306.9,-231.9,-80.1,87.0,55.8,-140.7,-471.3,-6.3,-3.9,-75.6,-140.1,-1.2,85.8,-120.3,23.1,0,1698,0,88,0,
0.9467,-93.3,-85.2,-41.7,-108.6,0.0,-139.2,332.7,-353.1,-3334.5,303.0,-230.4,-77.4,87.9,50.1,-152.1,-472.2,-6.3,-4.5,-74.7,-137.4,-2.1,91.2,-111.3,33.9,0,1704,0,89,0,
0.9500,-92.1,-82.5,-41.1,-111.9,-3.9,-142.2,334.2,-356.4,-3112.2,312.0,-231.3,-80.4,89.4,60.9,-148.2,-453.3,-6.0,-4.2,-76.5,-139.8,-2.1,84.6,-108.0,29.7,0,1710,0,90,0,
0.9533,-95.7,-96.3,-56.7,-125.7,-18.9,-158.7,328.2,-366.0,-2889.9,291.6,-244.5,-95.7,78.3,49.2,-115.8,-435.6,-6.3,-4.8,-90.6,-153.3,-1.8,62.1,-117.9,11.7,0,1716,0,91,0,
0.9567,-91.2,-84.9,-41.7,-109.8,-4.5,-144.3,329.7,-353.4,-2964.0,301.8,-229.5,-81.6,96.0,50.4,-139.5,-471.3,-6.3,-4.2,-74.4,-140.1,-2.1,90.6,-122.1,28.5,0,1722,0,92,0,
0.9600,-83.7,-85.8,-45.3,-110.7,-2.7,-144.9,327.3,-354.9,-3038.1,308.1,-232.5,-82.5,93.9,62.7,-138.9,-482.1,-6.3,-4.2,-80.1,-141.6,-1.8,91.2,-126.6,30.9,0,1728,0,93,0,
0.9633,-91.5,-84.0,-45.9,-116.4,-7.5,-147.9,327.0,-355.5,-3408.6,311.1,-235.5,-87.0,92.1,56.7,-124.5,-458.7,-5.7,-4.8,-81.0,-149.7,-1.8,75.6,-118.8,18.3,0,1734,0,94,0,
0.9667,-91.5,-81.6,-39.9,-103.8,1.2,-145.5,328.2,-349.8,-2815.8,318.9,-227.4,-78.3,93.3,46.2,-152.7,-481.5,-6.3,-4.2,-73.8,-138.3,-1.5,83.4,-117.6,24.9,0,1740,0,95,0,
0.9700,-95.4,-87.6,-45.9,-111.0,-2.1,-143.7,325.5,-352.5,-2815.8,302.1,-232.8,-81.0,81.0,44.1,-158.1,-468.9,-6.0,-4.5,-78.0,-141.0,-1.8,81.3,-122.1,26.1,0,1746,0,96,0,
0.9733,-98.1,-94.5,-51.6,-115.8,-5.7,-149.4,326.1,-354.9,-2964.0,304.2,-240.3,-87.9,79.8,35.1,-153.6,-459.3,-6.3,-4.5,-82.8,-147.0,-2.1,78.3,-114.6,21.6,0,1752,0,97,0,
0.9767,-93.3,-89.1,-47.1,-112.2,-1.8,-145.8,335.1,-348.6,-3112.2,303.9,-234.9,-83.7,84.6,49.8,-161.1,-453.6,-5.7,-4.2,-83.7,-142.5,-1.8,76.5,-108.3,25.8,0,1758,0,98,0,
0.9800,-94.5,-93.0,-50.4,-115.8,-3.9,-147.6,328.8,-355.2,-3186.3,294.9,-236.4,-86.1,71.4,34.2,-151.2,-461.1,-6.3,-4.2,-84.9,-144.9,-1.2,72.9,-123.9,21.3,0,1764,0,99,0,
0.9833,-96.0,-98.1,-55.5,-123.9,-13.2,-151.5,327.6,-360.3,-3112.2,280.8,-251.7,-97.5,67.2,39.9,-129.3,-450.6,-6.3,-4.5,-98.7,-152.4,-1.5,69.0,-124.5,14.7,0,1770,0,100,0,
0.9867,-93.6,-98.7,-50.7,-121.2,-11.7,-147.9,329.7,-359.4,-2741.7,286.2,-248.1,-98.4,73.2,39.9,-137.7,-454.8,-6.0,-4.5,-93.6,-153.0,-1.8,77.1,-120.9,17.1,0,1776,0,101,0,
0.9900,-94.8,-98.1,-50.4,-118.8,-14.4,-154.2,330.0,-357.0,-2964.0,285.6,-244.2,-98.1,75.3,37.2,-142.5,-443.1,-6.0,-4.2,-90.3,-155.4,-2.1,73.5,-116.7,16.8,0,1782,0,102,0,
0.9933,-95.7,-99.9,-54.9,-125.1,-16.5,-154.2,323.4,-361.5,-3186.3,291.0,-245.4,-98.4,75.6,40.5,-129.0,-476.4,-6.3,-4.2,-92.1,-157.2,-1.8,68.4,-138.9,9.9,0,1788,0,103,0,
0.9967,-99.0,-105.3,-62.7,-132.9,-28.5,-165.6,319.5,-366.3,-3260.4,270.3,-261.9,-115.2,67.5,48.6,-95.7,-455.7,-6.3,-4.2,-106.5,-172.8,-1.8,36.3,-134.7,-1.2,0,1794,0,104,0,
1.0000,-102.6,-100.5,-54.6,-127.5,-22.5,-163.2,321.0,-365.7,-3038.1,276.9,-252.3,-106.8,70.5,36.0,-132.9,-458.1,-6.3,-4.5,-96.9,-162.3,-1.8,58.2,-135.0,11.1,0,1800,0,105,0,
1.0033,-100.5,-101.1,-58.8,-128.4,-21.9,-161.7,323.4,-365.7,-2964.0,287.4,-260.7,-111.0,75.3,44.1,-122.7,-453.0,-6.0,-4.5,-103.5,-167.1,-1.8,69.0,-134.1,10.8,0,1806,0,106,0,
1.0067,-94.5,-88.8,-42.0,-115.2,-4.2,-143.1,333.0,-349.2,-3038.1,303.3,-244.2,-95.7,88.8,32.1,-174.3,-454.5,-6.0,-4.5,-82.2,-149.1,-1.5,80.4,-116.1,23.7,0,1812,0,107,0,
1.0100,-98.7,-92.4,-47.4,-117.9,-11.7,-147.3,327.6,-355.5,-3260.4,295.5,-244.5,-98.4,83.7,27.3,-174.6,-419.4,-6.3,-4.8,-84.3,-152.4,-1.8,66.0,-108.3,18.9,0,1818,0,108,0,
1.0133,-89.7,-83.4,-39.6,-116.1,-6.9,-148.2,327.6,-352.2,-3112.2,305.7,-233.4,-86.7,91.8,44.1,-146.1,-450.3,-6.6,-4.5,-71.7,-147.0,-1.8,81.3,-117.3,24.9,0,1824,0,109,0,
1.0167,-89.7,-87.9,-44.1,-120.3,-13.2,-155.7,327.6,-352.8,-3038.1,297.0,-237.0,-94.8,91.5,48.9,-141.6,-444.6,-6.3,-4.8,-78.3,-154.8,-1.8,69.9,-122.1,17.1,0,1830,0,110,0,
1.0200,-93.3,-96.3,-52.8,-127.5,-19.5,-160.5,322.2,-360.9,-2889.9,287.1,-247.5,-105.3,87.6,42.9,-124.5,-429.0,-6.3,-4.2,-87.3,-162.0,-1.5,67.2,-119.1,15.9,0,1836,0,111,0,
1.0233,-94.5,-93.0,-53.1,-126.6,-21.0,-159.6,320.7,-356.7,-2889.9,290.4,-248.4,-102.0,91.8,41.7,-111.9,-452.1,-6.3,-4.2,-85.2,-161.7,-1.8,70.5,-128.1,13.8,0,1842,0,112,0,
1.0267,-94.8,-96.3,-53.4,-123.0,-19.2,-162.3,317.1,-355.8,-3334.5,288.3,-250.2,-101.4,79.5,50.1,-135.6,-472.2,-6.3,-4.5,-88.5,-159.6,-1.8,68.1,-132.6,7.8,0,1848,0,113,0,
1.0300,-89.4,-83.4,-37.5,-106.8,-0.3,-148.8,324.0,-341.7,-3186.3,302.4,-232.8,-85.2,91.2,54.3,-157.8,-494.1,-6.3,-4.8,-75.0,-145.5,-1.5,78.6,-130.2,20.1,0,1854,0,114,0,
1.0333,-92.1,-88.5,-45.6,-115.5,-7.2,-153.0,326.7,-350.7,-3038.1,297.0,-240.9,-91.2,84.6,41.1,-148.5,-453.0,-6.0,-4.2,-81.9,-150.0,-1.8,69.6,-119.4,15.6,0,1860,0,115,0,
1.0367,-95.4,-89.1,-45.3,-113.4,-8.7,-151.5,326.1,-348.6,-2815.8,297.9,-237.3,-91.5,89.4,30.9,-153.3,-449.1,-6.3,-4.5,-80.4,-148.5,-1.8,69.3,-123.6,15.6,0,1866,0,116,0,
1.0400,-93.0,-88.2,-46.2,-115.2,-11.1,-154.2,322.8,-349.8,-3038.1,293.1,-240.0,-95.4,84.6,37.5,-142.5,-472.8,-6.3,-4.2,-84.3,-150.3,-2.1,73.2,-134.1,11.1,0,1872,0,117,0,
1.0433,-96.9,-85.8,-36.0,-111.6,-3.6,-144.9,321.0,-343.5,-3112.2,306.6,-232.2,-86.4,80.1,25.8,-178.8,-481.8,-6.3,-4.8,-74.1,-144.6,-1.8,76.2,-129.9,14.1,0,1878,0,118,0,
1.0467,-96.9,-88.5,-42.9,-116.1,-11.1,-156.0,325.8,-350.4,-3186.3,300.9,-238.8,-90.0,81.3,28.8,-157.5,-463.2,-6.3,-4.5,-82.2,-147.9,-1.8,76.8,-129.9,18.0,0,1884,0,119,0,
1.0500,-102.6,-91.8,-47.4,-119.4,-19.5,-159.6,329.1,-349.8,-2964.0,294.9,-239.4,-96.9,84.6,29.1,-161.7,-438.6,-6.3,-4.5,-83.1,-153.0,-1.8,67.5,-121.2,20.1,0,1890,0,120,0,
1.0533,-97.2,-87.3,-41.7,-114.3,-12.0,-157.5,330.0,-347.4,-2889.9,300.0,-236.1,-91.5,90.6,36.9,-143.7,-459.9,-6.3,-4.2,-74.7,-147.3,-1.8,81.6,-129.3,22.8,0,1896,0,121,0,
1.0567,-91.8,-88.5,-43.5,-114.6,-7.2,-152.4,328.2,-344.7,-2889.9,308.1,-237.9,-89.1,85.5,45.6,-142.2,-462.6,-6.0,-4.5,-77.4,-147.3,-1.5,84.6,-116.4,25.2,0,1902,0,122,0,
1.0600,-96.6,-94.8,-49.2,-121.2,-15.6,-154.8,330.3,-350.1,-3112.2,294.6,-243.3,-98.4,83.1,43.5,-117.3,-435.6,-6.6,-4.5,-84.0,-159.3,-2.1,65.7,-107.7,14.7,0,1908,0,123,0,
1.0633,-96.6,-101.1,-55.2,-128.4,-25.2,-165.6,324.0,-357.9,-3334.5,291.9,-247.5,-105.9,80.7,50.7,-87.0,-436.2,-6.3,-4.5,-90.9,-167.1,-1.8,59.7,-129.6,5.7,0,1914,0,124,0,
1.0667,-93.9,-96.6,-52.2,-123.0,-20.4,-163.8,319.5,-360.0,-3038.1,300.9,-243.3,-100.5,86.7,59.4,-107.1,-460.2,-6.0,-4.5,-89.1,-162.9,-2.1,64.2,-125.7,9.0,0,1920,0,125,0,
1.0700,-93.6,-76.5,-24.0,-93.6,6.9,-134.7,339.0,-339.9,-2815.8,332.1,-210.3,-66.0,106.2,31.5,-225.3,-476.1,-6.3,-4.5,-55.8,-127.2,-1.5,105.0,-102.9,39.0,0,1926,0,126,0,
1.0733,-95.4,-87.3,-32.4,-103.8,-2.7,-144.3,337.8,-350.4,-2964.0,318.9,-220.2,-76.2,98.1,27.0,-174.0,-444.6,-6.3,-4.2,-66.3,-137.4,-2.1,96.9,-110.7,33.6,0,1932,0,127,0,
1.0767,-91.2,-81.0,-33.9,-98.1,1.2,-140.1,334.5,-343.8,-3260.4,324.3,-218.4,-72.0,100.2,51.0,-159.6,-464.7,-6.0,-4.2,-66.3,-130.8,-1.8,99.0,-120.6,34.5,0,1938,0,128,0,
1.0800,-91.8,-84.3,-39.0,-102.9,-7.2,-144.0,331.8,-346.8,-3186.3,308.1,-225.3,-83.7,92.1,51.9,-125.7,-437.1,-6.3,-4.8,-71.1,-144.9,-1.8,89.4,-113.7,27.9,0,1944,0,129,0,
1.0833,-87.3,-76.5,-31.2,-99.9,-2.4,-141.3,331.2,-347.4,-2889.9,320.1,-224.4,-79.8,100.2,57.9,-132.6,-445.2,-6.6,-4.2,-68.4,-140.1,-1.8,89.1,-119.1,25.2,0,1950,0,130,0,
1.0867,-89.7,-77.1,-29.1,-96.9,0.6,-141.9,330.3,-348.3,-2889.9,320.7,-218.4,-71.7,99.0,53.1,-141.6,-438.0,-6.0,-4.5,-62.7,-134.7,-1.8,87.3,-115.8,26.7,0,1956,0,131,0,
1.0900,-84.3,-70.5,-19.2,-87.3,12.3,-133.2,334.5,-339.3,-2964.0,332.1,-210.3,-63.3,105.9,52.8,-150.9,-433.5,-6.3,-4.5,-60.0,-125.4,-2.1,104.4,-105.3,42.6,0,1962,0,132,0,
1.0933,-87.9,-73.8,-27.0,-99.6,5.1,-136.8,336.0,-345.9,-3186.3,321.0,-221.4,-75.3,105.6,48.6,-135.3,-419.4,-6.6,-5.1,-69.0,-133.2,-1.8,94.8,-106.2,36.0,0,1968,0,133,0,
1.0967,-87.9,-82.5,-35.7,-104.7,-5.1,-144.6,330.3,-348.3,-3260.4,303.0,-228.9,-79.2,90.9,66.9,-111.6,-427.2,-6.3,-4.2,-75.9,-138.3,-1.8,94.2,-118.2,33.6,0,1974,0,134,0,
1.1000,-89.7,-82.8,-37.5,-109.2,-5.7,-143.7,336.0,-345.9,-3038.1,299.4,-232.5,-80.1,85.2,58.8,-124.8,-450.6,-6.3,-4.8,-77.4,-138.9,-1.5,94.2,-114.0,33.0,0,1980,0,135,0,
1.1033,-91.5,-80.4,-40.2,-110.1,-6.6,-144.9,334.5,-349.5,-2815.8,308.7,-234.6,-84.0,86.4,46.8,-130.2,-452.4,-6.0,-4.5,-77.1,-140.7,-2.1,84.3,-118.2,28.2,0,1986,0,136,0,
1.1067,-90.6,-87.0,-47.1,-115.5,-12.9,-147.6,338.1,-347.7,-2964.0,300.6,-240.3,-90.9,81.3,54.9,-124.8,-436.8,-6.0,-4.5,-85.5,-147.0,-1.8,79.2,-117.6,25.5,0,1992,0,137,0,
1.1100,-89.7,-80.4,-34.8,-105.9,-2.4,-139.8,338.4,-350.1,-3186.3,311.1,-229.8,-78.3,88.5,46.8,-161.7,-463.5,-6.3,-4.2,-74.1,-132.6,-1.8,96.3,-128.7,38.1,0,1998,0,138,0,
1.1133,-86.7,-75.9,-31.5,-103.2,3.3,-136.8,338.7,-342.0,-3186.3,314.4,-226.8,-72.9,91.5,49.5,-160.2,-443.4,-6.3,-4.2,-72.0,-130.8,-1.2,100.5,-115.2,40.8,0,2004,0,139,0,
1.1167,-86.7,-78.0,-34.5,-103.5,0.6,-140.4,335.4,-345.3,-3038.1,315.9,-230.1,-79.5,89.7,54.9,-135.6,-452.7,-6.3,-4.8,-74.7,-136.2,-1.8,98.7,-118.5,36.0,0,2010,0,140,0,
1.1200,-90.3,-80.7,-39.0,-111.9,-9.0,-145.5,336.0,-348.0,-2815.8,304.2,-236.7,-85.8,86.4,51.0,-134.4,-440.1,-6.3,-4.2,-83.7,-144.0,-1.8,84.0,-106.2,32.7,0,2016,0,141,0,
1.1233,-91.8,-87.0,-43.5,-111.3,-10.2,-148.8,335.4,-352.2,-2964.0,301.5,-241.8,-90.3,79.2,48.6,-120.9,-437.1,-6.3,-4.8,-86.7,-145.5,-2.1,90.6,-108.3,30.6,0,2022,0,142,0,
1.1267,-87.3,-85.5,-43.8,-116.1,-9.9,-148.5,330.9,-351.9,-3186.3,309.6,-242.1,-88.5,84.3,54.0,-127.2,-431.1,-6.3,-4.5,-85.5,-145.5,-1.8,92.4,-113.4,27.0,0,2028,0,143,0,
1.1300,-90.9,-85.8,-42.0,-116.1,-11.4,-155.7,327.6,-353.1,-3112.2,315.6,-239.7,-86.1,88.8,59.4,-132.0,-428.4,-6.3,-4.5,-82.5,-147.9,-1.2,86.4,-117.9,27.3,0,2034,0,144,0,
1.1333,-96.0,-89.7,-49.5,-124.8,-21.9,-159.9,326.1,-362.1,-2964.0,304.8,-245.4,-98.4,89.4,54.6,-117.0,-413.4,-6.3,-4.5,-88.2,-157.5,-1.8,72.3,-116.7,17.4,0,2040,0,145,0,
1.1367,-90.0,-85.2,-41.1,-110.1,-10.5,-150.6,329.1,-352.5,-2815.8,315.0,-237.0,-87.6,106.5,56.1,-121.5,-432.6,-6.0,-4.5,-81.6,-147.6,-1.5,87.6,-112.5,25.5,0,2046,0,146,0,
1.1400,-89.4,-90.0,-50.1,-123.0,-20.1,-158.7,323.4,-359.7,-2964.0,301.2,-247.2,-100.2,87.9,67.5,-86.4,-434.4,-6.0,-4.8,-92.1,-160.2,-1.8,75.0,-119.4,15.9,0,2052,0,147,0,
1.1433,-93.3,-92.7,-50.1,-121.8,-21.3,-160.8,325.8,-358.2,-3260.4,294.6,-248.1,-101.1,83.7,61.5,-99.0,-429.9,-6.0,-3.9,-91.8,-162.9,-1.8,71.1,-122.1,12.0,0,2058,0,148,0,
1.1467,-88.2,-71.7,-23.4,-93.9,2.7,-140.1,333.6,-337.8,-3334.5,338.7,-219.3,-70.8,103.5,36.0,-175.5,-468.0,-6.0,-4.2,-64.5,-134.7,-1.8,108.6,-117.3,38.4,0,2064,0,149,0,
1.1500,-90.9,-83.1,-36.9,-103.5,-8.4,-150.9,327.6,-347.1,-2964.0,310.8,-237.0,-86.4,90.3,52.5,-154.8,-461.1,-6.3,-4.8,-85.8,-149.7,-1.8,88.8,-124.2,24.6,0,2070,0,150,0,
1.1533,-96.0,-91.2,-47.7,-114.0,-18.0,-157.8,328.5,-352.5,-2815.8,299.1,-245.7,-93.9,75.6,48.3,-130.2,-438.6,-6.0,-5.1,-92.7,-156.6,-1.8,68.4,-121.2,13.5,0,2076,0,151,0,
1.1567,-96.9,-89.4,-41.7,-106.5,-13.8,-150.0,333.3,-350.4,-2889.9,306.3,-238.5,-90.0,83.1,41.4,-151.5,-444.0,-6.3,-4.5,-85.2,-151.2,-1.8,78.0,-119.1,13.5,0,2082,0,152,0,
1.1600,-97.2,-88.2,-34.2,-103.2,-9.0,-146.4,326.4,-342.3,-3260.4,312.0,-232.8,-84.0,85.5,43.2,-149.1,-468.6,-6.0,-3.9,-78.3,-145.8,-1.5,94.5,-127.5,22.2,0,2088,0,153,0,
1.1633,-97.2,-89.1,-34.5,-102.9,-5.7,-143.7,334.8,-342.3,-3186.3,308.1,-231.6,-84.0,84.6,37.5,-152.7,-444.9,-6.3,-4.5,-81.0,-141.9,-2.1,93.6,-118.5,24.3,0,2094,0,154,0,
1.1667,-93.9,-89.4,-39.0,-105.0,-10.8,-148.5,330.3,-344.1,-3112.2,303.0,-236.1,-87.0,78.3,48.0,-127.5,-447.9,-6.3,-4.2,-80.7,-147.9,-1.8,81.0,-132.0,19.5,0,2100,0,155,0,
1.1700,-91.5,-90.6,-38.1,-105.9,-9.9,-151.2,329.7,-349.2,-2815.8,308.1,-233.7,-85.5,81.9,47.1,-132.6,-454.5,-6.0,-4.5,-78.6,-146.4,-1.8,78.6,-133.5,17.7,0,2106,0,156,0,
1.1733,-94.5,-89.1,-39.6,-106.8,-12.6,-153.0,327.3,-351.9,-3038.1,311.1,-234.3,-90.0,84.3,50.7,-139.8,-468.6,-6.3,-4.5,-78.3,-147.0,-1.8,84.9,-132.9,20.4,0,2112,0,157,0,
1.1767,-98.4,-93.9,-40.8,-112.5,-13.2,-151.5,324.6,-356.7,-3186.3,306.3,-234.3,-86.7,78.9,36.0,-154.2,-453.6,-6.0,-4.2,-79.2,-144.9,-1.5,87.3,-126.9,19.8,0,2118,0,158,0,
1.1800,-97.2,-93.6,-45.0,-116.1,-19.8,-155.4,326.1,-360.6,-3408.6,295.8,-241.5,-93.6,75.9,33.3,-123.9,-448.2,-6.3,-4.2,-88.8,-152.4,-1.5,76.8,-120.6,11.1,0,2124,0,159,0,
1.1833,-93.9,-87.3,-36.9,-113.1,-6.9,-148.5,330.9,-349.8,-3112.2,309.6,-234.9,-87.0,82.2,35.1,-154.2,-439.2,-6.0,-4.5,-81.0,-144.6,-2.1,89.1,-110.7,24.9,0,2130,0,160,0,
1.1867,-93.0,-83.7,-31.5,-103.8,-4.2,-143.4,331.8,-344.4,-2815.8,319.2,-229.8,-83.4,89.7,37.2,-159.0,-467.1,-6.3,-4.5,-72.3,-139.5,-1.5,96.0,-121.8,22.8,0,2136,0,161,0,
1.1900,-94.2,-87.0,-38.1,-109.2,-13.2,-153.0,326.1,-346.2,-2964.0,314.7,-233.1,-84.9,90.3,47.4,-127.2,-456.9,-6.3,-4.5,-73.2,-147.0,-1.8,84.0,-126.9,13.8,0,2142,0,162,0,
1.1933,-93.6,-90.6,-40.8,-115.8,-17.7,-156.9,332.4,-349.5,-3260.4,300.6,-242.7,-92.4,77.1,53.1,-132.0,-425.4,-6.0,-4.5,-81.3,-154.8,-1.5,62.4,-120.0,13.8,0,2148,0,163,0,
1.1967,-93.9,-92.7,-45.9,-115.2,-17.1,-153.6,330.3,-349.5,-3334.5,298.8,-244.5,-96.0,77.4,47.4,-131.7,-424.8,-6.6,-4.5,-84.0,-155.7,-1.5,77.1,-115.8,15.9,0,2154,0,164,0,
1.2000,-86.4,-77.1,-27.9,-103.8,-3.9,-144.3,329.7,-337.8,-3038.1,324.0,-225.0,-77.7,99.6,63.9,-161.4,-470.7,-6.0,-4.8,-64.8,-140.7,-1.5,90.6,-130.8,23.1,0,2160,0,165,0,
1.2033,-88.8,-83.4,-33.6,-108.0,-10.8,-151.5,325.5,-342.9,-2964.0,310.5,-234.3,-83.1,91.8,61.2,-138.0,-460.8,-6.3,-4.5,-74.4,-146.4,-1.8,82.5,-126.6,13.8,0,2166,0,166,0,
1.2067,-93.3,-85.5,-38.7,-110.1,-12.3,-149.4,330.9,-341.7,-2889.9,306.3,-238.8,-88.2,92.7,52.5,-129.9,-450.0,-6.0,-4.5,-80.7,-149.4,-1.2,77.7,-118.5,16.2,0,2172,0,167,0,
1.2100,-91.2,-80.4,-30.0,-105.9,-8.4,-145.8,329.7,-338.7,-3038.1,314.1,-227.7,-84.3,97.5,54.9,-158.1,-446.7,-6.3,-4.5,-70.5,-145.8,-1.8,84.9,-114.0,21.6,0,2178,0,168,0,
1.2133,-88.5,-84.9,-39.6,-110.4,-15.9,-155.4,328.2,-346.2,-3260.4,304.2,-235.8,-89.7,93.0,57.9,-123.3,-449.7,-6.3,-4.8,-78.3,-153.0,-1.8,75.3,-124.2,10.8,0,2184,0,169,0,
1.2167,-93.3,-93.3,-51.3,-123.6,-30.0,-168.9,322.5,-357.0,-2889.9,284.1,-253.5,-107.1,68.4,56.1,-92.7,-435.9,-6.3,-4.2,-93.9,-171.3,-1.8,62.4,-134.1,-3.6,0,2190,0,170,0,
1.2200,-90.9,-82.8,-30.0,-103.8,-10.5,-149.4,331.8,-345.0,-2889.9,314.1,-231.9,-84.3,86.1,33.6,-167.4,-451.2,-6.3,-4.5,-73.2,-148.5,-1.8,83.7,-119.4,16.5,0,2196,0,171,0,
1.2233,-92.7,-81.0,-28.5,-99.0,-5.4,-141.9,332.4,-342.6,-2889.9,313.5,-226.5,-79.2,93.3,52.5,-182.1,-454.8,-6.0,-4.5,-72.9,-141.0,-1.8,91.8,-112.8,22.2,0,2202,0,172,0,
1.2267,-89.4,-78.9,-25.8,-95.4,1.2,-141.3,330.3,-339.0,-3112.2,320.7,-221.7,-74.1,95.1,62.4,-164.4,-476.7,-6.0,-4.2,-66.6,-135.9,-1.5,96.0,-129.3,17.4,0,2208,0,173,0,
1.2300,-88.8,-85.2,-33.3,-97.8,-3.0,-145.2,331.5,-345.3,-3260.4,307.8,-228.3,-83.1,83.4,56.7,-136.8,-440.4,-6.3,-4.8,-75.6,-139.5,-1.5,93.3,-112.2,20.4,0,2214,0,174,0,
1.2333,-90.6,-88.5,-37.5,-103.5,-8.4,-146.7,333.9,-348.0,-3038.1,307.8,-233.4,-86.1,82.8,51.9,-115.2,-435.3,-6.0,-4.5,-78.9,-147.3,-1.5,89.4,-123.0,21.3,0,2220,0,175,0,
1.2367,-88.8,-94.5,-51.9,-119.4,-22.8,-157.2,321.9,-354.9,-2889.9,285.6,-251.4,-102.6,80.4,70.5,-69.6,-435.0,-6.0,-4.5,-93.9,-162.6,-1.8,75.3,-129.3,13.5,0,2226,0,176,0,
1.2400,-85.2,-86.7,-43.5,-111.9,-18.6,-151.5,323.4,-347.4,-3038.1,297.6,-238.2,-91.8,88.2,71.1,-118.5,-469.5,-6.0,-4.5,-84.6,-152.7,-1.5,81.0,-124.5,14.7,0,2232,0,177,0,
1.2433,-93.6,-80.7,-28.8,-95.1,-2.1,-136.8,336.6,-337.5,-3186.3,320.7,-221.1,-75.9,91.5,35.7,-196.2,-465.9,-6.3,-4.5,-69.9,-134.7,-1.8,91.5,-105.0,23.7,0,2238,0,178,0,
1.2467,-95.4,-87.9,-39.9,-102.0,-8.7,-147.9,335.1,-341.4,-3260.4,306.9,-234.3,-87.6,90.0,42.0,-147.0,-446.7,-6.6,-4.8,-82.5,-147.9,-1.8,78.9,-112.8,16.2,0,2244,0,179,0,
1.2500,-95.4,-94.2,-45.0,-108.3,-17.4,-153.6,334.2,-346.5,-2964.0,290.7,-242.7,-97.5,81.6,38.1,-143.7,-446.1,-6.3,-4.2,-92.7,-155.7,-1.8,67.8,-118.8,10.5,0,2250,0,180,0,
1.2533,-96.0,-91.8,-42.3,-104.7,-10.8,-153.0,330.9,-343.5,-2815.8,300.9,-239.1,-92.4,79.8,39.6,-144.0,-464.1,-6.3,-4.5,-88.8,-150.0,-1.5,73.5,-128.7,12.3,0,2256,0,181,0,
1.2567,-105.0,-99.0,-50.7,-111.9,-14.7,-151.5,326.4,-347.4,-2964.0,283.5,-246.6,-96.9,71.7,30.3,-163.2,-448.5,-6.3,-4.2,-96.6,-153.9,-2.1,72.3,-127.5,12.0,0,2262,0,182,0,
1.2600,-102.0,-98.1,-56.7,-113.4,-15.3,-154.5,330.9,-345.9,-3186.3,275.1,-253.5,-104.7,70.5,31.5,-149.7,-441.0,-6.0,-4.8,-102.9,-160.2,-2.1,72.3,-121.5,9.3,0,2268,0,183,0,
1.2633,-103.5,-103.2,-62.4,-122.1,-24.6,-159.3,324.6,-360.6,-3260.4,270.3,-262.8,-112.5,70.2,35.7,-129.9,-449.7,-6.0,-4.2,-110.4,-169.8,-1.8,58.8,-133.2,0.0,0,2274,0,184,0,
1.2667,-99.6,-98.4,-56.1,-116.7,-20.7,-156.0,327.6,-355.5,-3038.1,285.3,-255.9,-103.8,82.5,18.9,-138.3,-442.2,-6.0,-4.2,-102.6,-161.1,-1.8,54.0,-134.7,0.9,0,2280,0,185,0,
1.2700,-95.1,-97.5,-59.1,-119.1,-22.5,-157.5,325.2,-352.8,-2889.9,279.9,-260.4,-110.4,71.7,39.6,-134.4,-451.2,-6.3,-4.2,-103.8,-168.0,-2.1,57.0,-137.7,-0.9,0,2286,0,186,0,
1.2733,-95.1,-87.9,-48.6,-108.9,-12.3,-149.4,329.7,-346.8,-2889.9,287.4,-246.9,-99.3,70.2,33.9,-160.5,-456.9,-6.0,-4.2,-93.9,-153.9,-1.8,60.9,-137.1,3.3,0,2292,0,187,0,
1.2767,-97.5,-87.6,-45.0,-104.7,-4.8,-145.5,333.9,-345.6,-3260.4,300.0,-240.6,-93.0,82.5,29.7,-178.5,-435.3,-6.6,-4.8,-88.5,-151.2,-1.5,66.9,-119.1,11.7,0,2298,0,188,0,
1.2800,-88.5,-85.5,-39.9,-100.2,-2.1,-146.1,333.9,-339.3,-3260.4,299.7,-236.1,-88.5,93.0,40.8,-158.1,-427.2,-6.6,-4.5,-84.9,-144.9,-1.5,80.1,-122.4,18.0,0,2304,0,189,0,
1.2833,-91.2,-83.1,-45.0,-102.0,-5.1,-150.0,329.4,-345.6,-3038.1,298.5,-241.5,-97.2,92.1,48.9,-147.3,-454.2,-6.3,-4.5,-84.9,-150.6,-1.5,72.9,-124.8,14.4,0,2310,0,190,0,
1.2867,-93.9,-91.5,-47.4,-107.4,-8.1,-152.1,324.6,-350.1,-2889.9,293.1,-245.4,-99.9,88.5,55.5,-112.8,-451.2,-6.6,-4.2,-91.2,-153.0,-1.5,69.6,-126.6,9.6,0,2316,0,191,0,
1.2900,-97.2,-93.6,-54.0,-115.8,-13.2,-148.8,325.2,-354.6,-3038.1,294.0,-250.2,-107.1,84.6,42.3,-129.3,-450.6,-6.0,-4.8,-96.6,-155.1,-1.8,63.3,-127.2,6.6,0,2322,0,192,0,
1.2933,-93.6,-99.0,-57.0,-115.5,-14.4,-154.5,322.2,-357.0,-3260.4,286.8,-252.3,-105.6,79.5,42.6,-122.7,-432.6,-6.0,-4.5,-102.0,-156.9,-1.8,56.4,-122.1,3.0,0,2328,0,193,0,
1.2967,-89.4,-88.5,-40.5,-102.6,2.4,-143.4,324.9,-347.7,-3334.5,301.2,-235.5,-90.6,90.0,50.7,-148.5,-453.9,-6.0,-4.8,-84.3,-139.2,-1.5,89.1,-124.5,22.5,0,2334,0,194,0,
1.3000,-91.8,-87.0,-39.0,-101.4,-0.9,-144.9,330.3,-346.8,-3038.1,306.6,-237.3,-92.1,93.3,46.5,-173.1,-463.8,-6.0,-4.5,-83.7,-143.4,-1.8,90.0,-117.3,22.2,0,2340,0,195,0,
1.3033,-90.6,-90.3,-40.8,-104.7,-8.1,-147.9,334.2,-350.1,-2889.9,302.4,-239.1,-96.6,89.4,42.0,-165.0,-458.1,-6.0,-4.5,-85.8,-148.8,-1.8,75.9,-111.0,17.4,0,2346,0,196,0,
1.3067,-90.0,-96.9,-49.8,-112.5,-15.0,-156.0,329.7,-355.8,-2964.0,287.4,-249.6,-103.8,81.6,48.6,-135.9,-441.3,-6.0,-4.2,-93.0,-156.0,-1.8,65.1,-114.9,10.8,0,2352,0,197,0,
1.3100,-89.1,-97.8,-56.4,-123.3,-24.0,-167.1,322.5,-364.2,-3260.4,281.7,-257.7,-113.4,81.3,62.4,-84.6,-445.8,-6.3,-4.2,-102.0,-166.2,-1.5,47.7,-136.2,-3.6,0,2358,0,198,0,
1.3133,-87.3,-88.8,-43.8,-114.0,-15.6,-154.8,328.8,-356.7,-3186.3,304.5,-245.4,-100.8,90.0,50.1,-130.5,-436.5,-6.0,-4.5,-91.8,-153.6,-1.5,68.1,-118.8,12.3,0,2364,0,199,0,
1.3167,-89.4,-85.2,-39.3,-109.5,-10.2,-147.6,332.1,-354.6,-3112.2,310.5,-236.4,-91.8,101.7,35.1,-157.8,-449.1,-6.3,-4.2,-80.7,-147.3,-1.8,87.0,-114.9,21.0,0,2370,0,200,0,
1.3200,-87.3,-93.6,-53.1,-122.7,-25.5,-162.3,328.2,-362.7,-2889.9,294.3,-249.0,-109.2,91.5,60.3,-129.9,-432.6,-6.0,-4.2,-95.1,-163.5,-2.1,65.1,-114.9,9.9,0,2376,0,201,0,
1.3233,-93.9,-89.1,-47.7,-115.2,-17.4,-157.5,327.3,-360.0,-2964.0,301.8,-243.6,-102.3,89.7,41.4,-141.3,-436.5,-6.3,-4.8,-92.7,-158.4,-1.5,77.1,-124.2,15.3,0,2382,0,202,0,
1.3267,-88.2,-75.6,-36.0,-107.7,-9.3,-148.2,326.1,-349.2,-3260.4,314.1,-232.5,-89.1,99.3,55.8,-168.0,-481.2,-5.7,-4.8,-75.6,-147.0,-1.5,82.8,-126.6,19.5,0,2388,0,203,0,
1.3300,-83.7,-76.5,-39.6,-108.3,-9.0,-146.4,327.0,-347.1,-3260.4,319.2,-232.8,-92.1,103.5,55.2,-168.0,-464.7,-6.3,-4.2,-81.0,-151.2,-1.8,75.3,-120.6,16.2,0,2394,0,204,0,
1.3333,-84.9,-79.5,-39.6,-111.9,-10.2,-146.7,326.7,-346.5,-2964.0,321.3,-235.8,-93.3,102.0,60.0,-143.7,-461.4,-6.3,-4.8,-78.3,-150.9,-1.8,80.7,-126.9,17.4,0,2400,0,205,0,
1.3367,-87.9,-76.8,-33.6,-103.2,-7.5,-145.2,328.2,-342.9,-2815.8,328.5,-227.7,-86.1,113.4,52.8,-153.6,-457.2,-6.3,-4.5,-73.2,-146.1,-1.5,88.2,-121.8,21.9,0,2406,0,206,0,
1.3400,-89.7,-87.9,-47.4,-119.4,-23.1,-158.4,328.5,-355.5,-3038.1,310.8,-245.1,-102.3,99.9,67.8,-110.4,-442.8,-6.0,-4.5,-88.5,-159.9,-1.5,53.4,-129.6,5.1,0,2412,0,207,0,
1.3433,-86.7,-79.8,-41.7,-114.9,-16.5,-153.0,331.2,-349.2,-3186.3,317.1,-236.1,-98.4,103.5,72.0,-108.3,-450.6,-6.3,-4.5,-84.9,-154.8,-2.1,69.3,-124.5,8.7,0,2418,0,208,0,
1.3467,-93.6,-84.3,-30.3,-108.0,-11.1,-147.6,330.6,-345.6,-3186.3,317.4,-227.4,-89.4,105.9,50.7,-162.3,-451.5,-6.3,-4.2,-75.0,-146.4,-1.8,88.2,-113.4,25.2,0,2424,0,209,0,
1.3500,-91.5,-87.6,-39.0,-105.3,-10.8,-150.9,333.3,-350.1,-3038.1,306.6,-237.0,-94.5,97.5,51.9,-158.7,-443.1,-6.3,-4.5,-81.9,-149.4,-1.8,83.1,-108.0,24.3,0,2430,0,210,0,
1.3533,-88.5,-88.2,-45.6,-114.9,-17.4,-157.5,328.8,-355.8,-2889.9,309.6,-241.8,-102.3,94.8,62.7,-120.0,-444.6,-6.0,-4.2,-85.2,-156.6,-1.5,66.3,-123.6,16.8,0,2436,0,211,0,
1.3567,-95.4,-98.4,-53.7,-120.3,-26.1,-160.5,329.7,-361.2,-2964.0,293.1,-246.9,-111.0,84.6,58.8,-110.7,-432.0,-6.0,-4.5,-92.4,-163.5,-1.8,66.9,-120.6,12.9,0,2442,0,212,0,
1.3600,-97.5,-100.2,-51.0,-124.5,-23.7,-161.4,327.9,-364.5,-3334.5,302.1,-243.6,-112.2,90.6,61.5,-123.3,-426.0,-6.3,-4.2,-90.9,-165.3,-1.5,69.6,-117.9,12.6,0,2448,0,213,0,
1.3633,-96.3,-97.5,-46.8,-119.4,-16.2,-153.6,330.9,-363.3,-3334.5,310.2,-240.3,-105.0,96.3,53.1,-147.0,-435.3,-6.3,-4.2,-85.2,-155.1,-1.8,88.2,-119.7,18.0,0,2454,0,214,0,
1.3667,-93.9,-95.7,-47.1,-120.9,-20.1,-158.1,333.6,-358.2,-3038.1,308.4,-240.6,-105.9,103.8,48.6,-134.7,-428.4,-6.0,-4.5,-83.4,-158.7,-1.2,75.9,-108.3,14.7,0,2460,0,215,0,
1.3700,-85.5,-84.3,-36.6,-108.9,-9.6,-149.1,332.1,-350.4,-2815.8,324.9,-229.2,-94.8,105.0,63.3,-148.5,-468.6,-6.0,-4.8,-71.4,-147.0,-1.5,94.5,-118.5,20.4,0,2466,0,216,0,
1.3733,-88.5,-86.7,-46.2,-119.7,-19.5,-157.8,325.8,-354.3,-2964.0,312.3,-239.1,-105.6,93.9,63.9,-120.9,-454.5,-6.3,-4.2,-82.5,-155.4,-1.8,76.8,-126.9,15.0,0,2472,0,217,0,
1.3767,-96.3,-95.4,-54.6,-129.9,-30.6,-165.0,328.5,-365.1,-3260.4,298.8,-257.4,-119.4,91.8,66.3,-101.4,-426.9,-6.3,-4.5,-99.9,-172.8,-2.1,59.4,-123.0,5.1,0,2478,0,218,0,
1.3800,-100.2,-96.9,-55.8,-134.4,-37.2,-167.4,324.9,-366.3,-3260.4,292.8,-258.0,-123.9,81.9,53.1,-98.4,-414.6,-5.7,-4.8,-98.7,-175.5,-1.8,56.1,-123.3,5.4,0,2484,0,219,0,
1.3833,-96.9,-91.2,-46.8,-123.0,-21.0,-155.7,332.7,-357.9,-2964.0,299.1,-244.2,-106.2,88.5,39.9,-147.6,-445.2,-6.3,-4.8,-86.7,-161.7,-1.5,78.6,-117.6,15.0,0,2490,0,220,0,
1.3867,-95.7,-84.9,-43.5,-113.4,-11.7,-146.4,335.1,-349.5,-2964.0,310.5,-234.9,-95.7,96.6,35.4,-167.1,-460.5,-6.0,-4.2,-82.5,-150.6,-1.8,83.1,-119.1,16.8,0,2496,0,221,0,
1.3900,-93.9,-89.1,-44.7,-114.0,-13.5,-150.0,333.0,-350.4,-2964.0,300.6,-240.3,-98.7,92.7,39.3,-164.1,-455.4,-6.6,-4.2,-86.1,-158.7,-1.8,76.8,-118.8,17.7,0,2502,0,222,0,
1.3933,-92.7,-90.0,-50.7,-117.3,-14.4,-154.2,330.6,-353.7,-3186.3,294.3,-240.3,-99.9,84.6,46.5,-151.5,-459.6,-6.6,-4.5,-88.5,-156.9,-2.1,75.9,-129.0,10.2,0,2508,0,223,0,
1.3967,-92.7,-92.4,-54.3,-127.2,-27.0,-160.8,325.5,-358.8,-3186.3,287.7,-249.3,-106.5,81.3,54.3,-126.0,-449.4,-6.0,-4.2,-98.1,-165.6,-1.8,56.7,-143.1,4.2,0,2514,0,224,0,
1.4000,-99.0,-103.5,-69.9,-138.0,-40.5,-175.2,323.7,-370.8,-3112.2,268.5,-269.4,-128.4,75.0,47.7,-94.8,-427.8,-6.3,-4.8,-117.3,-183.9,-1.8,39.9,-139.5,-12.9,0,2520,0,225,0,
1.4033,-100.5,-95.1,-57.9,-129.0,-31.5,-164.7,326.4,-362.1,-2889.9,281.4,-258.3,-114.3,77.1,27.6,-138.3,-435.0,-6.0,-4.2,-104.7,-170.7,-1.8,51.3,-130.2,-2.1,0,2526,0,226,0,
1.4067,-87.3,-80.7,-39.6,-106.8,-8.1,-145.8,332.4,-346.5,-2964.0,305.4,-233.1,-90.0,78.3,46.2,-183.3,-476.1,-6.3,-4.2,-82.8,-144.3,-1.5,89.7,-134.4,24.3,0,2532,0,227,0,
1.4100,-90.0,-89.4,-48.6,-117.3,-14.4,-149.1,327.6,-348.9,-3186.3,296.1,-246.3,-99.3,77.7,42.6,-160.2,-461.4,-6.0,-4.2,-96.0,-153.0,-1.5,78.9,-135.9,17.1,0,2538,0,228,0,
1.4133,-92.4,-90.6,-53.7,-124.5,-25.2,-158.4,328.2,-351.3,-3186.3,290.4,-251.4,-110.4,84.0,48.3,-141.0,-443.7,-6.3,-4.5,-101.1,-162.3,-1.5,65.7,-127.5,7.2,0,2544,0,229,0,
1.4167,-90.9,-87.6,-46.5,-115.2,-21.0,-153.3,323.7,-351.9,-3038.1,302.7,-243.6,-97.2,87.9,44.1,-152.4,-462.0,-6.0,-4.5,-92.1,-153.0,-1.5,72.3,-138.0,10.8,0,2550,0,230,0,
1.4200,-94.5,-95.7,-53.4,-125.4,-30.9,-160.5,324.3,-359.1,-2964.0,290.1,-253.8,-112.2,85.2,40.5,-128.1,-426.9,-6.0,-4.5,-101.7,-163.5,-1.8,64.5,-128.1,9.9,0,2556,0,231,0,
1.4233,-88.8,-86.7,-51.3,-123.0,-27.9,-159.6,321.0,-361.2,-2964.0,292.5,-252.6,-107.4,98.4,54.0,-119.1,-445.8,-6.0,-4.5,-101.4,-161.7,-1.8,64.2,-133.5,12.0,0,2562,0,232,0,
1.4267,-90.0,-84.9,-46.5,-117.6,-20.4,-150.0,327.9,-353.7,-3186.3,300.3,-244.5,-99.0,96.9,53.7,-144.6,-443.1,-6.0,-4.8,-90.0,-155.7,-1.5,77.7,-124.2,21.9,0,2568,0,233,0,
1.4300,-95.1,-93.6,-55.8,-126.0,-26.7,-153.0,330.9,-362.1,-3260.4,285.0,-252.9,-106.5,87.6,39.3,-142.2,-422.4,-6.0,-4.5,-102.6,-159.9,-1.8,78.9,-111.0,20.7,0,2574,0,234,0,
1.4333,-95.4,-82.5,-43.2,-115.8,-16.8,-149.1,334.5,-354.6,-3112.2,304.8,-237.9,-96.0,96.0,40.2,-153.9,-439.5,-6.0,-4.5,-87.6,-152.7,-1.8,78.9,-117.6,21.0,0,2580,0,235,0,
1.4367,-91.8,-83.4,-41.4,-111.6,-12.9,-144.3,331.8,-349.5,-2964.0,302.1,-234.0,-90.9,90.0,44.1,-163.8,-462.3,-6.3,-4.2,-81.3,-144.9,-1.8,87.3,-130.5,24.6,0,2586,0,236,0,
1.4400,-94.2,-87.3,-41.4,-114.0,-16.5,-143.7,335.1,-349.5,-2964.0,299.1,-237.9,-96.0,94.2,37.2,-147.9,-437.1,-6.3,-4.8,-86.7,-149.1,-1.8,87.6,-124.5,32.7,0,2592,0,237,0,
1.4433,-92.1,-92.4,-47.4,-117.3,-17.1,-145.8,333.9,-351.0,-3186.3,297.6,-244.5,-101.4,88.8,48.0,-140.7,-444.9,-6.3,-4.5,-91.5,-152.4,-1.8,69.0,-126.9,24.3,0,2598,0,238,0,
1.4467,-94.5,-99.9,-58.8,-126.9,-27.3,-154.2,325.8,-359.4,-3186.3,285.3,-252.9,-109.5,78.3,57.9,-122.4,-438.0,-6.0,-4.5,-103.8,-163.8,-1.5,51.9,-129.0,10.8,0,2604,0,239,0,
1.4500,-96.0,-95.4,-50.4,-121.2,-20.4,-152.7,328.5,-352.8,-2964.0,299.4,-245.4,-103.8,87.0,42.9,-148.8,-437.1,-6.3,-4.5,-95.7,-156.6,-1.5,65.4,-131.4,12.9,0,2610,0,240,0,
1.4533,-95.4,-92.1,-53.1,-120.3,-18.6,-151.5,330.0,-354.6,-2815.8,294.0,-247.8,-105.6,88.2,44.7,-126.3,-430.5,-6.3,-4.2,-95.1,-157.8,-1.5,61.8,-125.4,14.4,0,2616,0,241,0,
1.4567,-95.1,-90.3,-47.7,-112.8,-13.5,-152.7,331.5,-355.2,-2964.0,296.4,-241.8,-99.0,87.0,54.3,-126.6,-436.2,-6.3,-4.8,-88.2,-153.0,-1.8,70.2,-126.0,18.6,0,2622,0,242,0,
1.4600,-92.1,-85.8,-48.3,-109.8,-15.9,-149.1,330.6,-356.7,-3112.2,302.1,-239.1,-96.9,84.6,59.7,-124.8,-445.8,-6.3,-4.5,-86.1,-147.9,-1.5,73.5,-128.1,20.4,0,2628,0,243,0,
1.4633,-94.8,-89.1,-44.7,-105.6,-11.4,-147.0,323.1,-355.2,-3186.3,307.5,-237.0,-94.5,84.9,47.7,-145.5,-459.9,-6.0,-4.5,-83.4,-147.6,-1.8,75.6,-133.5,24.3,0,2634,0,244,0,
1.4667,-87.9,-82.2,-35.7,-99.0,-0.9,-137.4,329.4,-349.8,-2964.0,309.9,-227.4,-85.2,99.3,50.1,-163.5,-461.4,-6.6,-4.2,-76.2,-139.2,-1.8,93.6,-120.6,34.5,0,2640,0,245,0,
1.4700,-94.8,-93.9,-51.3,-114.9,-17.7,-153.6,325.2,-360.9,-2741.7,291.3,-246.6,-102.6,87.9,51.0,-126.3,-442.5,-6.3,-4.2,-93.3,-157.2,-1.5,69.6,-125.7,21.0,0,2646,0,246,0,
1.4733,-97.8,-94.5,-55.5,-121.5,-22.8,-159.3,322.8,-368.4,-3038.1,293.4,-250.8,-109.5,87.6,44.1,-122.1,-425.7,-6.0,-4.5,-96.0,-163.8,-2.1,63.9,-128.4,14.4,0,2652,0,247,0,
1.4767,-99.3,-96.9,-56.4,-120.6,-22.8,-157.8,328.2,-364.5,-3186.3,286.8,-253.8,-114.0,81.9,47.7,-145.2,-420.0,-6.3,-4.2,-97.8,-160.8,-1.8,64.5,-118.5,19.2,0,2658,0,248,0,
1.4800,-91.2,-87.6,-51.0,-117.0,-18.0,-154.2,326.7,-360.6,-3260.4,297.3,-247.8,-106.2,88.2,60.3,-122.7,-428.4,-6.0,-4.2,-94.8,-157.5,-2.1,74.7,-120.9,22.2,0,2664,0,249,0,
1.4833,-88.8,-83.1,-41.4,-108.3,-8.7,-148.8,323.7,-352.5,-2889.9,312.3,-237.0,-92.1,94.8,57.0,-178.2,-468.3,-6.3,-4.5,-83.1,-143.1,-1.8,87.9,-129.6,29.4,0,2670,0,250,0,
1.4867,-96.3,-91.5,-54.3,-121.8,-16.8,-156.0,316.5,-362.7,-2964.0,299.7,-249.9,-100.5,89.4,53.4,-147.3,-450.9,-6.3,-4.5,-93.9,-154.8,-1.8,68.1,-137.1,21.0,0,2676,0,251,0,
1.4900,-90.9,-99.6,-60.3,-131.7,-28.8,-160.5,317.1,-371.7,-3112.2,288.3,-260.4,-117.3,85.2,63.3,-105.6,-439.2,-6.0,-4.5,-103.8,-165.6,-1.8,62.7,-148.8,12.3,0,2682,0,252,0,
1.4933,-96.3,-92.4,-55.2,-123.0,-22.5,-154.2,323.4,-365.1,-3334.5,299.7,-247.5,-109.2,86.7,47.4,-150.0,-442.8,-6.3,-4.5,-96.6,-156.6,-2.1,62.1,-129.6,17.4,0,2688,0,253,0,
1.4967,-96.0,-91.8,-44.7,-119.4,-16.5,-149.7,326.1,-361.2,-3112.2,311.4,-243.3,-101.7,99.9,31.8,-172.2,-449.4,-6.3,-4.2,-86.7,-150.6,-1.5,81.0,-131.4,22.5,0,2694,0,254,0,
1.5000,-103.5,-107.7,-67.5,-136.2,-31.8,-162.3,323.4,-375.0,-3038.1,282.0,-262.5,-122.4,77.4,43.8,-132.9,-417.6,-6.3,-4.5,-107.7,-172.2,-2.1,59.4,-133.5,12.3,0,2700,0,255,0,
1.5033,-95.7,-107.1,-71.4,-142.8,-43.5,-174.6,319.5,-379.2,-2815.8,278.7,-268.5,-129.0,74.7,66.3,-75.0,-428.1,-6.0,-4.5,-113.1,-181.5,-1.8,49.2,-151.5,-5.7,0,2706,0,0,0,
1.5067,-95.7,-97.2,-60.6,-132.3,-30.3,-165.3,325.8,-367.8,-2964.0,291.0,-257.1,-114.0,84.3,60.9,-129.9,-446.7,-6.6,-4.5,-100.2,-168.6,-1.8,66.9,-139.2,9.6,0,2712,0,1,0,
1.5100,-96.3,-93.0,-48.3,-120.9,-23.4,-154.5,330.3,-356.7,-3112.2,310.8,-243.9,-102.0,94.2,48.9,-171.6,-443.7,-6.3,-4.5,-88.8,-153.6,-1.8,86.1,-122.4,26.4,0,2718,0,2,0,
1.5133,-98.4,-97.8,-56.4,-126.0,-25.5,-161.1,327.9,-362.7,-3260.4,300.0,-253.2,-111.6,86.1,54.6,-139.8,-441.0,-6.3,-4.2,-96.0,-164.4,-1.5,77.7,-132.0,13.8,0,2724,0,3,0,
1.5167,-96.3,-90.9,-48.3,-115.8,-17.4,-153.9,329.1,-357.6,-3112.2,313.2,-243.3,-99.3,101.4,51.9,-164.1,-444.6,-6.0,-4.2,-84.3,-156.9,-1.8,83.7,-132.9,21.3,0,2730,0,4,0,
1.5200,-96.3,-99.3,-61.2,-126.9,-31.5,-167.4,318.6,-368.1,-2815.8,292.8,-254.7,-117.0,90.6,54.9,-115.8,-426.0,-6.0,-4.5,-96.0,-173.4,-1.8,57.3,-141.9,8.7,0,2736,0,5,0,
1.5233,-96.9,-103.2,-65.7,-131.1,-35.1,-172.8,315.6,-373.2,-3038.1,274.8,-262.8,-123.9,75.0,67.8,-100.8,-420.0,-6.0,-4.5,-103.8,-180.6,-1.8,46.8,-123.9,-0.6,0,2742,0,6,0,
1.5267,-92.1,-93.3,-55.5,-123.3,-23.1,-159.3,321.3,-362.1,-3186.3,300.0,-254.4,-111.6,86.7,67.5,-125.7,-439.2,-6.0,-4.5,-96.3,-168.6,-1.8,63.6,-130.2,6.9,0,2748,0,7,0,
1.5300,-96.9,-95.4,-53.7,-120.9,-23.1,-157.5,325.8,-363.6,-3260.4,300.0,-250.8,-109.5,84.3,56.1,-146.1,-432.9,-6.6,-4.2,-93.3,-162.0,-1.8,58.2,-123.6,11.1,0,2754,0,8,0,
1.5333,-90.6,-88.2,-52.2,-121.2,-22.5,-160.2,321.0,-363.6,-3038.1,299.7,-248.7,-106.8,90.6,65.7,-124.5,-458.7,-6.3,-4.5,-95.4,-161.1,-1.8,69.0,-138.6,9.0,0,2760,0,9,0,
1.5367,-95.7,-94.2,-58.5,-121.5,-25.8,-160.2,322.2,-365.4,-2964.0,303.6,-253.2,-111.6,84.6,59.7,-137.1,-441.6,-6.3,-4.2,-91.2,-164.1,-2.1,58.5,-133.2,16.2,0,2766,0,10,0,
1.5400,-93.9,-90.6,-55.8,-123.9,-19.5,-153.9,332.1,-361.2,-2964.0,305.4,-250.8,-113.1,84.6,48.3,-148.8,-424.5,-6.3,-4.5,-87.3,-163.8,-1.8,75.0,-109.2,24.0,0,2772,0,11,0,
1.5433,-96.3,-95.4,-63.3,-121.2,-19.2,-153.3,330.0,-364.2,-3186.3,295.5,-257.1,-116.1,76.5,47.7,-157.5,-410.7,-6.3,-4.5,-93.0,-165.9,-1.8,76.8,-101.7,24.0,0,2778,0,12,0,
1.5467,-96.3,-97.5,-62.4,-124.8,-18.0,-146.7,333.9,-365.7,-3112.2,301.5,-252.9,-103.2,74.4,54.9,-135.3,-402.0,-6.3,-4.2,-96.0,-156.9,-1.8,84.3,-109.5,30.9,0,2784,0,13,0,
1.5500,-87.9,-86.1,-47.1,-110.1,-5.1,-138.6,332.1,-354.9,-3112.2,317.1,-236.1,-84.9,94.8,60.9,-146.1,-452.1,-6.0,-4.5,-75.3,-140.4,-1.5,95.4,-118.2,35.1,0,2790,0,14,0,
1.5533,-87.0,-85.8,-53.1,-113.1,-8.4,-141.6,337.5,-355.5,-2889.9,318.6,-239.1,-90.9,90.3,73.2,-130.2,-458.1,-6.3,-4.2,-80.1,-145.2,-1.8,90.3,-118.8,33.3,0,2796,0,15,0,
1.5567,-91.2,-92.1,-63.9,-119.7,-19.8,-148.8,332.1,-361.8,-2889.9,300.3,-260.4,-100.5,76.5,66.0,-113.7,-439.8,-6.0,-4.5,-98.1,-151.8,-1.5,74.7,-118.8,25.8,0,2802,0,16,0,
1.5600,-92.7,-95.1,-63.0,-121.2,-15.3,-143.4,337.5,-361.8,-3186.3,300.6,-253.2,-101.4,76.5,57.9,-134.7,-433.2,-6.3,-4.2,-95.4,-150.9,-2.1,86.1,-114.0,36.6,0,2808,0,17,0,
1.5633,-92.1,-94.2,-60.9,-117.9,-20.1,-149.7,335.4,-361.5,-3186.3,295.8,-253.8,-102.6,78.6,73.5,-124.5,-435.3,-6.0,-4.2,-90.9,-154.2,-1.8,78.0,-119.7,30.0,0,2814,0,18,0,
1.5667,-93.3,-93.0,-61.8,-123.0,-23.4,-155.1,331.2,-363.0,-3038.1,300.6,-254.1,-105.0,84.9,72.6,-114.3,-441.3,-6.0,-4.8,-90.3,-159.6,-1.8,72.0,-116.7,22.2,0,2820,0,19,0,
1.5700,-95.1,-90.9,-57.6,-120.0,-26.1,-156.3,328.5,-363.0,-2889.9,303.6,-250.2,-102.9,88.2,58.2,-135.9,-435.0,-6.0,-4.5,-86.1,-159.3,-1.8,77.1,-117.6,24.6,0,2826,0,20,0,
1.5733,-90.9,-93.0,-58.2,-121.5,-21.3,-153.0,331.2,-358.8,-2889.9,300.9,-249.3,-101.7,88.8,66.0,-137.4,-429.0,-6.0,-4.5,-86.4,-159.3,-1.8,72.9,-116.7,25.2,0,2832,0,21,0,
1.5767,-94.2,-89.1,-56.4,-120.6,-21.9,-153.9,327.9,-355.8,-3260.4,306.9,-252.9,-106.8,84.3,55.8,-153.6,-434.1,-6.0,-4.2,-92.7,-160.2,-2.1,77.4,-116.1,27.6,0,2838,0,22,0,
1.5800,-87.9,-90.9,-52.2,-116.1,-21.0,-152.1,328.5,-355.5,-3186.3,306.0,-247.2,-104.4,83.7,68.7,-140.1,-463.5,-6.3,-4.5,-86.4,-157.2,-1.8,84.6,-132.9,25.8,0,2844,0,23,0,
1.5833,-90.9,-94.5,-59.1,-127.5,-30.6,-159.0,326.4,-363.3,-3038.1,295.5,-258.9,-113.1,76.5,71.1,-117.3,-445.2,-6.0,-4.5,-96.6,-168.9,-2.1,63.6,-127.5,14.4,0,2850,0,24,0,
1.5867,-90.9,-98.1,-64.8,-130.5,-29.4,-158.7,331.5,-363.0,-2815.8,283.5,-261.6,-111.0,75.3,58.8,-122.4,-434.7,-6.0,-4.2,-101.7,-167.7,-1.5,60.6,-123.3,14.4,0,2856,0,25,0,
1.5900,-94.5,-96.0,-63.3,-132.3,-32.1,-161.1,325.5,-363.6,-2964.0,283.8,-262.5,-117.6,78.3,57.9,-137.4,-446.1,-6.3,-4.5,-102.0,-174.3,-1.8,58.2,-130.5,9.6,0,2862,0,26,0,
1.5933,-90.6,-87.3,-53.4,-118.5,-15.9,-151.2,334.2,-354.3,-3260.4,305.4,-248.4,-101.4,84.9,51.3,-168.6,-452.7,-6.3,-4.5,-87.6,-154.5,-1.8,79.2,-120.6,28.2,0,2868,0,27,0,
1.5967,-94.8,-88.8,-57.0,-118.2,-18.0,-149.1,332.4,-354.3,-3112.2,302.1,-250.5,-99.3,80.1,50.1,-156.6,-454.5,-6.3,-4.8,-93.6,-156.0,-2.1,81.6,-129.9,27.6,0,2874,0,28,0,
1.6000,-97.5,-93.9,-63.3,-123.9,-27.6,-158.4,325.5,-357.9,-3038.1,294.6,-258.3,-114.3,73.8,48.3,-144.6,-451.2,-6.3,-4.5,-97.8,-167.7,-1.5,69.0,-140.1,14.1,0,2880,0,29,0,
1.6033,-96.3,-96.0,-65.4,-126.3,-29.7,-160.2,328.2,-361.8,-2964.0,287.4,-263.7,-116.4,72.6,60.6,-136.5,-443.4,-6.0,-4.5,-102.9,-171.9,-1.5,60.3,-130.8,9.3,0,2886,0,30,0,
1.6067,-96.9,-98.7,-67.5,-127.8,-32.1,-164.1,329.4,-364.2,-2964.0,277.5,-265.5,-121.2,72.0,50.4,-131.4,-436.8,-6.0,-4.2,-105.0,-174.9,-1.5,50.4,-126.9,10.8,0,2892,0,31,0,
1.6100,-99.0,-102.3,-67.5,-134.4,-33.0,-161.4,334.5,-368.1,-3112.2,284.4,-269.4,-123.9,69.9,43.8,-134.7,-424.5,-6.6,-4.5,-105.9,-174.9,-2.1,58.8,-120.3,14.4,0,2898,0,32,0,
1.6133,-98.4,-100.5,-70.2,-132.9,-33.3,-159.0,331.5,-362.7,-3334.5,276.0,-266.7,-121.5,65.4,55.8,-136.2,-440.4,-6.3,-4.5,-107.1,-172.2,-1.8,62.7,-128.7,13.5,0,2904,0,33,0,
1.6167,-100.2,-97.2,-72.3,-131.1,-30.0,-157.8,329.1,-364.2,-2964.0,283.5,-264.9,-115.2,72.3,47.4,-142.8,-446.4,-6.0,-4.5,-105.3,-169.8,-1.8,65.1,-131.4,19.5,0,2910,0,34,0,
1.6200,-92.7,-87.0,-63.9,-124.2,-21.3,-150.6,333.0,-359.7,-2889.9,299.7,-252.6,-108.9,78.0,55.8,-144.6,-435.6,-6.3,-4.5,-93.3,-163.2,-1.8,63.9,-129.3,25.5,0,2916,0,35,0,
1.6233,-95.1,-84.6,-58.5,-116.7,-19.2,-150.3,335.7,-353.1,-2889.9,304.8,-251.7,-105.9,80.1,54.3,-165.3,-448.8,-6.3,-4.8,-90.9,-162.0,-1.8,66.0,-119.1,22.8,0,2922,0,36,0,
1.6267,-97.5,-90.3,-68.7,-123.6,-26.4,-156.6,333.6,-357.9,-3260.4,292.8,-263.7,-114.9,76.8,52.8,-130.5,-423.0,-6.9,-4.5,-101.1,-167.4,-1.8,60.0,-119.7,19.5,0,2928,0,37,0,
1.6300,-99.3,-95.4,-69.6,-128.4,-28.5,-158.7,334.2,-361.5,-3260.4,279.3,-266.1,-116.7,71.1,45.3,-138.9,-418.8,-6.3,-4.8,-108.0,-170.7,-1.2,56.7,-117.0,15.3,0,2934,0,38,0,
1.6333,-92.4,-81.3,-57.6,-112.5,-12.0,-144.3,338.1,-351.9,-3038.1,299.1,-253.2,-106.5,80.1,58.2,-161.4,-462.9,-6.3,-4.5,-93.6,-159.9,-1.5,75.6,-119.4,30.9,0,2940,0,39,0,
1.6367,-91.5,-92.1,-67.5,-122.4,-19.5,-155.1,332.1,-356.1,-2815.8,289.8,-261.3,-114.6,75.6,58.2,-123.0,-451.5,-6.6,-4.2,-102.3,-163.8,-1.5,61.8,-131.1,24.3,0,2946,0,40,0,
1.6400,-99.0,-100.8,-79.8,-132.0,-34.8,-170.7,329.1,-367.8,-3038.1,279.3,-273.3,-124.8,66.6,62.1,-79.5,-420.0,-6.3,-4.5,-114.6,-177.6,-1.5,34.2,-132.0,3.3,0,2952,0,41,0,
1.6433,-93.9,-82.5,-50.7,-107.7,-6.0,-139.8,340.8,-345.9,-3038.1,314.4,-240.9,-93.6,95.1,37.2,-177.3,-446.4,-6.3,-4.5,-80.4,-144.9,-1.5,82.5,-104.1,35.7,0,2958,0,42,0,
1.6467,-100.5,-96.9,-66.6,-123.0,-20.1,-152.4,334.2,-357.9,-3260.4,291.0,-256.2,-108.3,73.8,60.3,-129.6,-430.5,-6.0,-4.5,-97.5,-159.9,-1.8,68.1,-114.0,24.0,0,2964,0,43,0,
1.6500,-94.2,-95.4,-65.7,-122.1,-22.2,-153.0,334.2,-355.2,-3038.1,283.2,-255.9,-107.4,77.4,69.0,-135.6,-455.4,-6.3,-4.5,-98.1,-159.3,-1.2,73.5,-116.1,20.4,0,2970,0,44,0,
1.6533,-97.2,-89.4,-60.9,-113.7,-14.4,-152.1,335.4,-353.4,-2815.8,305.4,-248.1,-98.1,84.6,58.8,-161.4,-463.5,-6.3,-4.5,-92.1,-150.0,-2.1,76.8,-118.2,26.1,0,2976,0,45,0,
1.6567,-96.6,-95.1,-63.3,-120.9,-22.2,-157.2,331.5,-359.7,-3038.1,297.3,-254.1,-103.8,76.5,60.3,-132.3,-451.5,-6.0,-4.5,-91.5,-157.2,-1.8,73.2,-124.2,22.8,0,2982,0,46,0,
1.6600,-98.1,-95.7,-70.5,-119.1,-22.8,-158.1,336.6,-361.5,-3260.4,296.1,-257.1,-105.6,77.7,56.4,-134.4,-432.3,-6.0,-4.2,-97.8,-159.6,-1.8,73.2,-116.7,24.3,0,2988,0,47,0,
1.6633,-95.7,-94.5,-64.2,-117.9,-16.5,-153.6,346.8,-356.4,-3186.3,299.1,-252.0,-102.3,88.2,54.3,-136.2,-444.3,-6.3,-4.5,-93.9,-152.1,-1.5,81.9,-107.1,32.7,0,2994,0,48,0,
1.6667,-94.8,-90.3,-60.9,-114.9,-15.3,-149.7,340.2,-354.3,-3038.1,304.5,-249.0,-99.6,84.9,57.6,-132.6,-445.8,-6.3,-4.2,-89.7,-151.5,-1.8,86.7,-112.2,34.2,0,3000,0,49,0,
1.6700,-96.6,-96.3,-67.2,-122.7,-20.4,-151.8,335.7,-359.1,-2889.9,289.5,-258.0,-105.0,77.1,51.0,-139.5,-439.8,-6.0,-4.5,-99.6,-158.1,-1.8,82.8,-115.8,35.4,0,3006,0,50,0,
1.6733,-99.3,-96.3,-67.8,-124.5,-18.6,-150.9,336.0,-356.4,-2964.0,292.8,-259.2,-107.7,74.4,43.5,-135.3,-453.6,-6.0,-4.5,-101.4,-159.0,-1.8,85.2,-120.3,27.9,0,3012,0,51,0,
1.6767,-96.0,-92.4,-68.4,-123.6,-20.1,-150.9,339.0,-349.5,-3186.3,294.0,-256.8,-106.2,75.0,49.2,-148.2,-450.6,-6.3,-4.5,-101.1,-158.7,-1.5,77.7,-116.1,28.8,0,3018,0,52,0,
1.6800,-93.6,-90.6,-62.7,-120.9,-17.4,-150.6,338.1,-351.0,-3334.5,296.7,-254.1,-107.7,77.7,44.4,-163.2,-465.0,-6.3,-4.8,-99.3,-157.2,-1.8,77.1,-117.6,27.9,0,3024,0,53,0,
1.6833,-94.8,-95.7,-71.1,-128.4,-28.2,-161.4,328.5,-355.8,-2964.0,286.8,-263.1,-118.2,73.8,54.6,-108.6,-464.7,-6.3,-4.2,-108.9,-169.5,-1.8,57.9,-126.0,11.7,0,3030,0,54,0,
1.6867,-91.2,-89.4,-63.3,-118.8,-19.8,-155.1,334.8,-351.9,-2889.9,296.4,-255.3,-111.0,79.2,60.9,-130.5,-464.1,-6.0,-4.8,-99.0,-162.9,-1.5,63.9,-116.7,18.0,0,3036,0,55,0,
1.6900,-96.6,-85.8,-60.3,-114.3,-19.2,-148.8,336.3,-351.3,-2889.9,306.3,-252.3,-108.3,82.5,33.9,-161.4,-461.7,-6.0,-4.5,-98.1,-158.1,-1.8,69.3,-116.4,23.7,0,3042,0,56,0,
1.6933,-96.3,-94.2,-70.5,-121.8,-23.4,-153.3,333.6,-351.0,-3260.4,290.7,-261.9,-116.1,59.7,57.9,-142.5,-458.1,-6.0,-4.8,-103.2,-166.5,-1.8,57.9,-117.0,14.4,0,3048,0,57,0,
1.6967,-94.8,-86.1,-54.3,-106.2,-5.7,-140.7,340.2,-341.1,-3260.4,305.7,-244.5,-98.1,78.0,52.5,-166.8,-474.0,-6.3,-4.2,-86.7,-149.1,-1.8,75.3,-118.5,29.7,0,3054,0,58,0,
1.7000,-91.5,-87.0,-54.0,-105.9,-5.1,-142.5,336.0,-339.9,-3038.1,309.0,-243.0,-95.7,80.4,46.5,-157.2,-465.3,-6.6,-4.2,-90.6,-146.7,-2.1,87.6,-118.2,27.9,0,3060,0,59,0,
1.7033,-95.4,-98.4,-70.8,-122.4,-22.2,-158.1,330.3,-354.6,-2815.8,279.0,-261.3,-111.9,66.9,58.2,-102.6,-451.8,-6.0,-4.5,-103.2,-162.6,-1.8,74.7,-127.8,21.3,0,3066,0,60,0,
1.7067,-97.8,-90.6,-60.0,-114.9,-12.9,-149.7,334.2,-345.9,-3112.2,299.1,-246.3,-101.1,69.0,48.9,-165.6,-472.5,-6.3,-4.2,-93.3,-154.5,-1.8,79.8,-124.2,26.1,0,3072,0,61,0,
1.7100,-96.6,-84.6,-55.5,-110.1,-9.9,-145.8,336.3,-342.9,-3112.2,304.8,-245.7,-97.8,79.8,52.5,-176.4,-465.6,-6.3,-4.2,-90.3,-147.0,-1.5,85.2,-115.5,26.4,0,3078,0,62,0,
1.7133,-90.3,-81.0,-49.5,-109.8,-8.7,-144.0,343.5,-344.1,-3112.2,302.1,-244.8,-94.8,83.4,59.1,-150.9,-461.4,-6.3,-4.2,-90.9,-147.6,-1.5,85.8,-117.0,34.2,0,3084,0,63,0,
1.7167,-95.4,-88.8,-58.8,-115.2,-17.4,-152.1,334.5,-350.4,-3038.1,292.2,-252.3,-105.9,75.9,57.3,-127.8,-461.4,-6.3,-4.2,-95.4,-156.9,-1.5,72.0,-129.6,19.8,0,3090,0,64,0,
1.7200,-94.5,-90.3,-62.7,-118.8,-22.2,-156.6,331.8,-354.0,-2815.8,292.2,-255.3,-107.7,73.5,59.4,-130.5,-455.7,-6.3,-4.5,-99.9,-160.2,-1.8,69.0,-141.9,19.8,0,3096,0,65,0,
1.7233,-92.4,-85.2,-51.6,-111.0,-14.4,-148.8,333.0,-347.4,-3038.1,307.5,-246.9,-98.4,79.8,57.9,-151.2,-474.9,-6.0,-4.5,-87.3,-148.5,-1.5,81.9,-135.0,22.8,0,3102,0,66,0,
1.7267,-96.0,-77.4,-47.1,-105.6,-9.6,-144.6,336.6,-343.5,-3112.2,309.9,-243.9,-92.4,90.9,54.6,-143.4,-474.0,-6.3,-4.8,-80.1,-148.5,-1.5,78.3,-129.6,23.1,0,3108,0,67,0,
1.7300,-96.6,-84.9,-55.5,-110.1,-15.3,-151.5,333.9,-347.4,-3260.4,300.3,-246.6,-104.1,84.6,57.9,-129.0,-445.5,-6.0,-4.8,-84.3,-157.5,-2.1,72.6,-123.9,23.7,0,3114,0,68,0,
1.7333,-92.7,-79.5,-46.2,-101.4,-3.9,-138.0,342.0,-337.5,-2889.9,303.3,-239.7,-93.3,81.3,57.6,-153.6,-459.9,-6.3,-4.2,-78.3,-146.4,-1.5,89.7,-124.8,35.7,0,3120,0,69,0,
1.7367,-92.7,-84.0,-53.4,-112.2,-9.9,-148.2,339.6,-344.4,-3038.1,295.2,-248.4,-100.5,77.7,45.9,-128.1,-441.3,-6.3,-4.8,-84.6,-153.0,-1.5,82.5,-124.8,31.5,0,3126,0,70,0,
1.7400,-86.4,-83.7,-59.1,-111.0,-12.3,-149.4,339.9,-348.9,-2889.9,296.4,-249.9,-100.5,81.0,55.2,-113.4,-450.6,-6.6,-4.8,-88.5,-153.9,-1.8,81.0,-129.3,27.9,0,3132,0,71,0,
1.7433,-85.8,-82.5,-57.6,-111.9,-12.0,-150.9,332.4,-348.6,-3186.3,299.7,-251.1,-102.6,77.7,69.6,-114.0,-459.9,-6.0,-4.5,-90.3,-157.5,-1.8,65.7,-133.5,22.8,0,3138,0,72,0,
1.7467,-83.7,-82.5,-59.7,-111.0,-14.4,-151.5,331.2,-348.6,-3260.4,297.9,-252.3,-105.6,81.0,68.1,-105.0,-449.1,-6.6,-4.5,-96.3,-159.6,-1.5,68.7,-131.7,22.2,0,3144,0,73,0,
1.7500,-90.6,-81.9,-57.3,-110.1,-12.6,-151.8,328.5,-345.6,-3186.3,303.9,-251.7,-102.9,85.8,63.9,-133.5,-441.9,-6.3,-4.5,-93.0,-157.8,-1.5,78.9,-119.4,24.3,0,3150,0,74,0,
1.7533,-89.1,-84.6,-54.9,-108.6,-12.0,-146.4,336.3,-343.2,-2964.0,303.6,-247.2,-99.0,86.4,52.5,-154.2,-443.4,-6.3,-3.9,-91.8,-152.7,-1.8,83.4,-122.7,35.1,0,3156,0,75,0,
1.7567,-84.6,-78.9,-45.0,-99.0,-2.7,-141.0,336.3,-336.9,-2964.0,311.1,-236.4,-88.5,96.3,57.9,-159.3,-480.3,-6.3,-4.5,-80.1,-141.9,-1.8,100.5,-139.8,40.2,0,3162,0,76,0,
1.7600,-95.1,-90.0,-66.6,-120.3,-23.4,-156.6,334.2,-353.4,-3260.4,293.4,-254.1,-111.0,76.5,60.3,-127.8,-446.4,-6.3,-4.2,-98.7,-165.3,-1.8,66.9,-130.8,16.5,0,3168,0,77,0,
1.7633,-87.6,-84.6,-54.0,-109.8,-12.3,-152.4,335.1,-346.2,-3186.3,309.3,-245.1,-95.4,84.9,64.8,-140.4,-457.8,-6.6,-4.5,-87.0,-153.0,-1.8,87.3,-126.9,27.3,0,3174,0,78,0,
1.7667,-93.0,-95.1,-58.8,-114.6,-17.1,-156.0,333.3,-349.5,-3038.1,290.1,-253.5,-102.0,72.6,57.6,-134.1,-456.0,-6.3,-3.9,-98.4,-159.9,-1.5,70.5,-131.7,22.8,0,3180,0,79,0,
1.7700,-95.4,-98.7,-65.7,-116.7,-20.1,-161.4,334.5,-349.5,-2889.9,286.2,-262.8,-112.5,68.4,58.2,-112.8,-442.5,-6.0,-4.5,-106.2,-165.6,-1.8,64.5,-126.3,18.3,0,3186,0,80,0,
1.7733,-89.1,-87.0,-50.7,-104.4,-6.9,-150.0,338.1,-336.3,-2964.0,300.6,-243.9,-97.5,87.6,54.6,-146.4,-475.2,-6.0,-4.2,-87.0,-150.6,-1.8,78.9,-128.4,31.5,0,3192,0,81,0,
1.7767,-93.9,-84.0,-54.0,-105.6,-8.4,-149.7,335.7,-339.0,-3186.3,310.2,-245.4,-96.3,84.3,50.7,-164.1,-450.0,-6.0,-4.2,-88.5,-152.1,-1.5,75.0,-123.6,29.1,0,3198,0,82,0,
1.7800,-94.2,-88.5,-57.6,-113.4,-14.1,-152.7,331.8,-344.4,-3260.4,305.7,-248.1,-100.8,78.9,60.0,-131.7,-447.0,-6.0,-4.2,-91.2,-155.1,-1.5,78.6,-120.3,26.1,0,3204,0,83,0,
1.7833,-91.2,-83.4,-48.9,-105.3,-6.3,-147.3,336.3,-340.8,-3038.1,312.3,-242.1,-95.1,90.6,62.4,-153.9,-465.0,-6.0,-4.2,-82.8,-150.9,-1.8,83.4,-117.6,26.4,0,3210,0,84,0,
1.7867,-93.3,-83.1,-51.6,-107.1,-8.1,-151.5,335.1,-343.2,-2964.0,306.0,-243.0,-96.0,86.4,59.4,-139.8,-470.4,-6.3,-4.5,-85.5,-152.1,-1.8,83.7,-123.6,27.0,0,3216,0,85,0,
1.7900,-92.7,-83.4,-51.3,-111.6,-9.6,-150.0,338.7,-343.2,-3038.1,306.6,-247.8,-98.7,90.6,55.8,-143.4,-470.7,-6.0,-4.5,-88.5,-157.5,-1.8,79.8,-120.6,29.1,0,3222,0,86,0,
1.7933,-98.4,-89.4,-61.2,-119.4,-18.9,-158.7,333.0,-351.3,-3260.4,290.7,-257.1,-109.5,77.4,60.0,-113.7,-456.3,-6.3,-4.5,-99.9,-164.1,-1.5,67.5,-126.0,20.7,0,3228,0,87,0,
1.7967,-98.7,-88.8,-51.6,-111.9,-9.6,-150.9,336.9,-347.7,-3260.4,303.6,-244.8,-96.6,85.8,46.2,-156.6,-468.6,-6.0,-4.2,-88.2,-149.7,-1.8,82.2,-127.8,26.4,0,3234,0,88,0,
1.8000,-98.1,-87.0,-55.5,-114.6,-12.9,-150.9,337.8,-352.5,-3038.1,293.4,-252.6,-102.6,78.9,56.7,-136.2,-453.0,-6.3,-4.8,-94.8,-156.6,-1.5,76.2,-111.9,20.4,0,3240,0,89,0,
1.8033,-100.2,-90.3,-55.2,-112.2,-14.4,-152.4,339.3,-352.8,-2889.9,297.3,-252.3,-102.6,77.4,47.1,-149.4,-463.2,-6.0,-4.8,-94.2,-158.1,-2.1,72.6,-105.9,22.5,0,3246,0,90,0,
1.8067,-95.4,-79.2,-45.0,-102.0,-0.6,-142.8,341.1,-338.7,-2964.0,308.4,-236.7,-90.6,88.5,47.4,-167.7,-469.8,-6.3,-4.2,-78.9,-144.0,-1.2,85.8,-106.8,32.1,0,3252,0,91,0,
1.8100,-95.1,-78.0,-43.2,-97.2,3.3,-136.2,343.5,-334.2,-3260.4,313.8,-232.5,-83.1,92.7,50.7,-172.5,-486.0,-6.0,-4.2,-77.7,-139.5,-1.5,92.1,-110.7,41.4,0,3258,0,92,0,
1.8133,-98.7,-79.2,-45.9,-99.9,4.5,-137.7,344.1,-337.8,-3334.5,311.1,-237.6,-88.5,81.6,52.5,-159.6,-459.3,-6.0,-4.5,-82.2,-139.8,-1.8,87.3,-106.8,34.8,0,3264,0,93,0,
1.8167,-91.5,-74.4,-38.1,-95.1,5.4,-140.1,339.9,-336.9,-2889.9,313.8,-232.8,-82.5,85.5,60.6,-150.3,-478.8,-6.3,-4.5,-78.0,-138.3,-1.8,87.0,-117.9,34.5,0,3270,0,94,0,
1.8200,-88.2,-78.0,-46.2,-103.8,-4.5,-148.2,333.6,-342.3,-2815.8,304.2,-243.0,-96.3,91.2,68.4,-118.2,-468.3,-6.0,-4.5,-84.6,-148.8,-1.5,79.2,-129.3,26.7,0,3276,0,95,0,
1.8233,-90.6,-79.5,-45.3,-102.0,-5.4,-145.2,334.8,-336.6,-3038.1,310.5,-238.8,-92.7,87.3,59.7,-138.3,-480.3,-6.0,-4.5,-81.0,-145.5,-2.1,72.3,-136.5,23.7,0,3282,0,96,0,
1.8267,-93.0,-81.0,-44.7,-100.8,-2.1,-143.1,340.5,-336.3,-3112.2,308.1,-238.8,-91.2,90.0,58.2,-138.6,-457.8,-6.0,-4.5,-81.9,-146.4,-1.5,78.6,-124.5,30.6,0,3288,0,97,0,
1.8300,-93.0,-82.5,-45.9,-99.9,-2.7,-147.0,336.6,-340.5,-3112.2,305.4,-236.7,-90.0,88.8,57.9,-131.4,-458.4,-6.0,-4.8,-80.4,-143.7,-2.1,70.2,-126.6,29.4,0,3294,0,98,0,
1.8333,-92.1,-75.3,-36.6,-88.2,6.6,-137.1,342.9,-332.7,-2964.0,313.5,-225.6,-76.5,93.3,53.4,-176.7,-462.6,-6.0,-4.5,-69.3,-132.6,-1.5,90.3,-120.0,40.2,0,3300,0,99,0,
1.8367,-92.1,-75.6,-37.2,-90.6,6.0,-139.5,339.6,-336.9,-2815.8,305.1,-228.9,-78.9,88.2,56.4,-152.7,-475.8,-6.0,-4.2,-72.9,-136.2,-2.1,89.4,-125.7,35.7,0,3306,0,100,0,
1.8400,-93.6,-80.1,-44.1,-99.0,-5.4,-146.4,336.9,-342.3,-2964.0,292.2,-237.0,-94.5,88.5,61.2,-121.8,-445.2,-6.0,-4.2,-80.7,-147.9,-1.8,77.4,-117.9,28.5,0,3312,0,101,0,
1.8433,-94.5,-84.0,-52.2,-109.5,-17.1,-154.2,332.7,-345.9,-3186.3,284.1,-247.2,-100.2,78.6,63.9,-99.9,-432.9,-6.6,-4.8,-90.6,-157.5,-1.8,69.3,-124.8,20.1,0,3318,0,102,0,
1.8467,-95.1,-75.9,-36.0,-93.0,2.4,-145.5,336.0,-339.9,-3260.4,309.6,-228.3,-81.9,88.5,55.8,-126.9,-459.3,-6.3,-4.2,-74.7,-135.9,-1.5,97.2,-123.3,35.1,0,3324,0,103,0,
1.8500,-89.1,-69.6,-28.2,-87.3,8.1,-144.3,335.7,-334.8,-3112.2,326.1,-219.9,-71.4,105.9,59.4,-135.3,-495.3,-6.6,-4.8,-66.3,-127.5,-1.5,111.3,-126.6,41.7,0,3330,0,104,0,
1.8533,-92.7,-71.4,-24.9,-86.1,6.9,-144.0,336.0,-331.5,-2815.8,326.1,-217.5,-72.3,102.6,55.8,-182.1,-476.7,-6.3,-4.5,-64.8,-128.7,-1.5,105.9,-126.0,39.9,0,3336,0,105,0,
1.8567,-90.9,-74.7,-28.5,-85.5,0.6,-144.3,343.2,-332.4,-2964.0,321.6,-222.3,-78.9,99.9,58.5,-160.5,-441.6,-6.0,-4.5,-65.4,-135.0,-1.8,105.0,-112.8,40.2,0,3342,0,106,0,
1.8600,-91.8,-80.4,-37.5,-97.2,-6.9,-154.2,334.5,-345.0,-3334.5,314.7,-231.0,-87.6,89.1,72.3,-117.6,-449.7,-6.3,-4.2,-75.0,-145.5,-1.5,89.4,-124.8,28.2,0,3348,0,107,0,
1.8633,-89.1,-81.0,-34.8,-90.6,-2.1,-147.3,333.0,-342.3,-3186.3,319.2,-225.9,-79.5,91.8,68.4,-123.9,-445.2,-6.0,-4.5,-69.6,-139.2,-2.1,99.9,-122.4,31.2,0,3354,0,108,0,
1.8667,-91.8,-82.5,-39.3,-95.7,-3.6,-147.0,335.4,-345.6,-2964.0,315.6,-227.1,-83.4,93.6,66.3,-131.1,-442.5,-6.3,-4.8,-73.8,-141.9,-1.8,98.1,-123.6,22.5,0,3360,0,109,0,
1.8700,-87.9,-74.7,-26.1,-89.1,6.6,-142.8,334.8,-338.1,-2889.9,324.3,-215.1,-72.9,102.0,63.9,-155.7,-459.6,-6.3,-4.5,-60.3,-131.1,-1.8,113.1,-122.7,34.8,0,3366,0,110,0,
1.8733,-87.3,-85.5,-44.7,-105.9,-13.5,-161.1,326.7,-353.4,-3112.2,308.4,-237.0,-96.0,91.5,73.8,-110.7,-446.7,-6.0,-4.5,-80.1,-153.6,-1.8,84.0,-133.2,15.9,0,3372,0,111,0,
1.8767,-88.8,-85.5,-42.0,-103.8,-9.0,-158.4,325.5,-349.2,-3186.3,310.2,-234.9,-91.2,91.2,68.1,-134.4,-462.0,-6.0,-4.2,-80.4,-149.1,-1.8,80.7,-131.7,21.6,0,3378,0,112,0,
1.8800,-92.4,-97.5,-60.6,-121.5,-23.7,-170.7,320.4,-360.0,-3260.4,287.4,-254.4,-105.6,78.9,74.4,-79.8,-454.2,-6.3,-4.8,-102.9,-163.2,-1.5,62.7,-144.0,4.8,0,3384,0,113,0,
1.8833,-93.9,-86.4,-43.2,-103.5,-6.0,-158.1,325.8,-347.4,-2964.0,321.3,-231.0,-84.6,90.9,52.2,-156.9,-474.6,-6.0,-4.2,-74.7,-144.6,-1.8,80.1,-139.5,20.1,0,3390,0,114,0,
1.8867,-91.5,-90.3,-46.8,-104.1,-6.9,-154.2,329.4,-346.8,-2889.9,313.5,-234.3,-90.0,81.0,49.8,-159.0,-468.0,-6.3,-4.8,-82.8,-146.4,-1.8,87.0,-135.3,23.1,0,3396,0,115,0,
1.8900,-94.5,-92.4,-49.5,-107.7,-9.6,-158.1,326.7,-346.2,-3112.2,305.4,-239.4,-92.4,80.7,61.8,-154.2,-480.6,-6.3,-4.5,-88.2,-152.4,-2.1,78.3,-146.7,17.7,0,3402,0,116,0,
1.8933,-97.2,-95.4,-50.4,-110.1,-8.4,-154.5,328.8,-348.3,-3112.2,306.9,-240.9,-91.5,80.4,56.1,-155.7,-470.1,-6.3,-4.8,-90.9,-148.8,-1.8,71.1,-144.3,13.2,0,3408,0,117,0,
1.8967,-98.4,-101.4,-62.1,-118.5,-22.2,-165.3,321.0,-356.7,-3334.5,294.6,-252.9,-107.1,72.6,64.8,-93.3,-466.2,-6.0,-4.5,-104.4,-164.4,-1.8,60.3,-157.2,0.9,0,3414,0,118,0,
1.9000,-90.6,-92.7,-56.4,-113.4,-16.5,-159.6,326.7,-354.0,-3038.1,298.2,-250.2,-105.9,79.2,77.4,-109.2,-459.3,-6.3,-4.5,-99.3,-159.3,-1.8,63.3,-145.2,6.0,0,3420,0,119,0,
1.9033,-95.7,-83.4,-43.5,-96.6,-0.9,-142.8,335.4,-337.5,-2964.0,313.8,-234.9,-86.1,85.8,41.7,-190.5,-449.7,-6.3,-4.2,-78.9,-140.4,-1.2,85.8,-127.2,23.4,0,3426,0,120,0,
1.9067,-94.2,-83.7,-43.8,-96.6,1.5,-141.6,336.0,-334.5,-2964.0,312.3,-231.0,-84.9,83.4,38.7,-180.3,-451.5,-6.3,-4.5,-79.2,-142.5,-1.8,85.8,-126.6,22.8,0,3432,0,121,0,
1.9100,-95.4,-79.8,-35.1,-87.6,10.5,-130.8,342.6,-329.7,-3186.3,317.1,-221.7,-74.1,82.2,36.0,-164.1,-468.3,-6.3,-4.5,-69.6,-128.7,-1.5,96.3,-127.5,34.5,0,3438,0,122,0,
1.9133,-98.4,-87.0,-46.2,-101.4,-3.9,-134.4,345.3,-338.7,-3186.3,302.4,-236.4,-89.4,78.3,36.6,-139.8,-420.3,-6.0,-4.2,-87.0,-140.4,-1.5,84.6,-119.7,22.2,0,3444,0,123,0,
1.9167,-97.5,-87.9,-46.2,-96.6,-1.5,-135.0,342.0,-334.5,-2964.0,303.6,-234.9,-85.2,90.0,50.1,-127.2,-448.8,-6.3,-4.5,-82.5,-138.3,-1.5,91.5,-119.7,24.3,0,3450,0,124,0,
1.9200,-99.3,-86.7,-46.8,-97.2,-2.1,-135.9,347.4,-335.4,-2964.0,303.9,-231.6,-85.8,89.4,37.8,-147.9,-435.3,-6.0,-4.2,-81.0,-138.6,-1.5,91.8,-109.5,32.4,0,3456,0,125,0,
1.9233,-102.3,-85.5,-47.7,-99.3,-4.5,-136.2,344.4,-336.9,-2889.9,306.0,-238.8,-88.2,79.8,42.0,-142.5,-449.1,-6.0,-4.5,-82.8,-139.2,-1.8,94.2,-115.5,32.4,0,3462,0,126,0,
1.9267,-95.7,-87.0,-45.3,-98.4,-3.9,-138.6,346.2,-338.4,-3186.3,307.8,-231.6,-85.5,81.0,63.9,-126.6,-447.3,-6.3,-4.5,-78.3,-137.4,-2.1,92.1,-115.8,30.9,0,3468,0,127,0,
1.9300,-96.9,-85.5,-41.1,-95.7,1.5,-132.9,349.8,-336.3,-3186.3,321.0,-228.0,-81.3,94.5,54.6,-170.7,-439.5,-6.3,-4.5,-72.6,-132.0,-1.8,102.3,-103.8,43.5,0,3474,0,128,0,
1.9333,-97.8,-94.5,-57.3,-109.5,-15.6,-146.1,336.3,-351.0,-3038.1,306.9,-246.3,-98.4,94.8,64.5,-122.1,-438.6,-6.0,-4.5,-91.8,-147.9,-1.8,79.8,-123.6,23.7,0,3480,0,129,0,
1.9367,-91.8,-93.3,-57.0,-110.7,-15.3,-147.3,339.3,-349.2,-2815.8,294.6,-244.2,-98.1,90.0,66.6,-94.8,-448.2,-6.0,-4.2,-90.9,-149.7,-1.8,77.7,-126.9,22.2,0,3486,0,130,0,
1.9400,-92.1,-81.0,-37.5,-89.7,7.8,-127.5,345.6,-332.4,-2964.0,322.2,-220.8,-72.0,100.2,55.5,-177.0,-475.8,-6.0,-4.5,-68.1,-127.5,-2.1,105.6,-110.1,46.2,0,3492,0,131,0,
1.9433,-89.4,-77.1,-37.8,-87.6,7.8,-126.9,353.4,-330.9,-3186.3,324.3,-222.9,-77.7,96.6,51.6,-185.4,-456.0,-6.3,-4.5,-69.0,-129.0,-1.5,108.3,-101.4,44.1,0,3498,0,132,0,
1.9467,-92.1,-82.8,-45.0,-95.7,-2.1,-136.5,345.9,-335.4,-3260.4,312.3,-233.1,-90.0,87.9,62.4,-143.4,-453.0,-6.0,-4.5,-82.8,-140.4,-2.1,91.2,-114.0,35.1,0,3504,0,133,0,
1.9500,-85.5,-79.5,-42.0,-95.1,-0.6,-135.3,345.0,-333.3,-3038.1,314.4,-228.6,-87.3,83.4,68.7,-132.6,-467.7,-6.3,-4.2,-75.9,-142.2,-1.8,98.1,-115.8,35.1,0,3510,0,134,0,
1.9533,-84.6,-80.7,-47.7,-100.2,-5.7,-139.2,341.1,-335.1,-2889.9,300.3,-236.4,-91.5,86.1,70.2,-114.9,-454.2,-6.6,-4.2,-82.5,-147.6,-1.8,88.2,-122.7,30.3,0,3516,0,135,0,
1.9567,-88.5,-82.5,-44.1,-100.2,-3.6,-135.0,345.3,-336.9,-3038.1,297.3,-240.6,-95.7,87.3,61.2,-138.0,-451.5,-6.3,-4.5,-89.1,-146.4,-1.5,84.3,-120.3,30.6,0,3522,0,136,0,
1.9600,-93.3,-81.0,-39.0,-94.2,3.9,-130.2,345.9,-329.7,-3038.1,310.2,-230.7,-84.3,88.8,46.2,-170.4,-458.1,-6.3,-4.5,-81.9,-137.7,-1.8,91.8,-115.8,33.6,0,3528,0,137,0,
1.9633,-88.8,-82.2,-47.1,-98.1,-1.2,-140.7,341.1,-336.6,-3186.3,312.9,-236.7,-90.3,92.7,57.3,-142.8,-465.3,-6.6,-4.8,-79.8,-144.6,-2.1,76.8,-129.3,24.9,0,3534,0,138,0,
1.9667,-88.5,-86.7,-56.4,-107.4,-9.3,-147.0,335.4,-339.9,-2964.0,303.3,-245.1,-102.3,87.0,73.8,-112.2,-458.4,-6.0,-4.5,-89.7,-153.9,-1.8,69.9,-137.1,17.4,0,3540,0,139,0,
1.9700,-90.0,-86.7,-55.5,-106.8,-15.6,-151.2,336.3,-339.3,-2889.9,301.5,-247.2,-105.9,85.5,69.9,-126.9,-471.0,-6.3,-4.5,-92.7,-156.9,-1.8,75.6,-139.8,14.4,0,3546,0,140,0,
1.9733,-91.5,-87.9,-52.8,-103.2,-10.2,-144.9,336.6,-337.5,-2964.0,304.8,-243.6,-98.4,84.0,52.5,-158.4,-453.3,-6.0,-4.5,-90.0,-152.1,-1.8,69.9,-131.7,21.0,0,3552,0,141,0,
1.9767,-90.9,-91.5,-59.1,-105.9,-14.1,-148.5,332.7,-339.9,-3112.2,301.2,-244.2,-103.5,83.1,63.6,-136.5,-457.8,-6.3,-4.5,-94.2,-156.6,-1.8,72.9,-135.9,9.6,0,3558,0,142,0,
1.9800,-95.1,-97.5,-63.3,-115.2,-25.5,-157.5,330.0,-345.6,-3186.3,285.6,-256.8,-114.3,72.3,60.9,-114.9,-445.8,-6.0,-4.5,-104.7,-166.5,-2.1,63.3,-136.8,4.8,0,3564,0,143,0,
1.9833,-101.4,-97.2,-59.4,-114.0,-23.4,-157.8,325.2,-347.7,-3038.1,296.7,-250.5,-110.1,77.4,44.7,-150.0,-459.0,-6.6,-4.8,-101.4,-163.8,-1.5,72.0,-140.1,8.7,0,3570,0,144,0,
1.9867,-101.7,-91.5,-56.7,-110.4,-19.8,-150.3,325.8,-342.3,-2889.9,305.4,-248.7,-107.1,83.1,48.9,-166.5,-477.0,-6.0,-4.2,-95.4,-162.0,-1.5,79.2,-146.4,11.1,0,3576,0,145,0,
1.9900,-106.2,-102.6,-71.4,-121.5,-30.3,-164.4,325.8,-350.1,-3112.2,283.2,-265.8,-126.0,67.5,39.6,-150.0,-432.6,-6.6,-4.5,-113.7,-175.2,-1.8,59.1,-136.2,3.0,0,3582,0,146,0,
1.9933,-99.9,-95.7,-60.3,-115.5,-20.4,-158.1,326.4,-344.1,-3186.3,286.5,-255.9,-115.5,72.6,39.0,-160.2,-452.1,-6.0,-4.5,-104.4,-167.7,-1.8,69.3,-136.2,10.5,0,3588,0,147,0,
1.9967,-98.4,-89.4,-57.6,-112.2,-19.5,-156.0,328.8,-342.0,-3260.4,301.2,-250.8,-109.2,82.2,49.8,-164.1,-472.2,-6.0,-4.5,-100.2,-159.9,-1.8,73.5,-145.8,12.3,0,3594,0,148,0,
2.0000,-99.9,-98.7,-65.7,-117.9,-27.3,-157.2,326.7,-344.7,-3112.2,284.4,-261.6,-117.6,73.8,41.7,-131.4,-448.5,-6.9,-4.8,-108.9,-169.5,-1.8,72.6,-138.9,9.3,0,3600,0,149,0,
2.0033,-100.2,-87.0,-45.9,-100.8,-12.9,-147.3,332.4,-334.5,-2741.7,304.2,-238.8,-98.7,82.5,37.5,-172.8,-483.0,-6.3,-4.5,-92.7,-152.7,-1.8,83.1,-141.9,19.5,0,3606,0,150,0,
2.0067,-102.0,-88.2,-48.6,-102.9,-10.2,-147.6,333.6,-340.5,-2964.0,289.8,-245.4,-99.9,78.9,38.4,-153.9,-452.4,-6.6,-4.5,-94.2,-155.4,-1.8,78.6,-127.8,20.4,0,3612,0,151,0,
2.0100,-100.5,-90.9,-49.5,-103.8,-9.6,-147.6,337.2,-337.8,-3260.4,293.1,-243.9,-98.4,81.0,45.6,-138.9,-452.4,-6.3,-4.8,-94.2,-152.4,-1.8,72.3,-138.9,15.0,0,3618,0,152,0,
2.0133,-104.4,-90.0,-53.4,-106.5,-11.7,-147.3,336.0,-342.3,-3408.6,295.5,-245.4,-102.9,74.4,39.3,-136.5,-435.9,-6.6,-4.5,-94.2,-156.6,-1.8,68.4,-126.6,20.7,0,3624,0,153,0,
2.0167,-98.4,-90.6,-49.5,-104.1,-6.0,-145.2,333.6,-341.4,-2964.0,304.8,-241.8,-97.8,84.3,46.5,-140.7,-469.2,-6.0,-4.5,-88.8,-147.3,-1.8,78.3,-138.0,23.4,0,3630,0,154,0,
2.0200,-100.2,-90.0,-51.3,-106.8,-5.1,-144.6,336.3,-341.1,-2815.8,302.4,-244.5,-101.1,90.9,56.7,-148.5,-474.0,-6.6,-4.5,-91.2,-151.2,-1.8,80.7,-126.9,30.3,0,3636,0,155,0,
2.0233,-98.4,-88.8,-45.6,-105.3,-7.2,-143.7,335.4,-345.3,-2815.8,306.9,-240.9,-102.3,93.3,53.7,-127.5,-450.6,-6.0,-3.9,-87.3,-152.1,-2.1,68.7,-129.9,26.4,0,3642,0,156,0,
2.0267,-99.9,-89.1,-43.8,-99.3,-0.9,-135.9,337.8,-338.7,-3186.3,312.6,-234.9,-92.1,98.1,50.1,-150.3,-454.5,-6.9,-4.5,-84.0,-141.0,-1.5,77.7,-131.1,27.9,0,3648,0,157,0,
2.0300,-105.3,-95.4,-54.9,-110.7,-11.4,-144.0,330.3,-347.1,-3260.4,304.2,-244.8,-103.8,82.2,52.8,-137.1,-455.1,-6.3,-4.5,-91.5,-152.1,-2.1,76.2,-137.1,16.8,0,3654,0,158,0,
2.0333,-100.8,-89.1,-47.4,-107.1,-5.4,-138.0,334.5,-344.1,-3112.2,315.0,-240.3,-97.8,93.3,51.9,-154.2,-454.5,-6.3,-4.5,-83.1,-147.0,-2.1,86.4,-125.7,24.6,0,3660,0,159,0,
2.0367,-102.0,-94.2,-48.3,-109.5,-11.7,-142.2,336.6,-348.0,-2815.8,312.3,-241.8,-97.5,84.9,45.6,-159.0,-448.2,-6.0,-4.2,-84.3,-146.7,-1.8,84.3,-121.2,24.6,0,3666,0,160,0,
2.0400,-103.8,-105.3,-59.4,-120.6,-21.3,-155.1,329.7,-357.6,-3038.1,299.4,-256.2,-113.4,80.4,56.1,-125.7,-439.5,-6.0,-4.5,-96.0,-159.6,-1.5,74.1,-128.7,17.4,0,3672,0,161,0,
2.0433,-103.2,-105.3,-59.4,-118.2,-20.4,-153.3,333.6,-355.8,-3260.4,294.0,-254.1,-115.2,77.7,50.7,-112.2,-421.8,-6.3,-4.2,-98.4,-160.5,-2.1,80.4,-119.7,23.4,0,3678,0,162,0,
2.0467,-102.6,-105.6,-61.8,-119.7,-16.2,-152.4,329.7,-356.7,-3260.4,294.6,-250.5,-109.8,82.8,51.9,-123.3,-420.3,-6.0,-4.5,-95.4,-155.1,-2.1,84.6,-116.4,26.1,0,3684,0,163,0,
2.0500,-95.1,-88.2,-44.7,-109.5,-8.1,-142.5,332.4,-348.0,-2964.0,319.5,-235.2,-95.1,87.0,62.4,-133.2,-448.5,-5.7,-4.8,-78.6,-143.1,-1.2,98.1,-119.4,30.3,0,3690,0,164,0,
2.0533,-93.3,-92.1,-51.6,-114.9,-11.1,-145.8,331.5,-351.0,-2815.8,310.5,-245.4,-104.7,87.3,67.2,-115.5,-450.0,-6.3,-4.2,-87.0,-151.2,-1.5,84.3,-123.9,22.8,0,3696,0,165,0,
2.0567,-99.0,-92.4,-51.6,-114.9,-13.5,-143.1,332.4,-353.7,-3112.2,306.9,-246.6,-108.0,89.1,69.0,-129.9,-437.7,-6.3,-4.5,-89.1,-153.3,-1.8,89.1,-120.9,25.5,0,3702,0,166,0,
2.0600,-95.4,-89.7,-48.6,-108.6,-6.9,-137.4,338.7,-345.9,-3112.2,314.4,-238.5,-99.3,93.3,61.8,-150.0,-432.6,-6.0,-4.5,-81.9,-147.3,-1.8,87.0,-108.9,33.3,0,3708,0,167,0,
2.0633,-94.2,-87.0,-43.5,-103.8,-5.7,-137.4,339.6,-348.0,-3186.3,326.1,-232.8,-94.5,99.3,65.1,-155.4,-441.0,-6.3,-4.5,-76.2,-144.0,-1.8,93.0,-111.3,36.6,0,3714,0,168,0,
2.0667,-96.0,-93.9,-54.3,-112.2,-10.2,-143.7,336.6,-350.1,-2815.8,312.9,-243.3,-102.3,90.9,59.4,-146.1,-414.6,-6.3,-4.2,-86.7,-151.5,-2.1,87.0,-100.5,35.4,0,3720,0,169,0,
2.0700,-90.9,-85.2,-43.5,-100.8,-0.3,-138.0,337.5,-341.4,-2964.0,322.8,-233.4,-95.4,104.4,62.4,-161.1,-460.2,-6.0,-4.2,-75.9,-138.6,-2.1,97.5,-116.4,40.2,0,3726,0,170,0,
2.0733,-88.8,-82.2,-43.5,-101.7,0.6,-135.9,333.9,-341.1,-2964.0,321.9,-230.4,-90.6,102.9,63.6,-150.9,-467.1,-6.0,-4.2,-71.4,-137.4,-1.8,97.2,-122.4,38.1,0,3732,0,171,0,
2.0767,-94.2,-88.5,-51.9,-110.7,-10.5,-143.7,333.6,-350.7,-3260.4,307.2,-243.0,-99.9,87.6,54.6,-141.3,-453.0,-6.0,-4.2,-84.3,-149.1,-1.5,84.9,-129.0,25.5,0,3738,0,172,0,
2.0800,-96.3,-88.2,-57.0,-113.1,-12.6,-146.1,327.9,-353.7,-3186.3,305.1,-245.1,-101.7,85.8,63.0,-120.3,-455.7,-6.0,-4.5,-90.0,-152.4,-1.8,84.0,-132.3,16.2,0,3744,0,173,0,
2.0833,-90.9,-85.8,-57.6,-113.1,-14.1,-148.5,327.3,-353.1,-3112.2,304.5,-242.1,-103.2,80.1,61.5,-135.6,-456.3,-6.3,-4.2,-88.2,-153.0,-1.8,81.3,-130.8,15.9,0,3750,0,174,0,
2.0867,-94.2,-85.2,-52.5,-110.7,-12.9,-147.6,330.9,-348.6,-2741.7,305.7,-241.5,-101.7,93.6,61.5,-140.1,-459.6,-6.3,-4.2,-83.7,-152.1,-2.1,77.4,-133.2,17.1,0,3756,0,175,0,
2.0900,-99.3,-90.3,-56.4,-114.9,-18.9,-154.8,324.6,-355.8,-3038.1,302.1,-246.0,-104.7,87.9,57.9,-144.6,-463.8,-6.6,-4.5,-93.0,-157.8,-1.8,72.3,-143.7,6.9,0,3762,0,176,0,
2.0933,-100.2,-101.1,-72.0,-124.8,-30.9,-167.4,319.8,-362.4,-3112.2,290.1,-256.8,-118.2,76.5,51.9,-114.3,-440.7,-6.3,-4.5,-102.9,-169.5,-1.8,54.0,-147.0,-4.8,0,3768,0,177,0,
2.0967,-101.1,-99.6,-69.0,-120.9,-26.7,-165.9,319.8,-356.7,-3334.5,284.4,-260.1,-115.2,74.4,47.4,-125.1,-453.6,-6.6,-4.8,-103.5,-169.2,-1.8,58.5,-146.4,-4.5,0,3774,0,178,0,
2.1000,-95.1,-96.0,-61.8,-115.2,-16.2,-157.8,320.4,-354.3,-3112.2,293.7,-250.2,-104.1,82.8,49.2,-152.7,-489.6,-6.3,-4.2,-94.2,-159.3,-1.8,67.8,-149.1,3.9,0,3780,0,179,0,
2.1033,-93.9,-87.0,-52.2,-109.8,-10.2,-156.3,323.7,-346.8,-2889.9,306.6,-241.2,-98.1,90.0,54.6,-155.1,-484.8,-6.3,-4.5,-86.4,-153.0,-1.5,70.5,-143.1,5.1,0,3786,0,180,0,
2.1067,-100.2,-97.5,-63.6,-119.4,-18.6,-159.3,325.2,-359.1,-2964.0,293.4,-252.9,-109.5,78.9,51.3,-119.1,-460.8,-6.3,-4.2,-100.8,-158.7,-1.5,63.0,-137.7,4.8,0,3792,0,181,0,
2.1100,-102.6,-100.5,-70.2,-120.6,-21.3,-159.9,323.7,-360.3,-3260.4,285.9,-255.9,-112.8,78.0,49.5,-114.0,-459.0,-6.3,-4.5,-103.2,-164.1,-1.5,64.2,-135.6,6.0,0,3798,0,182,0,
2.1133,-101.4,-96.0,-57.3,-110.4,-10.5,-147.6,331.5,-355.2,-3260.4,300.9,-249.0,-99.0,81.0,42.3,-148.2,-452.7,-6.0,-4.5,-95.1,-151.5,-2.1,80.1,-126.9,17.4,0,3804,0,183,0,
2.1167,-101.7,-97.8,-60.0,-111.0,-14.1,-153.9,332.1,-354.0,-3038.1,288.6,-252.0,-104.7,77.7,53.7,-135.9,-441.9,-6.3,-4.8,-99.9,-159.0,-1.8,69.3,-121.2,15.6,0,3810,0,184,0,
2.1200,-102.3,-95.7,-56.7,-107.7,-12.6,-151.8,328.8,-353.4,-2964.0,296.7,-246.6,-98.7,82.2,56.7,-131.7,-465.6,-6.3,-4.2,-94.2,-151.8,-1.8,74.1,-133.8,15.0,0,3816,0,185,0,
2.1233,-103.2,-96.3,-61.8,-112.2,-17.1,-155.7,330.6,-354.9,-2964.0,290.7,-250.8,-104.7,75.9,51.9,-118.5,-445.5,-6.0,-4.5,-99.3,-156.6,-1.2,63.9,-126.9,11.1,0,3822,0,186,0,
2.1267,-102.0,-95.7,-53.4,-106.8,-6.9,-151.2,331.5,-348.6,-3186.3,304.8,-243.6,-96.9,84.6,49.8,-140.4,-439.5,-6.0,-4.2,-92.4,-146.4,-2.4,85.8,-117.6,20.7,0,3828,0,187,0,
2.1300,-99.0,-93.3,-48.9,-101.7,-4.8,-147.6,328.5,-346.8,-3260.4,309.6,-238.2,-89.7,90.3,51.9,-154.5,-452.1,-6.3,-4.5,-87.9,-145.8,-1.8,88.8,-113.7,24.0,0,3834,0,188,0,
2.1333,-99.3,-98.7,-61.5,-114.6,-20.4,-160.8,324.0,-355.8,-2964.0,293.1,-256.2,-112.5,79.8,67.2,-89.7,-431.4,-6.0,-4.2,-104.4,-163.8,-1.8,51.3,-124.5,3.9,0,3840,0,189,0,
2.1367,-95.7,-80.1,-37.2,-89.4,7.2,-138.3,331.2,-337.5,-2889.9,330.3,-225.6,-81.0,100.5,54.3,-173.7,-458.7,-6.0,-4.5,-72.9,-130.5,-1.8,100.2,-115.8,27.9,0,3846,0,190,0,
2.1400,-93.9,-83.7,-41.4,-93.3,3.3,-138.6,331.8,-337.5,-2889.9,317.4,-230.1,-85.2,97.2,61.8,-162.9,-459.9,-6.6,-4.5,-78.3,-135.3,-2.1,94.5,-112.8,24.0,0,3852,0,191,0,
2.1433,-93.3,-85.2,-41.7,-96.9,-1.8,-145.5,326.7,-339.6,-3112.2,324.6,-229.5,-87.0,103.2,67.2,-149.7,-456.3,-6.6,-4.5,-78.0,-139.8,-1.8,87.6,-121.2,23.4,0,3858,0,192,0,
2.1467,-97.2,-94.5,-54.6,-102.9,-12.6,-155.7,324.0,-349.2,-3260.4,307.5,-244.5,-95.7,88.8,61.5,-132.0,-435.9,-6.3,-4.5,-93.6,-149.7,-1.8,75.6,-118.5,16.5,0,3864,0,193,0,
2.1500,-93.3,-86.1,-45.3,-99.0,-7.2,-147.0,326.4,-342.3,-2964.0,318.9,-233.1,-89.4,99.9,68.7,-135.3,-459.3,-6.0,-4.2,-82.5,-139.2,-1.8,92.4,-116.7,28.2,0,3870,0,194,0,
2.1533,-93.0,-84.6,-39.3,-91.5,1.5,-141.3,333.9,-338.4,-2815.8,322.2,-227.4,-82.5,102.3,65.4,-157.8,-451.2,-6.3,-4.2,-76.2,-134.7,-1.5,98.1,-108.3,32.1,0,3876,0,195,0,
2.1567,-101.4,-93.3,-46.5,-102.3,-5.7,-147.3,330.0,-345.6,-3112.2,312.3,-235.8,-91.5,91.5,57.6,-145.5,-442.5,-5.7,-3.9,-87.6,-140.1,-1.8,90.9,-110.1,32.4,0,3882,0,196,0,
2.1600,-98.4,-91.2,-46.8,-103.2,-7.5,-147.0,333.0,-349.5,-3260.4,318.0,-237.9,-91.8,93.0,64.8,-133.2,-444.3,-6.3,-4.5,-89.4,-142.8,-1.5,88.8,-112.8,30.3,0,3888,0,197,0,
2.1633,-97.8,-86.4,-43.8,-98.4,-0.3,-142.5,334.5,-345.0,-3260.4,315.6,-234.6,-86.1,98.7,60.3,-140.1,-436.5,-6.0,-4.5,-83.4,-138.3,-2.1,94.5,-105.9,39.0,0,3894,0,198,0,
2.1667,-98.1,-85.5,-45.6,-102.9,-4.5,-147.9,331.2,-348.9,-3038.1,313.2,-234.6,-89.4,97.8,67.5,-111.3,-448.2,-6.3,-4.8,-83.4,-141.3,-1.5,91.8,-114.9,33.6,0,3900,0,199,0,
2.1700,-95.7,-87.6,-48.9,-106.8,-7.2,-147.3,331.8,-348.9,-2815.8,313.2,-239.1,-93.0,96.6,62.4,-104.4,-443.4,-6.0,-4.2,-88.2,-145.2,-1.8,90.0,-112.5,35.1,0,3906,0,200,0,
2.1733,-100.2,-93.0,-48.0,-105.6,-6.3,-139.5,334.8,-348.6,-3038.1,310.2,-237.6,-94.5,91.8,49.8,-129.9,-438.6,-6.3,-4.5,-88.2,-141.9,-1.5,91.2,-112.5,27.9,0,3912,0,201,0,
2.1767,-95.4,-92.4,-50.7,-104.1,-6.0,-138.6,332.4,-349.5,-3112.2,316.2,-234.3,-89.7,93.3,57.0,-142.8,-430.5,-6.3,-4.2,-86.4,-141.0,-1.8,93.9,-103.2,39.0,0,3918,0,202,0,
2.1800,-94.8,-90.0,-48.6,-103.8,-3.6,-141.9,333.3,-349.2,-3260.4,308.4,-237.9,-90.3,86.7,50.4,-137.4,-433.2,-6.3,-4.5,-92.1,-139.8,-2.1,83.4,-104.7,36.0,0,3924,0,203,0,
2.1833,-95.7,-87.0,-41.1,-95.1,-0.6,-134.1,336.3,-343.5,-3038.1,317.4,-229.2,-83.4,101.7,52.5,-142.2,-453.3,-6.3,-4.2,-82.2,-132.3,-1.8,95.4,-107.4,43.8,0,3930,0,204,0,
2.1867,-94.2,-85.5,-41.4,-100.8,-0.3,-136.5,336.6,-345.0,-2889.9,315.0,-229.2,-83.7,97.2,55.8,-128.1,-451.8,-6.0,-4.5,-77.7,-132.9,-1.5,90.9,-113.4,39.9,0,3936,0,205,0,
2.1900,-98.1,-90.6,-45.6,-102.9,-3.9,-138.3,336.3,-346.8,-3038.1,315.3,-235.2,-86.7,91.2,47.1,-162.0,-464.1,-6.0,-4.8,-86.1,-135.9,-2.1,97.5,-111.3,40.5,0,3942,0,206,0,
2.1933,-99.3,-96.0,-55.8,-114.6,-17.1,-148.5,328.5,-355.5,-3186.3,306.6,-244.5,-101.4,86.4,52.2,-133.5,-459.6,-6.3,-4.2,-94.8,-153.0,-1.5,75.0,-112.8,28.8,0,3948,0,207,0,
2.1967,-95.7,-92.1,-53.1,-108.3,-12.0,-146.4,330.0,-355.8,-3334.5,311.1,-243.0,-97.5,95.7,57.3,-132.3,-460.2,-6.3,-4.2,-92.1,-148.5,-1.8,87.6,-114.9,32.4,0,3954,0,208,0,
2.2000,-99.3,-91.8,-52.8,-111.9,-15.9,-150.9,324.0,-356.7,-3038.1,319.5,-245.4,-99.9,97.5,59.4,-145.8,-459.0,-6.3,-4.8,-93.3,-158.1,-1.5,73.8,-122.1,23.1,0,3960,0,209,0,
2.2033,-92.4,-89.1,-46.5,-106.8,-8.4,-142.2,332.4,-349.2,-2889.9,319.2,-242.4,-96.6,103.2,56.4,-163.2,-470.1,-6.3,-4.8,-89.4,-147.9,-1.8,87.0,-113.1,33.0,0,3966,0,210,0,
2.2067,-93.3,-96.6,-57.3,-116.1,-17.4,-150.6,324.9,-357.6,-3038.1,305.7,-254.4,-107.1,99.6,60.3,-151.2,-467.4,-6.3,-4.2,-98.7,-159.3,-1.5,68.4,-130.5,18.6,0,3972,0,211,0,
2.2100,-88.5,-91.5,-51.3,-109.5,-10.2,-147.0,329.1,-348.9,-3186.3,315.0,-247.8,-99.9,104.4,52.5,-150.9,-477.3,-6.3,-4.5,-93.9,-151.2,-1.5,75.9,-130.2,19.8,0,3978,0,212,0,
2.2133,-90.0,-98.1,-59.4,-122.4,-20.1,-155.1,326.4,-358.8,-3260.4,298.2,-257.1,-110.7,92.4,67.5,-124.2,-446.7,-6.3,-4.2,-104.4,-162.6,-1.5,67.5,-122.7,18.0,0,3984,0,213,0,
2.2167,-93.6,-92.4,-53.1,-113.1,-10.2,-148.2,331.5,-349.5,-3038.1,300.6,-250.8,-101.4,88.5,55.2,-139.5,-458.1,-6.3,-4.5,-96.9,-152.4,-1.5,77.7,-117.3,23.1,0,3990,0,214,0,
2.2200,-99.0,-93.6,-57.0,-113.7,-12.0,-154.2,330.9,-354.6,-2815.8,298.2,-253.8,-107.1,94.5,49.5,-135.3,-430.5,-6.0,-4.5,-101.1,-157.2,-1.8,67.5,-114.9,19.2,0,3996,0,215,0,
2.2233,-99.3,-96.9,-53.1,-112.5,-9.3,-146.1,339.3,-350.1,-2815.8,298.2,-250.2,-99.6,86.1,42.3,-147.0,-431.4,-6.3,-4.8,-95.7,-150.0,-1.2,68.4,-106.5,24.6,0,4002,0,216,0,
2.2267,-96.6,-92.1,-48.3,-102.0,2.7,-138.0,342.0,-345.3,-3186.3,314.4,-236.4,-84.0,97.2,51.3,-148.5,-468.9,-6.0,-4.5,-86.4,-138.3,-2.1,95.1,-108.9,35.4,0,4008,0,217,0,
2.2300,-96.9,-96.0,-51.0,-108.3,-3.0,-140.4,339.3,-352.8,-3260.4,301.5,-243.0,-91.2,88.8,48.3,-133.2,-450.0,-6.6,-4.2,-94.5,-141.9,-1.2,82.5,-108.3,30.9,0,4014,0,218,0,
2.2333,-99.0,-96.0,-50.4,-106.8,-5.1,-142.8,338.1,-351.9,-3038.1,305.1,-240.6,-89.4,84.3,56.7,-122.7,-452.4,-6.0,-4.5,-91.5,-141.3,-2.1,83.4,-112.5,30.0,0,4020,0,219,0,
2.2367,-96.0,-86.1,-36.3,-95.1,5.4,-133.5,342.9,-344.4,-2889.9,324.6,-227.1,-81.9,94.5,62.7,-136.5,-450.6,-6.6,-4.5,-79.8,-134.7,-1.8,90.9,-108.3,36.6,0,4026,0,220,0,
2.2400,-100.8,-89.7,-39.9,-91.2,7.5,-132.3,342.3,-345.9,-2964.0,319.8,-226.5,-77.4,99.3,56.7,-158.4,-443.4,-6.3,-4.5,-77.1,-131.7,-2.1,94.8,-103.5,39.3,0,4032,0,221,0,
2.2433,-100.5,-87.9,-42.6,-96.3,4.5,-137.1,339.9,-346.2,-3186.3,320.4,-229.8,-80.4,102.9,57.6,-153.3,-422.7,-6.3,-4.5,-80.7,-136.2,-1.8,84.6,-100.2,32.1,0,4038,0,222,0,
2.2467,-99.3,-90.0,-45.3,-98.7,-4.5,-141.9,333.3,-349.5,-3334.5,315.0,-234.3,-89.1,98.7,61.5,-127.2,-447.9,-6.0,-4.2,-85.8,-143.4,-1.8,83.4,-112.5,26.7,0,4044,0,223,0,
2.2500,-95.4,-83.4,-38.4,-95.7,-1.2,-140.7,335.1,-347.7,-3038.1,314.4,-231.6,-86.7,101.1,62.1,-143.7,-449.1,-6.6,-4.8,-81.3,-142.8,-2.1,90.6,-109.5,27.6,0,4050,0,224,0,
2.2533,-93.6,-82.2,-32.7,-89.4,2.7,-136.2,339.3,-341.4,-2964.0,319.2,-224.7,-84.3,109.5,57.3,-142.2,-439.2,-6.6,-4.2,-77.1,-138.9,-1.8,95.1,-104.7,30.9,0,4056,0,225,0,
2.2567,-94.8,-87.6,-44.1,-102.6,-4.5,-147.6,328.8,-349.2,-2889.9,310.2,-238.5,-93.9,101.4,62.7,-91.8,-432.6,-6.3,-4.8,-90.3,-149.7,-1.8,78.3,-119.4,19.5,0,4062,0,226,0,
2.2600,-84.6,-79.8,-29.1,-90.9,4.2,-143.1,327.0,-341.7,-3334.5,329.1,-226.8,-81.6,107.1,76.5,-106.8,-481.5,-6.3,-4.5,-78.0,-140.1,-1.5,94.2,-129.9,24.9,0,4068,0,227,0,
2.2633,-93.3,-86.7,-34.8,-95.4,-2.4,-143.4,332.4,-343.5,-3260.4,318.0,-234.6,-88.5,101.1,63.6,-120.3,-450.6,-6.6,-4.5,-81.6,-144.6,-1.5,97.8,-112.2,27.9,0,4074,0,228,0,
2.2667,-94.2,-83.1,-35.4,-92.4,0.6,-140.1,332.7,-343.5,-2964.0,321.6,-231.0,-86.7,102.9,58.5,-137.7,-448.8,-6.0,-4.5,-78.6,-139.2,-1.8,102.0,-107.4,32.4,0,4080,0,229,0,
2.2700,-95.4,-75.9,-22.8,-85.2,9.6,-130.8,339.0,-335.4,-2889.9,333.6,-216.3,-76.8,114.0,54.6,-188.7,-466.5,-6.3,-4.5,-68.1,-129.0,-1.8,102.0,-101.1,42.6,0,4086,0,230,0,
2.2733,-93.3,-77.4,-28.2,-90.9,6.3,-134.7,335.1,-340.5,-3038.1,329.4,-225.6,-83.7,109.5,62.7,-147.0,-447.9,-6.0,-4.8,-72.9,-137.7,-1.5,91.8,-107.1,31.8,0,4092,0,231,0,
2.2767,-98.7,-87.9,-36.9,-96.6,6.3,-135.9,337.8,-344.1,-3260.4,317.4,-229.8,-82.2,102.6,46.5,-147.3,-445.2,-6.3,-4.5,-81.3,-135.6,-1.5,96.3,-108.0,33.9,0,4098,0,232,0,
2.2800,-93.3,-87.6,-42.3,-101.4,-2.1,-144.3,333.0,-345.0,-3334.5,320.1,-234.3,-90.6,102.9,68.4,-125.7,-433.5,-6.3,-4.8,-80.1,-141.6,-1.8,84.3,-106.8,26.1,0,4104,0,233,0,
2.2833,-97.5,-89.4,-43.8,-104.7,-8.1,-143.4,336.9,-348.0,-3038.1,312.9,-233.4,-91.8,105.9,49.8,-146.1,-423.0,-6.3,-4.2,-83.7,-141.6,-1.8,92.1,-97.8,29.1,0,4110,0,234,0,
2.2867,-98.1,-87.6,-48.9,-108.9,-12.3,-148.5,333.6,-349.2,-2889.9,311.4,-243.0,-95.1,97.8,58.2,-141.0,-432.3,-6.3,-4.5,-87.0,-146.7,-1.8,82.5,-106.8,27.9,0,4116,0,235,0,
2.2900,-96.0,-89.4,-54.0,-114.0,-15.6,-152.7,330.3,-356.7,-2964.0,311.4,-247.2,-100.2,99.9,72.6,-107.7,-441.9,-6.3,-4.2,-93.9,-150.6,-1.5,80.7,-118.5,19.8,0,4122,0,236,0,
2.2933,-92.4,-86.7,-51.9,-110.1,-11.4,-147.3,330.6,-352.5,-3260.4,318.0,-244.8,-96.0,108.6,68.1,-135.6,-443.4,-6.3,-4.2,-90.6,-146.4,-1.8,85.5,-113.4,29.1,0,4128,0,237,0,
2.2967,-99.6,-91.5,-55.8,-112.2,-17.1,-150.3,334.5,-358.5,-3186.3,311.1,-249.3,-99.9,103.2,63.0,-138.6,-423.9,-6.0,-4.2,-94.8,-152.4,-1.8,84.0,-105.0,23.4,0,4134,0,238,0,
2.3000,-96.0,-91.8,-52.8,-109.5,-11.4,-152.1,336.0,-353.1,-2964.0,309.3,-247.2,-99.9,100.2,63.3,-137.1,-452.1,-6.3,-4.5,-94.8,-153.6,-1.8,87.9,-108.3,22.2,0,4140,0,239,0,
2.3033,-97.5,-96.6,-56.4,-115.2,-18.0,-154.5,332.4,-353.7,-2741.7,300.6,-248.7,-108.0,96.3,60.6,-116.4,-437.1,-6.3,-4.5,-95.7,-157.2,-1.5,79.2,-116.1,19.2,0,4146,0,240,0,
2.3067,-90.9,-81.9,-38.1,-96.9,0.3,-137.7,339.6,-343.8,-2964.0,322.2,-230.7,-85.8,107.4,51.9,-167.4,-446.7,-6.0,-4.2,-78.3,-141.0,-1.5,93.9,-102.0,33.6,0,4152,0,241,0,
2.3100,-92.1,-87.3,-44.4,-100.5,-4.8,-141.0,335.7,-347.7,-3112.2,305.4,-238.5,-93.9,98.4,50.7,-150.3,-435.3,-6.0,-4.5,-85.8,-146.4,-1.8,91.2,-101.7,29.1,0,4158,0,242,0,
2.3133,-89.4,-86.7,-45.6,-105.0,-9.6,-146.7,330.3,-349.5,-3260.4,303.3,-242.1,-97.5,96.9,60.6,-146.1,-453.9,-6.3,-4.2,-91.2,-151.5,-1.8,84.0,-112.2,25.2,0,4164,0,243,0,
2.3167,-85.2,-74.4,-33.6,-97.2,-2.1,-144.0,331.5,-342.9,-3038.1,318.3,-230.4,-87.9,107.4,68.4,-158.1,-483.3,-6.0,-4.2,-79.8,-141.9,-1.8,91.5,-130.5,23.1,0,4170,0,244,0,
2.3200,-87.9,-80.1,-30.6,-97.5,-2.1,-139.2,334.5,-339.6,-2889.9,318.3,-230.1,-85.2,109.2,60.9,-155.4,-477.3,-6.3,-4.5,-78.9,-138.9,-1.5,89.7,-125.7,27.6,0,4176,0,245,0,
2.3233,-90.9,-84.6,-34.2,-104.7,-5.7,-145.8,326.7,-338.1,-2889.9,313.8,-231.6,-90.6,109.2,64.5,-145.5,-474.6,-6.3,-4.5,-83.1,-144.9,-2.1,78.0,-137.4,18.9,0,4182,0,246,0,
2.3267,-91.5,-82.2,-32.4,-99.6,2.1,-135.6,330.6,-331.2,-3112.2,315.0,-226.2,-81.3,111.0,63.3,-148.2,-462.3,-6.6,-4.2,-79.5,-134.1,-1.8,88.5,-125.1,29.4,0,4188,0,247,0,
2.3300,-98.7,-91.8,-39.9,-106.5,-4.8,-141.0,330.6,-342.0,-3260.4,303.9,-231.9,-89.4,98.4,56.1,-140.1,-434.1,-6.0,-4.8,-87.9,-141.0,-2.1,79.8,-117.6,20.4,0,4194,0,248,0,
2.3333,-98.7,-95.1,-45.9,-111.3,-5.7,-146.4,328.8,-348.6,-3038.1,298.8,-236.4,-88.8,97.8,61.2,-129.9,-443.1,-6.6,-4.5,-92.1,-144.6,-1.8,74.1,-122.1,16.2,0,4200,0,249,0,
2.3367,-98.4,-88.2,-39.3,-106.8,-2.1,-145.8,326.4,-343.2,-2889.9,305.1,-232.5,-86.4,102.3,62.4,-136.8,-476.4,-6.0,-4.2,-81.3,-140.1,-2.1,81.6,-133.5,18.6,0,4206,0,250,0,
2.3400,-96.0,-95.4,-41.4,-103.5,-4.2,-145.2,333.6,-348.6,-3038.1,304.2,-236.4,-88.8,99.6,67.8,-123.3,-451.8,-6.0,-4.5,-90.0,-141.0,-1.8,81.6,-123.3,26.1,0,4212,0,251,0,
2.3433,-95.1,-88.2,-30.9,-96.0,5.1,-133.8,342.0,-337.8,-3260.4,316.2,-228.0,-77.4,104.7,61.8,-154.2,-453.6,-6.6,-4.5,-79.8,-131.7,-1.5,94.8,-109.2,37.5,0,4218,0,252,0,
