# Mains_Frequency_(Hz) =,60,,,,,,,,,,,,,,,,,,,,,,,,,,,
# Sample_Frequency_(Hz) =,300,,,,,,,,,,,,,,,,,,,,,,,,,,,
# Filter_Delay_(ms) =,43.3,,,,,,,,,,,,,,,,,,,,,,,,,,,
# Sensor_Data_Units =,uV,,,,,,,,,,,,,,,,,,,,,,,,,,,
# Headset_Name =,DSI-24 SN:1580,,,,,,,,,,,,,,,,,,,,,,,,,,,
# Data_Logger =,DSI-Streamer-v.1.08.31,,,,,,,,,,,,,,,,,,,,,,,,,,,
# Date =,4/20/2018,,,,,,,,,,,,,,,,,,,,,,,,,,,
# Time =,11:31:38,,,,,,,,,,,,,,,,,,,,,,,,,,,
# Patient_ID =,X F 01-MAY-1999 X,,,,,,,,,,,,,,,,,,,,,,,,,,,
# Record_ID =,Startdate 20-APR-2018 EEG_XX X X,,,,,,,,,,,,,,,,,,,,,,,,,,,
# Filter =,Non-Filtered,,,,,,,,,,,,,,,,,,,,,,,,,,,
# Comments =,,,,,,,,,,,,,,,,,,,,,,,,,,,,
# Reference location:,Pz,,,,,,,,,,,,,,,,,,,,,,,,,,,
# Trigger Source,Wireless,,,,,,,,,,,,,,,,,,,,,,,,,,,
# Channel_Number =,ch_1,ch_2,ch_3,ch_4,ch_5,ch_6,ch_7,ch_8,ch_9,ch_10,ch_11,ch_12,ch_13,ch_14,ch_15,ch_16,ch_17,ch_18,ch_19,ch_20,ch_21,ch_22,ch_23,ch_24,Trigger,Time_Offset,ADC_Status,ADC_Sequence,Event,Comments
Time,P3,C3,F3,Fz,F4,C4,P4,Cz,CM,A1,Fp1,Fp2,T3,T5,O1,O2,X3,X2,F7,F8,X1,A2,T6,T4,Trigger,Time_Offset,ADC_Status,ADC_Sequence,Event,Comments
0.0033,-64.2,0.6,49.8,-104.7,-20.1,-190.5,199.5,-291.6,-3038.1,299.7,-156.6,-29.1,264.6,170.4,-74.7,-319.5,-6.3,-4.5,-36.0,-127.8,-1.8,118.2,-132.0,8.4,0,6,0,233,0,Start Data Acquisition
0.0067,-66.6,-5.1,45.3,-109.2,-24.0,-191.1,197.4,-293.7,-3260.4,293.4,-161.1,-30.9,261.9,170.4,-49.5,-313.2,-6.0,-4.8,-41.4,-127.5,-1.8,101.4,-137.7,2.4,0,12,0,234,0,
0.0100,-65.1,-5.7,47.1,-107.7,-28.8,-189.9,196.8,-295.5,-3112.2,300.0,-158.4,-32.4,263.7,173.1,-50.4,-306.6,-6.3,-4.8,-37.2,-129.9,-1.8,107.4,-130.8,0.6,0,18,0,235,0,
0.0133,-66.9,-2.7,46.8,-108.6,-27.9,-188.4,198.3,-298.2,-3038.1,297.3,-156.9,-33.3,263.4,171.3,-52.5,-290.1,-6.3,-4.2,-36.3,-126.0,-2.1,96.6,-132.3,-5.1,0,24,0,236,0,
0.0167,-63.6,-7.5,37.8,-117.3,-36.6,-195.3,196.2,-302.7,-3112.2,296.1,-167.1,-43.8,245.7,183.6,-47.7,-296.7,-6.0,-4.5,-43.2,-135.6,-1.8,94.8,-134.1,-10.8,0,30,0,237,0,
0.0200,-60.3,-3.3,42.6,-110.1,-36.3,-195.3,199.2,-298.8,-3038.1,300.9,-159.6,-37.5,256.5,174.0,-56.7,-311.4,-6.3,-4.5,-37.5,-135.3,-1.8,105.0,-134.4,-1.8,0,36,0,238,0,
0.0233,-61.8,-3.9,42.3,-112.8,-35.7,-197.1,202.5,-299.1,-3038.1,294.0,-156.3,-36.9,258.3,179.1,-30.6,-306.0,-6.3,-4.5,-37.8,-135.0,-2.1,106.8,-126.0,-0.6,0,42,0,239,0,
0.0267,-64.2,-2.1,41.1,-112.5,-35.4,-192.9,201.0,-301.2,-3186.3,297.9,-157.8,-36.0,253.8,180.6,-52.5,-295.2,-6.3,-4.2,-41.1,-131.4,-2.1,96.6,-126.9,1.8,0,48,0,240,0,
0.0300,-59.1,1.5,49.5,-105.0,-27.6,-191.1,202.8,-294.9,-3186.3,314.7,-152.7,-29.1,271.5,172.5,-77.1,-297.6,-6.3,-4.2,-33.3,-130.5,-1.5,109.2,-125.1,4.2,0,54,0,241,0,
0.0333,-57.6,10.5,61.2,-94.8,-15.3,-180.3,203.7,-285.6,-3112.2,325.5,-135.3,-14.7,283.8,170.7,-103.2,-312.3,-6.3,-4.5,-19.5,-114.9,-2.1,127.2,-117.9,18.3,0,60,0,242,0,
0.0367,-63.0,1.8,45.6,-106.5,-26.4,-190.5,201.0,-295.8,-3038.1,310.5,-150.6,-27.3,270.9,178.5,-66.3,-299.1,-6.0,-4.5,-35.4,-126.6,-1.8,117.6,-130.8,15.9,0,66,0,243,0,
0.0400,-62.4,-2.1,44.4,-106.2,-26.1,-189.9,200.7,-296.7,-3112.2,308.7,-155.1,-31.2,267.3,185.1,-45.6,-295.8,-6.6,-4.5,-39.0,-130.8,-2.1,115.2,-127.5,10.8,0,72,0,244,0,
0.0433,-61.2,-1.8,48.3,-108.3,-29.7,-192.6,202.5,-297.6,-3112.2,303.0,-157.8,-33.9,270.9,184.5,-39.6,-305.4,-6.0,-4.5,-39.9,-135.9,-1.8,102.9,-117.3,-5.1,0,78,0,245,0,
0.0467,-62.1,2.4,48.9,-107.4,-28.5,-190.8,199.8,-297.6,-3038.1,301.2,-152.7,-33.3,269.1,178.2,-38.4,-295.2,-6.0,-4.2,-35.7,-131.7,-1.8,107.4,-115.8,4.5,0,84,0,246,0,
0.0500,-70.5,2.7,54.9,-103.5,-23.4,-187.2,201.6,-292.8,-3038.1,314.7,-148.5,-25.8,270.3,158.4,-82.8,-303.0,-6.6,-4.5,-31.8,-127.2,-1.5,117.3,-117.6,12.6,0,90,0,247,0,
0.0533,-67.5,0.9,57.9,-105.0,-22.5,-188.1,201.0,-287.7,-3112.2,315.9,-147.9,-26.4,262.5,161.1,-68.7,-293.4,-6.3,-4.5,-33.9,-130.2,-1.8,120.9,-118.8,6.0,0,96,0,248,0,
0.0567,-68.7,-0.9,54.0,-103.5,-25.5,-187.8,199.5,-288.6,-3112.2,301.8,-150.0,-30.6,250.8,181.5,-54.3,-305.1,-6.3,-4.5,-36.6,-132.3,-2.1,110.7,-124.2,2.7,0,102,0,249,0,
0.0600,-69.6,-4.8,49.5,-105.0,-29.7,-192.0,193.5,-297.0,-3112.2,300.0,-153.9,-33.0,264.3,177.6,-31.8,-294.6,-6.0,-4.5,-40.2,-134.1,-1.5,107.7,-123.0,0.6,0,108,0,250,0,
0.0633,-70.2,-9.9,40.2,-114.6,-42.9,-201.0,189.9,-306.6,-3186.3,288.6,-168.9,-48.3,267.3,191.1,-6.9,-288.0,-6.3,-4.2,-51.0,-149.1,-2.1,84.9,-129.9,-10.5,0,114,0,251,0,
0.0667,-65.1,-1.5,45.6,-107.7,-36.3,-200.1,192.9,-298.8,-2964.0,301.8,-162.9,-41.7,273.6,188.7,-32.7,-291.6,-6.3,-4.2,-48.9,-142.5,-1.8,105.0,-125.4,-3.9,0,120,0,252,0,
0.0700,-63.6,0.9,49.2,-101.7,-24.3,-184.5,201.9,-295.5,-3038.1,306.9,-157.2,-31.2,273.6,179.1,-45.0,-287.1,-6.3,-4.8,-46.5,-132.0,-1.8,113.1,-117.0,12.0,0,126,0,253,0,
0.0733,-63.0,-3.0,48.0,-109.8,-34.8,-187.5,200.1,-296.4,-3112.2,290.7,-161.1,-39.6,265.2,182.1,-40.2,-277.8,-6.3,-4.5,-46.8,-139.5,-2.1,105.3,-111.3,-2.1,0,132,0,254,0,
0.0767,-66.6,-10.2,36.9,-114.6,-37.8,-199.2,194.4,-301.2,-3112.2,290.7,-167.4,-42.9,257.4,185.7,-19.5,-297.6,-6.0,-4.8,-57.0,-145.5,-1.8,93.0,-119.1,-9.6,0,138,0,255,0,
0.0800,-65.4,-12.0,39.3,-107.7,-36.9,-199.2,192.6,-301.5,-3112.2,292.2,-166.2,-42.9,256.5,184.5,-27.3,-298.5,-6.3,-3.9,-52.8,-140.7,-2.1,96.9,-124.8,-5.4,0,144,0,0,0,
0.0833,-66.9,-1.2,51.6,-96.9,-21.0,-188.4,198.0,-291.6,-2964.0,301.8,-151.5,-27.0,270.3,175.5,-76.8,-291.6,-6.0,-4.8,-42.3,-128.7,-2.1,103.8,-106.2,5.4,0,150,0,1,0,
0.0867,-66.9,-3.0,50.7,-96.6,-22.8,-191.1,198.9,-292.5,-2964.0,305.4,-156.3,-32.7,273.9,156.9,-67.8,-278.1,-6.3,-4.2,-45.3,-134.1,-2.1,97.8,-111.0,-5.1,0,156,0,2,0,
0.0900,-65.7,0.6,51.9,-93.3,-18.9,-183.9,202.2,-288.0,-3112.2,312.0,-151.2,-27.3,266.1,178.8,-61.2,-282.0,-6.0,-4.5,-42.3,-127.2,-1.8,114.0,-115.2,-4.2,0,162,0,3,0,
0.0933,-62.1,7.8,57.0,-94.8,-15.6,-179.4,194.7,-286.8,-3112.2,303.3,-150.3,-25.2,263.7,180.3,-64.2,-338.7,-6.3,-4.2,-40.5,-124.8,-1.8,118.8,-123.6,0.0,0,168,0,4,0,
0.0967,-63.9,-4.2,43.8,-104.7,-25.5,-192.0,193.5,-295.5,-3112.2,288.6,-159.3,-34.8,256.8,190.5,-30.3,-318.0,-6.3,-4.5,-45.3,-132.0,-1.8,102.0,-119.1,-4.8,0,174,0,5,0,
0.1000,-68.1,-5.4,41.1,-105.3,-27.9,-191.1,199.8,-297.3,-2964.0,292.8,-161.4,-33.9,258.3,169.5,-60.0,-299.4,-6.3,-4.2,-53.1,-135.9,-1.5,114.6,-103.8,2.4,0,180,0,6,0,
0.1033,-66.9,-5.4,48.9,-99.3,-20.1,-188.4,197.7,-291.3,-3038.1,303.6,-159.0,-28.2,268.8,168.0,-83.1,-313.8,-6.3,-4.5,-44.7,-128.1,-1.8,122.7,-111.0,12.9,0,186,0,7,0,
0.1067,-69.6,-6.9,43.8,-100.5,-28.2,-189.3,198.0,-290.4,-3038.1,297.6,-158.1,-31.2,271.8,164.7,-79.8,-309.0,-6.0,-4.5,-47.1,-132.0,-2.1,119.1,-104.4,8.7,0,192,0,8,0,
0.1100,-66.0,-6.9,44.1,-104.1,-26.7,-191.4,195.0,-291.6,-3112.2,296.4,-159.6,-33.0,262.8,165.3,-79.5,-313.2,-6.0,-4.5,-45.6,-133.2,-1.5,111.0,-117.0,4.2,0,198,0,9,0,
0.1133,-66.0,-9.0,42.6,-105.9,-27.0,-188.4,196.5,-290.1,-2964.0,293.7,-159.6,-35.1,254.4,168.6,-57.3,-312.0,-6.3,-4.5,-49.2,-132.9,-1.8,120.3,-118.2,8.4,0,204,0,10,0,
0.1167,-68.4,-16.2,32.1,-111.6,-32.1,-189.6,203.1,-297.0,-3038.1,291.0,-165.3,-41.1,253.8,165.0,-45.3,-295.5,-6.3,-4.5,-55.8,-137.4,-1.8,101.1,-122.1,3.9,0,210,0,11,0,
0.1200,-72.3,-17.7,30.3,-114.9,-38.1,-199.2,197.7,-300.0,-3112.2,287.4,-167.1,-42.3,254.4,157.2,-51.3,-292.8,-6.0,-4.2,-57.0,-142.5,-1.8,87.0,-125.4,0.6,0,216,0,12,0,
0.1233,-72.0,-16.5,31.5,-114.9,-38.4,-196.2,203.7,-295.5,-3112.2,284.7,-166.8,-40.5,256.5,162.6,-49.2,-292.8,-6.3,-4.5,-53.4,-140.7,-1.8,101.7,-117.6,2.7,0,222,0,13,0,
0.1267,-69.9,-10.8,38.7,-110.1,-29.7,-193.5,205.2,-291.3,-3260.4,291.3,-162.9,-39.0,264.9,170.1,-60.3,-300.3,-6.3,-4.2,-51.6,-138.0,-2.1,107.7,-116.7,0.3,0,228,0,14,0,
0.1300,-69.3,-6.9,43.2,-103.2,-25.2,-185.7,207.6,-288.0,-3038.1,291.6,-158.1,-33.0,258.6,164.4,-78.3,-303.9,-6.0,-4.5,-42.6,-131.7,-1.8,109.5,-113.7,3.3,0,234,0,15,0,
0.1333,-66.6,-2.7,51.9,-96.0,-21.9,-183.3,203.1,-282.0,-3038.1,308.1,-152.4,-28.2,262.8,169.5,-76.5,-320.7,-6.0,-4.5,-39.6,-128.1,-1.5,114.3,-123.9,5.4,0,240,0,16,0,
0.1367,-66.3,-8.1,51.0,-94.2,-18.3,-181.8,207.6,-278.7,-3038.1,301.5,-150.0,-26.1,267.3,171.0,-71.7,-324.6,-6.3,-4.2,-37.8,-125.7,-2.1,111.3,-117.3,5.4,0,246,0,17,0,
0.1400,-67.2,-9.9,44.7,-100.5,-23.1,-187.5,200.7,-281.7,-3112.2,300.3,-154.5,-29.7,264.3,174.6,-66.9,-312.0,-6.3,-4.5,-45.3,-130.5,-1.8,105.3,-121.2,4.8,0,252,0,18,0,
0.1433,-69.6,-10.8,38.1,-104.4,-27.0,-189.9,198.9,-288.0,-3112.2,284.7,-160.2,-36.6,257.7,180.3,-36.9,-302.1,-6.3,-4.2,-48.0,-137.4,-1.8,88.8,-122.4,-0.3,0,258,0,19,0,
0.1467,-68.7,-12.0,35.4,-110.4,-27.3,-189.9,199.5,-290.1,-3038.1,290.4,-167.4,-43.2,261.0,175.2,-37.8,-303.0,-6.3,-4.5,-56.1,-141.0,-1.8,81.6,-121.2,-3.6,0,264,0,20,0,
0.1500,-69.9,-4.8,39.6,-107.7,-28.8,-188.7,197.4,-291.9,-3038.1,296.1,-161.1,-37.2,263.4,176.4,-55.8,-315.0,-6.0,-4.5,-46.2,-138.3,-1.8,91.2,-119.4,-5.1,0,270,0,21,0,
0.1533,-63.6,-4.2,37.8,-113.7,-31.8,-190.5,198.9,-292.2,-3038.1,292.8,-167.1,-41.4,263.7,182.4,-27.0,-300.0,-6.3,-4.8,-53.7,-142.5,-2.1,94.2,-121.8,-0.3,0,276,0,22,0,
0.1567,-62.4,-3.9,41.7,-107.7,-28.2,-185.1,203.7,-291.3,-3112.2,298.2,-159.3,-33.6,268.2,181.8,-35.7,-294.9,-6.3,-4.2,-46.2,-133.5,-2.1,106.2,-120.9,6.0,0,282,0,23,0,
0.1600,-61.2,5.1,51.0,-102.3,-20.4,-183.9,203.7,-285.6,-3186.3,305.1,-152.1,-30.3,274.2,182.4,-63.3,-311.4,-6.3,-4.5,-39.0,-129.0,-1.8,103.2,-123.9,5.4,0,288,0,24,0,
0.1633,-63.9,-2.7,46.2,-104.4,-21.6,-182.7,197.7,-285.6,-3112.2,306.0,-154.2,-29.4,269.1,175.5,-60.9,-312.9,-6.3,-4.5,-42.9,-129.6,-1.8,96.9,-126.3,-7.5,0,294,0,25,0,
0.1667,-66.9,-7.8,33.6,-115.8,-38.7,-192.6,194.4,-298.5,-2964.0,281.4,-169.8,-47.7,262.5,180.0,-16.2,-294.6,-6.0,-4.5,-61.2,-144.0,-1.5,91.5,-135.0,-15.9,0,300,0,26,0,
0.1700,-69.3,-15.9,24.3,-125.4,-49.5,-199.5,189.9,-304.2,-2964.0,275.4,-178.5,-56.4,256.5,177.9,0.0,-282.6,-6.6,-4.2,-68.7,-154.5,-1.8,91.8,-138.3,-13.5,0,306,0,27,0,
0.1733,-64.2,3.3,54.0,-96.6,-19.5,-180.3,201.6,-283.2,-3112.2,311.7,-147.0,-26.1,262.8,168.3,-109.2,-318.0,-6.0,-4.8,-37.5,-123.9,-1.8,116.7,-114.3,11.1,0,312,0,28,0,
0.1767,-62.7,9.6,59.7,-94.8,-16.5,-176.7,204.3,-279.6,-3260.4,319.5,-142.5,-21.9,294.9,154.5,-108.0,-331.8,-6.0,-4.2,-31.2,-119.7,-1.8,120.6,-113.7,11.4,0,318,0,29,0,
0.1800,-66.3,1.2,50.7,-97.8,-21.0,-180.3,201.3,-287.4,-3112.2,300.0,-153.9,-29.4,283.2,164.4,-84.9,-325.8,-6.0,-4.2,-42.6,-126.6,-1.8,104.4,-126.0,7.2,0,324,0,30,0,
0.1833,-63.0,3.3,49.5,-96.6,-19.8,-180.9,206.7,-287.1,-3112.2,298.2,-151.5,-27.6,268.2,167.1,-78.3,-316.2,-6.3,-4.2,-42.9,-124.5,-1.8,106.2,-124.2,10.2,0,330,0,31,0,
0.1867,-69.9,-8.1,36.3,-111.6,-35.4,-192.3,202.5,-294.9,-3038.1,282.0,-167.1,-43.8,257.7,175.5,-39.3,-290.7,-6.3,-4.8,-55.8,-137.4,-1.8,90.9,-123.3,0.9,0,336,0,32,0,
0.1900,-71.7,-7.5,40.2,-110.1,-27.6,-188.4,201.6,-294.0,-3038.1,285.0,-162.3,-36.6,255.9,169.2,-48.9,-305.1,-6.3,-4.5,-49.2,-132.0,-2.1,98.1,-124.8,6.9,0,342,0,33,0,
0.1933,-64.2,6.3,54.3,-98.7,-17.1,-180.9,206.1,-283.8,-3186.3,297.6,-147.6,-23.7,266.4,177.6,-55.8,-317.4,-6.0,-4.5,-37.2,-121.2,-1.8,106.8,-131.4,9.9,0,348,0,34,0,
0.1967,-61.8,-2.1,38.4,-107.7,-27.6,-186.9,199.2,-294.3,-3038.1,291.9,-158.4,-36.9,264.9,172.5,-54.9,-306.9,-6.3,-4.2,-46.5,-134.4,-1.8,101.7,-125.4,1.5,0,354,0,35,0,
0.2000,-62.7,0.9,43.2,-104.7,-26.1,-184.2,202.2,-291.3,-3112.2,286.5,-156.9,-30.0,262.5,171.9,-60.9,-315.3,-6.0,-4.5,-47.4,-127.8,-2.1,103.8,-124.8,-1.5,0,360,0,36,0,
0.2033,-63.9,0.9,42.9,-104.1,-24.9,-180.0,207.6,-289.2,-3112.2,289.8,-156.9,-31.8,260.4,169.8,-57.0,-314.4,-6.3,-4.2,-48.6,-129.3,-1.8,108.0,-122.1,6.6,0,366,0,37,0,
0.2067,-62.4,-8.1,34.8,-117.3,-38.4,-193.5,198.9,-297.9,-3038.1,281.7,-168.6,-44.4,267.3,179.4,-26.7,-303.0,-6.3,-4.5,-56.1,-139.8,-2.1,92.1,-140.4,-8.7,0,372,0,38,0,
0.2100,-71.7,-6.6,33.3,-115.5,-38.7,-192.6,201.6,-297.3,-3038.1,285.0,-165.9,-45.3,261.3,166.5,-53.4,-294.0,-6.0,-4.2,-54.3,-143.4,-1.8,99.3,-120.6,2.1,0,378,0,39,0,
0.2133,-69.0,-9.6,35.7,-114.9,-38.1,-195.6,204.9,-299.7,-2964.0,279.6,-163.8,-40.5,256.2,173.4,-42.6,-285.3,-6.3,-4.8,-52.2,-140.7,-1.8,90.0,-119.4,-1.8,0,384,0,40,0,
0.2167,-69.3,-4.2,40.8,-111.6,-33.9,-186.6,203.7,-292.8,-3038.1,299.1,-158.1,-33.6,263.7,171.0,-55.2,-299.1,-6.0,-4.5,-47.1,-135.3,-1.8,107.4,-113.4,10.5,0,390,0,41,0,
0.2200,-68.1,-3.9,44.4,-107.4,-29.1,-186.3,208.2,-289.8,-3038.1,304.8,-154.5,-29.7,271.8,170.1,-72.3,-308.1,-6.6,-4.8,-41.1,-131.1,-1.5,104.1,-114.6,12.9,0,396,0,42,0,
0.2233,-73.5,-9.6,31.2,-120.0,-39.6,-195.9,204.3,-301.8,-3186.3,289.8,-164.1,-39.6,265.8,179.7,-9.0,-282.0,-6.3,-4.2,-54.9,-140.7,-1.8,93.3,-130.2,10.2,0,402,0,43,0,
0.2267,-66.3,-1.5,39.3,-111.3,-33.9,-189.9,206.4,-293.7,-3112.2,289.2,-160.5,-36.3,263.7,181.5,-24.3,-289.5,-6.0,-4.8,-51.0,-134.1,-1.8,93.3,-128.4,6.6,0,408,0,44,0,
0.2300,-68.1,2.1,46.8,-102.9,-25.8,-181.5,210.9,-289.5,-3038.1,303.6,-149.7,-27.9,272.1,177.0,-70.5,-297.3,-6.3,-4.5,-39.6,-129.3,-2.1,104.7,-111.6,9.3,0,414,0,45,0,
0.2333,-71.1,-2.7,45.6,-100.8,-20.4,-178.2,210.6,-289.8,-3112.2,300.6,-145.8,-23.1,269.7,171.6,-78.9,-294.6,-6.6,-4.5,-38.7,-123.0,-1.8,111.0,-102.9,10.2,0,420,0,46,0,
0.2367,-65.4,5.1,49.2,-95.7,-15.6,-175.5,209.7,-285.9,-3038.1,317.7,-138.3,-14.4,281.7,182.1,-80.1,-329.7,-6.3,-4.5,-30.0,-116.4,-2.1,120.9,-111.6,21.9,0,426,0,47,0,
0.2400,-64.8,2.4,40.8,-106.8,-27.6,-184.5,206.7,-293.7,-3186.3,295.5,-154.5,-32.4,272.7,181.2,-55.2,-301.2,-6.3,-4.8,-41.7,-130.5,-2.1,104.1,-119.1,9.6,0,432,0,48,0,
0.2433,-69.0,-3.9,39.9,-106.2,-32.1,-186.3,200.7,-295.5,-3038.1,301.5,-152.7,-33.3,268.2,167.7,-65.7,-309.6,-6.3,-4.5,-42.9,-130.5,-1.8,92.7,-130.5,6.0,0,438,0,49,0,
0.2467,-64.2,3.3,44.4,-107.4,-29.1,-186.3,200.1,-293.7,-2964.0,301.8,-154.2,-34.2,278.7,172.5,-58.8,-312.3,-6.3,-4.2,-39.6,-135.0,-1.8,93.9,-133.5,5.4,0,444,0,50,0,
0.2500,-61.8,6.3,50.4,-100.2,-22.8,-180.6,204.3,-289.2,-3112.2,302.4,-147.6,-27.9,277.8,174.9,-82.8,-320.4,-6.3,-4.8,-37.8,-126.6,-1.8,109.8,-130.8,16.5,0,450,0,51,0,
0.2533,-63.0,3.3,49.2,-104.1,-26.4,-182.1,198.6,-289.8,-2964.0,292.2,-150.6,-26.7,270.0,186.6,-67.2,-320.1,-6.3,-4.5,-39.9,-127.5,-1.8,108.3,-135.0,12.6,0,456,0,52,0,
0.2567,-67.2,1.5,49.8,-104.4,-28.8,-183.3,199.5,-293.4,-3038.1,291.6,-152.7,-25.8,261.6,177.3,-69.6,-309.0,-6.3,-4.5,-42.0,-126.0,-1.8,101.1,-129.9,13.5,0,462,0,53,0,
0.2600,-66.9,3.6,49.8,-102.3,-24.0,-182.1,199.2,-293.1,-3112.2,291.6,-148.5,-26.1,266.1,167.7,-71.4,-311.7,-6.3,-4.2,-35.1,-124.8,-1.5,108.0,-126.0,0.0,0,468,0,54,0,
0.2633,-65.1,5.1,52.5,-101.1,-27.6,-181.8,201.6,-291.9,-3112.2,301.2,-144.3,-23.4,276.3,175.8,-52.8,-317.4,-6.3,-4.5,-31.2,-125.1,-1.8,108.3,-132.0,0.9,0,474,0,55,0,
0.2667,-66.3,4.5,50.7,-100.8,-30.3,-184.5,205.5,-288.6,-2964.0,303.3,-143.7,-26.4,270.9,181.5,-50.7,-301.8,-6.3,-4.5,-30.3,-128.1,-1.8,105.0,-131.4,-4.2,0,480,0,56,0,
0.2700,-69.0,4.5,53.4,-102.6,-23.4,-184.8,198.9,-291.6,-3038.1,306.6,-141.3,-17.4,275.7,172.5,-71.1,-317.1,-6.3,-4.8,-27.6,-122.4,-2.1,112.5,-127.2,5.4,0,486,0,57,0,
0.2733,-63.9,8.1,55.2,-94.8,-22.2,-181.8,203.4,-287.4,-3112.2,312.3,-137.4,-16.8,279.3,181.5,-60.9,-311.1,-6.6,-4.2,-22.2,-119.4,-1.5,127.5,-114.9,15.3,0,492,0,58,0,
0.2767,-63.9,0.6,53.7,-98.7,-25.8,-181.2,201.0,-290.1,-3186.3,306.3,-141.6,-20.7,272.4,174.9,-60.9,-310.2,-6.3,-4.5,-27.9,-120.3,-1.5,124.5,-119.7,8.7,0,498,0,59,0,
0.2800,-63.3,1.8,49.5,-101.7,-27.9,-178.2,206.7,-291.3,-3038.1,301.2,-144.3,-25.5,267.3,180.0,-54.3,-298.5,-6.0,-4.5,-32.7,-125.7,-1.8,115.8,-123.9,10.8,0,504,0,60,0,
0.2833,-62.4,1.8,54.6,-103.8,-26.4,-184.5,206.7,-289.2,-3038.1,295.8,-143.1,-23.7,274.5,175.5,-44.7,-309.6,-6.0,-4.5,-30.9,-126.3,-1.5,109.2,-129.6,10.5,0,510,0,61,0,
0.2867,-66.6,-1.8,43.5,-112.5,-33.3,-186.3,198.3,-291.3,-3038.1,292.5,-149.1,-32.1,272.7,180.0,-29.4,-300.9,-6.3,-4.5,-36.0,-134.4,-1.5,103.2,-132.0,-3.0,0,516,0,62,0,
0.2900,-66.3,-3.0,46.5,-109.5,-34.5,-186.9,198.0,-294.3,-3112.2,289.8,-148.8,-33.6,263.1,174.9,-35.1,-299.1,-6.0,-4.8,-34.8,-136.2,-2.1,98.4,-130.8,-3.9,0,522,0,63,0,
0.2933,-66.3,4.8,55.8,-99.0,-27.0,-186.0,204.9,-288.6,-3038.1,312.9,-138.0,-20.7,271.5,180.0,-59.7,-310.2,-6.3,-4.8,-24.0,-124.5,-1.5,110.1,-127.2,9.9,0,528,0,64,0,
0.2967,-60.6,3.9,57.6,-98.1,-27.6,-183.6,204.3,-292.2,-3038.1,314.1,-136.5,-20.4,280.8,176.1,-61.5,-305.7,-6.6,-4.2,-21.6,-123.3,-1.5,110.7,-132.9,7.8,0,534,0,65,0,
0.3000,-66.9,0.0,54.0,-100.8,-31.5,-188.1,201.0,-294.3,-3038.1,311.7,-142.5,-28.8,276.6,174.6,-53.4,-303.9,-6.3,-4.8,-28.8,-128.4,-1.5,109.2,-132.3,0.9,0,540,0,66,0,
0.3033,-65.4,-1.2,50.7,-103.5,-32.4,-189.0,203.1,-299.4,-3112.2,303.3,-149.7,-28.5,268.5,177.9,-42.6,-294.9,-5.7,-4.5,-36.9,-129.9,-1.8,103.8,-130.2,4.8,0,546,0,67,0,
0.3067,-67.8,-2.1,46.8,-106.2,-32.4,-185.7,202.8,-293.1,-3112.2,298.5,-148.2,-27.6,265.2,167.1,-52.2,-288.9,-6.3,-4.2,-34.8,-129.6,-2.1,100.8,-128.1,6.3,0,552,0,68,0,
0.3100,-66.3,-1.2,49.5,-104.7,-31.8,-183.0,205.2,-292.5,-3112.2,293.4,-149.1,-27.9,270.6,170.7,-55.5,-290.1,-5.7,-4.8,-37.8,-129.6,-1.8,102.9,-127.2,-0.9,0,558,0,69,0,
0.3133,-68.7,-8.7,45.9,-108.9,-34.2,-183.3,201.6,-294.0,-3186.3,296.1,-158.1,-31.5,264.3,174.0,-54.6,-304.8,-6.0,-4.2,-42.3,-134.4,-1.5,101.1,-128.4,6.6,0,564,0,70,0,
0.3167,-69.9,-11.4,44.1,-108.9,-32.7,-192.3,198.0,-301.2,-3038.1,295.8,-154.8,-31.2,263.4,178.5,-27.9,-305.7,-6.0,-4.5,-43.2,-133.2,-1.5,100.8,-134.7,-8.1,0,570,0,71,0,
0.3200,-72.0,-17.7,39.0,-115.5,-39.0,-195.3,198.3,-305.4,-3038.1,284.1,-160.5,-36.0,257.1,187.5,0.6,-289.5,-6.6,-4.5,-51.3,-137.4,-1.8,97.5,-135.0,-12.6,0,576,0,72,0,
0.3233,-67.8,-4.8,51.6,-103.5,-27.3,-182.4,206.4,-297.0,-3186.3,303.0,-145.5,-22.5,277.8,170.1,-53.4,-291.9,-6.0,-4.5,-33.0,-124.5,-1.8,113.7,-122.7,6.0,0,582,0,73,0,
0.3267,-69.6,-4.8,52.2,-105.6,-25.8,-179.7,207.3,-295.2,-3112.2,304.5,-150.6,-24.9,269.7,173.4,-63.9,-300.9,-6.0,-4.5,-36.9,-127.2,-1.8,107.7,-128.4,9.6,0,588,0,74,0,
0.3300,-70.5,-5.7,48.6,-105.9,-27.0,-184.2,201.9,-299.4,-3112.2,293.7,-151.5,-25.5,256.8,171.3,-52.8,-291.3,-6.0,-4.5,-42.0,-126.0,-1.8,112.8,-126.3,6.9,0,594,0,75,0,
0.3333,-65.7,-3.6,47.7,-112.5,-30.9,-189.9,202.8,-299.7,-2964.0,297.3,-153.0,-29.4,248.4,179.4,-24.0,-306.9,-6.3,-4.8,-39.3,-130.8,-1.8,100.2,-133.8,0.6,0,600,0,76,0,
0.3367,-64.2,0.3,47.4,-105.9,-27.3,-185.7,201.0,-299.1,-3186.3,295.2,-147.6,-25.5,259.5,188.1,-36.9,-308.7,-6.0,-4.5,-39.9,-129.0,-1.5,94.5,-136.2,3.3,0,606,0,77,0,
0.3400,-63.0,3.3,51.6,-106.8,-29.4,-184.2,201.9,-294.0,-3186.3,307.5,-149.7,-30.9,276.3,186.6,-74.1,-306.9,-6.0,-4.5,-32.7,-132.3,-2.1,99.6,-131.7,6.6,0,612,0,78,0,
0.3433,-69.9,2.7,53.7,-103.5,-25.5,-175.5,210.0,-292.5,-3038.1,307.8,-147.6,-24.9,275.1,167.7,-100.8,-283.8,-6.3,-4.5,-31.8,-123.9,-1.5,109.8,-111.9,14.4,0,618,0,79,0,
0.3467,-67.2,4.2,54.6,-104.7,-21.3,-175.5,210.9,-293.1,-3112.2,305.7,-149.4,-23.1,280.5,168.3,-80.1,-288.0,-6.3,-4.5,-33.6,-122.7,-1.8,125.7,-114.3,14.1,0,624,0,80,0,
0.3500,-63.0,14.4,62.7,-95.7,-17.1,-167.1,208.5,-288.6,-2889.9,325.5,-139.8,-17.1,301.2,180.9,-88.5,-325.2,-6.3,-4.8,-24.6,-116.7,-1.8,134.1,-119.1,21.0,0,630,0,81,0,
0.3533,-71.4,4.2,57.0,-103.8,-18.3,-169.2,207.0,-292.8,-3186.3,310.5,-145.5,-22.2,274.8,171.6,-75.6,-296.1,-6.3,-4.2,-30.3,-119.7,-2.1,122.1,-120.9,17.7,0,636,0,82,0,
0.3567,-73.8,-4.8,43.5,-119.1,-33.6,-186.0,198.0,-303.6,-3186.3,293.1,-157.2,-37.8,254.7,178.2,-26.7,-298.8,-6.3,-4.5,-43.5,-137.4,-1.5,105.9,-133.2,1.5,0,642,0,83,0,
0.3600,-71.4,-2.1,46.8,-113.1,-31.5,-182.1,201.0,-298.8,-3112.2,301.5,-152.1,-33.0,275.4,182.7,-38.4,-300.9,-5.7,-4.5,-37.5,-131.7,-1.8,106.8,-133.5,3.0,0,648,0,84,0,
0.3633,-61.8,9.9,63.9,-96.0,-15.0,-166.8,207.3,-287.7,-3038.1,329.7,-134.4,-15.3,287.7,174.9,-76.5,-314.1,-6.3,-4.5,-21.0,-114.9,-1.8,126.0,-126.0,10.8,0,654,0,85,0,
0.3667,-69.9,3.3,58.5,-106.8,-25.2,-178.5,204.3,-299.4,-2964.0,317.4,-142.2,-16.8,279.9,169.8,-79.8,-294.3,-6.6,-4.5,-30.3,-117.9,-1.8,118.2,-124.8,11.4,0,660,0,86,0,
0.3700,-68.1,-1.2,57.0,-105.6,-27.0,-179.1,201.3,-299.7,-3186.3,307.5,-142.8,-24.9,283.2,175.5,-57.9,-309.0,-6.6,-4.2,-27.3,-119.4,-1.8,111.6,-125.1,11.4,0,666,0,87,0,
0.3733,-68.7,3.3,55.5,-107.1,-28.5,-185.4,197.7,-300.9,-3112.2,305.4,-144.9,-30.0,285.3,177.6,-51.9,-308.7,-6.3,-4.5,-26.1,-123.6,-1.8,108.3,-125.1,9.3,0,672,0,88,0,
0.3767,-66.3,7.5,60.6,-99.3,-25.2,-180.3,200.1,-295.8,-3112.2,324.3,-139.8,-21.9,292.2,174.0,-68.7,-323.7,-6.3,-4.5,-21.0,-119.1,-1.8,118.5,-125.7,13.2,0,678,0,89,0,
0.3800,-62.4,6.3,54.6,-109.2,-33.9,-187.8,195.9,-300.6,-2964.0,318.3,-145.2,-27.3,279.0,179.7,-49.8,-307.8,-6.0,-4.2,-24.9,-126.0,-2.1,108.0,-131.4,5.1,0,684,0,90,0,
0.3833,-61.2,6.0,58.5,-101.4,-27.0,-186.3,196.2,-297.9,-3038.1,318.6,-139.8,-23.4,282.6,186.0,-62.1,-303.3,-6.6,-4.5,-22.2,-124.8,-1.8,112.5,-140.1,9.0,0,690,0,91,0,
0.3867,-69.0,-0.6,54.6,-104.7,-27.3,-185.7,199.5,-297.6,-3038.1,315.0,-143.7,-23.7,280.2,174.3,-64.5,-285.9,-5.7,-4.5,-27.0,-120.0,-1.5,113.4,-123.3,10.5,0,696,0,92,0,
0.3900,-63.6,-0.9,54.9,-100.8,-25.2,-186.9,198.3,-293.7,-3112.2,316.5,-140.1,-20.1,285.6,188.4,-33.9,-303.6,-6.0,-4.2,-25.5,-118.2,-1.8,121.8,-130.8,11.4,0,702,0,93,0,
0.3933,-67.2,1.8,57.0,-101.1,-27.9,-186.9,195.9,-297.9,-3186.3,321.9,-140.1,-18.9,284.7,187.2,-39.0,-317.4,-6.0,-4.2,-21.3,-116.1,-1.5,127.5,-134.7,13.5,0,708,0,94,0,
0.3967,-67.5,6.0,63.6,-94.5,-24.6,-181.8,197.7,-296.7,-2964.0,330.0,-136.8,-16.5,291.6,179.4,-56.1,-304.2,-6.0,-4.5,-15.6,-117.3,-1.8,110.1,-126.9,14.4,0,714,0,95,0,
0.4000,-66.0,5.1,57.0,-97.2,-26.1,-180.0,199.5,-297.6,-3038.1,316.5,-137.1,-18.0,280.8,192.0,-39.6,-302.4,-5.7,-4.8,-24.9,-114.9,-1.8,114.0,-126.0,16.2,0,720,0,96,0,
0.4033,-62.4,8.1,65.1,-93.3,-24.0,-179.1,200.1,-293.4,-3038.1,321.3,-136.5,-17.7,289.5,200.1,-42.0,-316.8,-6.3,-4.2,-20.1,-114.9,-1.5,123.0,-135.6,13.8,0,726,0,97,0,
0.4067,-66.9,9.3,65.1,-89.4,-16.8,-177.0,200.4,-286.8,-3186.3,329.4,-129.9,-7.8,276.9,183.9,-58.8,-301.2,-6.0,-4.5,-15.0,-107.7,-1.8,139.5,-136.5,25.5,0,732,0,98,0,
0.4100,-61.8,10.5,69.0,-92.7,-14.4,-174.9,200.7,-288.6,-3112.2,321.3,-130.8,-9.6,282.9,180.6,-48.6,-300.3,-6.6,-4.5,-15.9,-108.6,-1.8,139.2,-131.7,15.3,0,738,0,99,0,
0.4133,-65.4,-2.1,55.2,-101.4,-26.7,-183.3,197.7,-297.9,-3186.3,308.4,-147.3,-25.5,271.2,182.1,-23.4,-289.5,-6.0,-4.2,-31.5,-125.1,-1.5,116.7,-130.8,-0.6,0,744,0,100,0,
0.4167,-63.9,7.5,66.9,-90.6,-11.7,-169.8,205.5,-285.9,-3038.1,319.8,-138.9,-11.1,278.4,181.2,-60.0,-303.9,-6.3,-4.2,-24.6,-106.8,-1.8,129.6,-120.6,26.4,0,750,0,101,0,
0.4200,-65.1,8.7,72.3,-88.5,-10.2,-168.3,206.4,-285.6,-3186.3,318.6,-128.1,-6.6,285.0,181.2,-52.8,-303.6,-6.3,-4.5,-16.8,-104.7,-1.8,127.5,-122.7,26.4,0,756,0,102,0,
0.4233,-72.3,1.5,67.8,-91.5,-14.7,-171.6,205.2,-287.4,-3186.3,319.8,-129.3,-7.2,285.3,172.5,-48.6,-294.6,-6.6,-4.8,-20.4,-105.9,-1.5,124.2,-126.3,21.3,0,762,0,103,0,
0.4267,-72.0,-0.6,60.0,-100.2,-23.7,-184.5,198.9,-292.2,-3186.3,306.9,-142.2,-21.0,271.5,177.0,-27.9,-295.8,-6.3,-4.2,-28.5,-120.9,-1.8,96.9,-142.5,5.7,0,768,0,104,0,
0.4300,-66.9,10.2,72.3,-87.0,-15.9,-177.0,204.0,-282.6,-3038.1,311.7,-131.4,-10.5,282.9,183.9,-57.3,-319.5,-6.3,-4.8,-19.8,-109.5,-2.1,113.4,-135.6,14.7,0,774,0,105,0,
0.4333,-64.8,6.3,69.0,-85.2,-11.7,-172.8,203.4,-282.3,-3112.2,317.1,-129.6,-5.4,279.6,180.6,-66.0,-308.4,-6.0,-4.2,-15.9,-106.8,-1.5,121.2,-132.0,18.6,0,780,0,106,0,
0.4367,-61.8,14.7,79.5,-75.9,-3.3,-165.3,204.9,-275.4,-3112.2,326.7,-120.6,2.1,290.4,173.7,-84.3,-320.4,-6.3,-4.2,-8.1,-95.7,-1.8,129.0,-129.6,25.5,0,786,0,107,0,
0.4400,-63.0,15.9,76.8,-75.9,-1.8,-171.0,205.2,-277.8,-3112.2,315.3,-119.7,1.2,284.4,174.3,-75.0,-308.1,-6.3,-4.5,-7.5,-99.0,-1.8,127.2,-124.8,19.8,0,792,0,108,0,
0.4433,-64.2,19.8,80.4,-72.0,2.1,-166.2,208.8,-275.4,-3186.3,327.3,-115.2,1.2,295.2,150.9,-85.5,-305.4,-6.3,-4.2,-2.4,-97.5,-1.8,135.0,-120.0,16.5,0,798,0,109,0,
0.4467,-66.3,11.4,67.2,-87.9,-13.8,-182.1,199.8,-286.5,-3112.2,310.8,-134.4,-23.7,288.9,160.2,-75.0,-308.1,-6.0,-4.2,-18.3,-119.1,-1.8,105.3,-144.3,-0.9,0,804,0,110,0,
0.4500,-65.4,6.3,65.4,-96.6,-20.4,-179.4,200.1,-287.1,-3112.2,296.1,-143.1,-26.1,268.8,162.0,-63.0,-288.6,-6.3,-4.5,-29.4,-121.2,-1.8,111.6,-137.1,7.8,0,810,0,111,0,
0.4533,-70.2,9.3,68.1,-93.6,-18.6,-181.2,194.7,-284.1,-3186.3,308.1,-136.5,-17.1,274.2,168.0,-62.4,-316.5,-6.3,-4.5,-20.1,-111.9,-1.8,117.3,-143.1,5.4,0,816,0,112,0,
0.4567,-59.4,22.8,83.7,-78.3,-3.9,-166.8,202.2,-276.6,-3334.5,327.9,-117.0,7.2,288.9,182.1,-62.4,-338.4,-6.3,-4.5,-3.6,-90.6,-1.5,130.8,-134.7,23.1,0,822,0,113,0,
0.4600,-61.8,9.9,67.5,-88.8,-15.3,-173.1,199.8,-285.9,-3112.2,317.7,-127.2,-1.5,279.0,186.0,-42.6,-328.5,-6.3,-4.8,-14.4,-100.8,-2.1,134.7,-137.4,17.1,0,828,0,114,0,
0.4633,-60.6,14.1,69.6,-90.3,-13.8,-173.4,198.9,-285.9,-3186.3,323.4,-123.6,5.4,283.2,185.7,-50.7,-320.7,-6.3,-4.2,-12.9,-93.9,-1.8,124.8,-136.5,15.9,0,834,0,115,0,
0.4667,-64.8,6.0,60.9,-96.9,-18.0,-182.1,196.8,-288.0,-3186.3,314.1,-132.0,-5.7,281.1,180.6,-44.7,-309.0,-6.3,-4.5,-23.4,-105.6,-1.8,113.4,-137.1,12.0,0,840,0,116,0,
0.4700,-67.5,2.1,60.9,-103.5,-23.7,-186.6,196.2,-296.4,-3186.3,313.5,-136.5,-12.0,282.0,185.7,-26.4,-300.3,-6.3,-4.5,-25.8,-114.0,-1.8,106.5,-139.2,4.8,0,846,0,117,0,
0.4733,-69.0,-6.6,57.3,-103.2,-22.5,-181.8,195.3,-299.4,-3260.4,308.7,-138.3,-13.8,270.6,182.7,-18.9,-304.5,-6.3,-4.5,-29.1,-112.8,-1.8,111.9,-137.1,7.8,0,852,0,118,0,
0.4767,-64.2,10.8,75.6,-92.4,-9.3,-168.9,202.2,-285.0,-3334.5,326.1,-123.6,-3.0,285.6,181.8,-66.9,-315.0,-6.0,-4.5,-9.3,-98.4,-1.5,134.7,-120.3,16.2,0,858,0,119,0,
0.4800,-66.3,-1.2,59.7,-102.9,-18.3,-177.0,201.3,-293.1,-3186.3,313.5,-137.4,-13.8,272.4,181.2,-39.0,-298.2,-6.3,-4.5,-26.4,-111.6,-1.8,126.0,-124.5,15.3,0,864,0,120,0,
0.4833,-65.4,-3.3,54.9,-101.4,-26.4,-180.3,195.3,-298.8,-3260.4,310.2,-142.8,-15.6,275.1,191.7,-14.7,-299.4,-6.3,-4.2,-32.4,-115.2,-1.5,112.5,-144.0,7.2,0,870,0,121,0,
0.4867,-67.8,1.8,64.5,-96.6,-17.4,-171.3,198.9,-291.9,-3186.3,313.5,-135.6,-11.1,277.2,172.5,-72.0,-290.1,-6.3,-4.8,-23.7,-109.2,-1.8,117.3,-128.4,12.9,0,876,0,122,0,
0.4900,-60.9,11.1,69.6,-93.3,-13.8,-168.3,207.3,-289.8,-3112.2,316.5,-130.2,-5.1,279.0,172.5,-68.7,-277.8,-6.3,-4.2,-19.5,-102.6,-1.8,119.4,-126.9,19.8,0,882,0,123,0,
0.4933,-56.4,21.3,82.2,-78.6,2.1,-159.9,210.6,-272.1,-3260.4,324.9,-115.8,11.4,280.2,176.7,-78.9,-315.3,-6.0,-4.2,-8.1,-88.5,-1.8,144.3,-127.2,33.0,0,888,0,124,0,
0.4967,-57.3,18.0,81.6,-78.3,1.8,-160.8,204.0,-277.2,-3112.2,329.1,-115.2,6.3,288.6,183.0,-54.6,-327.0,-6.3,-4.8,-6.6,-90.6,-1.8,141.6,-138.0,28.2,0,894,0,125,0,
0.5000,-62.1,14.4,81.0,-81.6,0.9,-159.6,206.4,-281.1,-3038.1,332.7,-118.5,4.5,282.6,179.1,-51.6,-304.5,-6.0,-4.5,-8.4,-90.6,-1.5,141.6,-125.4,25.8,0,900,0,126,0,
0.5033,-63.3,3.9,67.5,-92.7,-11.1,-167.1,202.8,-291.6,-3038.1,315.3,-130.8,-11.4,284.4,189.6,-18.6,-301.5,-6.0,-4.2,-24.3,-106.2,-1.5,121.8,-135.0,11.4,0,906,0,127,0,
0.5067,-62.1,11.4,72.3,-94.5,-9.0,-166.8,204.9,-288.6,-3038.1,324.9,-131.1,-5.4,285.6,177.6,-27.9,-300.0,-6.0,-4.5,-23.7,-99.9,-1.8,127.5,-142.2,30.0,0,912,0,128,0,
0.5100,-66.3,13.2,76.2,-84.6,-3.0,-164.4,207.9,-287.4,-3186.3,327.6,-124.8,1.2,284.1,171.0,-68.1,-292.5,-6.3,-4.5,-13.8,-95.7,-1.8,141.6,-125.7,31.8,0,918,0,129,0,
0.5133,-66.3,3.9,64.8,-93.3,-9.6,-167.1,202.8,-292.8,-3112.2,306.0,-135.9,-7.5,274.8,189.3,-47.1,-288.9,-6.3,-4.5,-27.0,-104.1,-1.8,130.8,-121.8,32.1,0,924,0,130,0,
0.5167,-66.0,9.9,74.4,-82.2,-1.5,-162.9,204.9,-285.6,-2964.0,324.0,-122.7,5.1,283.5,176.4,-72.3,-320.7,-6.0,-4.5,-18.6,-95.1,-1.8,137.1,-129.3,28.2,0,930,0,131,0,
0.5200,-72.0,1.8,65.4,-90.0,-11.1,-170.1,201.6,-293.4,-3038.1,306.9,-134.1,-8.4,272.7,170.1,-51.3,-306.0,-6.3,-4.5,-28.2,-107.7,-1.8,119.4,-133.5,20.4,0,936,0,132,0,
0.5233,-71.1,-5.7,55.8,-103.2,-22.8,-181.2,197.1,-298.5,-3186.3,297.6,-147.3,-24.0,268.8,176.4,-20.1,-291.6,-6.0,-4.8,-35.1,-119.7,-1.5,97.2,-139.5,7.2,0,942,0,133,0,
0.5267,-69.6,-1.5,52.5,-104.4,-16.8,-173.1,199.8,-298.8,-3038.1,288.9,-145.2,-18.3,266.1,173.1,-11.1,-290.7,-6.3,-4.2,-40.2,-115.8,-2.1,108.6,-129.6,8.1,0,948,0,134,0,
0.5300,-62.7,12.0,69.9,-85.8,-4.8,-164.4,208.2,-284.1,-2964.0,315.0,-126.6,-3.0,283.5,180.3,-70.5,-314.7,-6.3,-4.8,-21.0,-99.6,-1.8,125.7,-133.5,22.8,0,954,0,135,0,
0.5333,-64.8,10.2,70.5,-90.3,-4.8,-163.8,208.5,-286.5,-2889.9,311.1,-126.3,-5.1,282.6,180.6,-59.4,-309.6,-6.0,-4.8,-21.0,-100.5,-1.8,132.3,-126.0,21.0,0,960,0,136,0,
0.5367,-63.6,11.7,66.9,-93.0,-7.8,-163.8,207.0,-284.1,-3038.1,311.4,-132.9,-8.1,275.1,182.4,-48.3,-291.3,-5.7,-4.5,-24.3,-102.9,-1.8,126.0,-121.5,34.2,0,966,0,137,0,
0.5400,-67.5,9.0,65.4,-91.5,-9.9,-161.1,207.0,-287.7,-3112.2,305.4,-135.0,-12.3,270.9,171.6,-55.5,-276.3,-6.3,-4.2,-23.4,-106.5,-1.8,118.2,-111.3,25.8,0,972,0,138,0,
0.5433,-66.6,12.6,66.0,-89.7,-12.3,-163.8,205.5,-289.2,-2964.0,315.6,-130.5,-11.1,273.6,176.7,-58.2,-297.0,-6.0,-4.8,-18.0,-108.6,-1.8,118.5,-121.5,23.7,0,978,0,139,0,
0.5467,-61.5,21.6,72.0,-86.1,-9.9,-171.9,208.8,-286.2,-2889.9,317.4,-128.1,-9.0,280.5,183.3,-61.2,-321.0,-6.3,-4.5,-14.1,-107.1,-1.8,122.7,-133.5,22.8,0,984,0,140,0,
0.5500,-63.3,18.6,71.7,-82.2,2.4,-160.8,213.6,-280.2,-2964.0,331.2,-118.2,2.7,275.7,157.2,-116.7,-305.7,-6.3,-4.5,-14.1,-92.4,-1.8,141.9,-117.6,41.7,0,990,0,141,0,
0.5533,-65.4,6.6,60.3,-93.9,-12.9,-171.3,210.3,-291.6,-2964.0,308.7,-136.8,-12.0,264.9,159.0,-83.7,-299.7,-6.3,-4.5,-26.1,-112.2,-2.1,128.7,-117.6,20.7,0,996,0,142,0,
0.5567,-66.3,8.7,62.1,-97.2,-16.5,-175.8,201.9,-293.1,-3186.3,313.8,-137.7,-15.9,268.2,171.9,-74.7,-329.4,-6.3,-4.5,-25.8,-112.8,-1.8,129.6,-134.1,10.2,0,1002,0,143,0,
0.5600,-71.1,6.3,54.6,-101.7,-22.2,-178.5,201.6,-297.0,-3038.1,308.4,-140.4,-19.2,278.4,167.4,-57.9,-316.2,-6.6,-4.8,-27.3,-117.6,-1.8,105.9,-131.4,11.1,0,1008,0,144,0,
0.5633,-70.5,6.6,55.5,-100.2,-21.6,-173.7,207.3,-297.3,-2889.9,311.7,-140.7,-18.6,276.6,171.6,-59.1,-314.1,-6.0,-4.5,-25.8,-116.1,-1.2,120.3,-118.8,26.4,0,1014,0,145,0,
0.5667,-75.9,4.2,51.6,-104.7,-26.7,-177.0,207.9,-303.9,-2964.0,294.9,-148.8,-26.1,255.0,170.1,-49.5,-287.7,-6.0,-4.8,-31.8,-122.7,-1.5,113.4,-117.3,14.4,0,1020,0,146,0,
0.5700,-72.6,0.3,47.1,-109.8,-25.5,-180.0,209.4,-302.7,-3112.2,291.9,-150.9,-27.9,252.6,172.8,-33.9,-274.5,-6.3,-4.8,-37.8,-126.0,-1.8,110.1,-117.9,14.4,0,1026,0,147,0,
0.5733,-68.4,-0.3,48.6,-108.9,-26.7,-180.9,205.5,-302.1,-2964.0,300.9,-149.1,-27.9,263.4,190.2,-14.1,-308.1,-6.3,-4.5,-38.4,-125.4,-1.5,112.8,-129.9,16.2,0,1032,0,148,0,
0.5767,-68.1,6.0,57.0,-103.5,-20.7,-174.9,206.7,-298.5,-3038.1,310.2,-143.1,-21.6,278.7,191.4,-46.2,-300.9,-5.7,-4.8,-26.4,-120.9,-1.8,116.1,-128.7,15.9,0,1038,0,149,0,
0.5800,-66.0,13.8,67.2,-90.0,-11.1,-163.8,217.8,-287.7,-2815.8,327.3,-128.4,-8.1,283.2,176.4,-75.0,-293.7,-6.6,-4.2,-13.8,-103.2,-2.1,128.4,-107.4,32.4,0,1044,0,150,0,
0.5833,-66.6,18.6,67.5,-92.1,-14.4,-164.1,214.8,-285.9,-3038.1,329.1,-126.9,-8.1,281.7,181.8,-76.2,-302.1,-6.0,-4.5,-14.7,-106.8,-1.5,127.5,-117.0,22.2,0,1050,0,151,0,
0.5867,-65.1,15.9,64.2,-98.1,-18.0,-168.3,210.0,-294.0,-3038.1,334.5,-131.1,-13.5,288.3,179.7,-61.2,-310.5,-6.6,-4.5,-19.2,-111.6,-2.1,117.3,-128.4,-0.3,0,1056,0,152,0,
0.5900,-62.7,12.0,56.7,-100.2,-18.0,-172.5,209.4,-294.6,-2964.0,321.6,-140.1,-18.3,279.9,197.4,-39.9,-294.6,-6.3,-4.5,-25.5,-117.6,-2.1,114.3,-120.6,12.3,0,1062,0,153,0,
0.5933,-63.6,5.1,54.3,-103.8,-23.1,-176.1,206.7,-298.2,-3112.2,310.5,-144.3,-20.1,266.1,184.8,-45.3,-302.4,-6.3,-4.5,-29.1,-118.5,-1.8,112.5,-124.5,18.0,0,1068,0,154,0,
0.5967,-64.8,7.5,55.8,-103.2,-22.2,-177.3,209.1,-295.2,-3112.2,315.3,-143.4,-21.3,276.0,185.1,-49.2,-295.2,-6.3,-4.5,-28.8,-121.8,-1.8,110.4,-118.5,15.9,0,1074,0,155,0,
0.6000,-67.5,-0.9,52.2,-112.8,-30.0,-178.5,202.8,-304.5,-2889.9,306.6,-149.7,-24.9,272.1,186.3,-52.5,-303.6,-6.6,-4.2,-36.0,-122.1,-2.1,114.6,-133.8,6.6,0,1080,0,156,0,
0.6033,-70.5,-4.8,46.2,-115.2,-36.3,-186.6,198.3,-309.6,-2964.0,301.8,-151.2,-36.9,267.6,187.8,-31.5,-308.4,-6.3,-4.5,-37.8,-132.9,-1.8,93.6,-144.0,0.0,0,1086,0,157,0,
0.6067,-70.8,-9.3,42.9,-114.9,-35.7,-188.7,197.1,-311.7,-2964.0,304.8,-155.1,-33.6,262.5,176.4,-31.5,-302.7,-6.3,-4.5,-40.2,-131.7,-1.5,99.3,-138.3,-0.9,0,1092,0,158,0,
0.6100,-64.5,-2.4,46.8,-108.6,-31.8,-186.0,199.5,-305.7,-3112.2,312.6,-150.0,-28.2,267.9,183.6,-49.5,-303.6,-6.3,-4.5,-34.8,-125.4,-1.8,102.0,-136.2,3.6,0,1098,0,159,0,
0.6133,-65.1,0.0,47.1,-111.0,-27.0,-183.6,201.3,-303.9,-2889.9,316.5,-144.9,-24.9,269.1,186.9,-54.3,-312.3,-6.3,-3.9,-31.5,-122.7,-2.1,111.6,-130.5,17.7,0,1104,0,160,0,
0.6167,-68.7,-3.3,43.2,-112.5,-28.2,-183.0,203.1,-304.5,-2964.0,305.7,-149.7,-24.6,267.9,185.4,-45.9,-297.0,-6.3,-4.5,-33.6,-125.4,-1.5,114.0,-129.6,17.4,0,1110,0,161,0,
0.6200,-66.9,4.8,57.0,-103.8,-18.6,-175.5,206.1,-298.2,-2964.0,312.0,-140.4,-15.3,273.0,171.3,-77.7,-307.5,-6.3,-4.5,-25.5,-114.9,-1.8,123.6,-120.0,24.0,0,1116,0,162,0,
0.6233,-66.0,11.4,61.8,-94.8,-16.2,-170.4,208.5,-293.1,-2889.9,329.4,-129.3,-7.5,270.3,168.6,-93.3,-330.0,-6.3,-4.8,-17.1,-106.2,-1.8,128.7,-118.8,35.4,0,1122,0,163,0,
0.6267,-65.7,-1.5,48.0,-109.8,-32.7,-192.3,192.6,-308.7,-2964.0,311.1,-144.0,-27.3,260.7,176.7,-36.3,-311.1,-6.0,-4.2,-33.9,-129.6,-1.8,111.6,-137.7,8.4,0,1128,0,164,0,
0.6300,-66.6,-2.1,45.9,-110.4,-34.5,-189.0,200.7,-306.0,-2889.9,303.9,-150.3,-27.3,271.8,178.8,-30.3,-292.8,-6.0,-4.8,-39.0,-127.8,-1.5,116.4,-129.3,8.4,0,1134,0,165,0,
0.6333,-69.9,0.3,51.9,-105.0,-21.9,-177.6,203.4,-302.1,-3038.1,310.8,-145.2,-19.5,264.0,161.7,-86.1,-294.6,-6.3,-4.5,-39.0,-119.7,-1.8,117.9,-118.8,17.4,0,1140,0,166,0,
0.6367,-68.7,3.3,54.0,-103.8,-25.8,-178.2,201.9,-300.9,-2964.0,310.5,-140.7,-19.8,256.2,166.2,-78.6,-292.8,-6.3,-4.5,-32.7,-120.9,-2.1,113.1,-126.0,9.0,0,1146,0,167,0,
0.6400,-66.6,6.9,64.5,-99.3,-17.4,-174.3,200.4,-294.6,-2964.0,321.6,-130.8,-11.1,270.9,171.9,-82.5,-335.7,-6.3,-4.5,-20.1,-112.5,-1.5,126.3,-130.2,18.0,0,1152,0,168,0,
0.6433,-64.8,8.4,61.5,-95.7,-19.8,-175.5,202.5,-294.9,-3112.2,323.7,-133.2,-11.1,273.9,184.5,-68.7,-328.5,-6.3,-4.2,-22.2,-111.3,-2.1,134.7,-136.2,16.5,0,1158,0,169,0,
0.6467,-64.8,6.9,58.5,-99.9,-19.2,-174.9,199.8,-300.9,-2889.9,310.5,-138.9,-14.7,276.9,180.9,-62.7,-317.4,-6.3,-4.5,-25.8,-115.8,-1.8,126.9,-138.9,22.5,0,1164,0,170,0,
0.6500,-64.8,6.9,47.4,-108.9,-34.8,-187.5,200.7,-309.0,-2964.0,302.7,-147.9,-28.2,273.0,184.5,-30.9,-288.6,-6.0,-4.5,-38.1,-130.5,-2.1,100.8,-128.7,5.4,0,1170,0,171,0,
0.6533,-67.2,-3.3,36.6,-118.8,-36.3,-191.1,194.1,-317.4,-2964.0,293.7,-158.4,-33.3,255.0,186.6,-8.4,-294.9,-6.0,-4.5,-43.8,-134.7,-1.5,110.4,-139.2,1.5,0,1176,0,172,0,
0.6567,-61.5,2.7,48.3,-105.3,-31.2,-185.1,192.6,-306.9,-3038.1,313.5,-142.8,-23.4,271.8,201.0,-33.6,-317.1,-6.3,-4.5,-32.7,-121.5,-1.8,118.5,-138.6,6.9,0,1182,0,173,0,
0.6600,-64.8,7.8,58.5,-100.5,-24.0,-177.3,195.6,-301.8,-3112.2,327.6,-132.9,-21.0,280.2,185.1,-72.3,-307.2,-6.3,-4.5,-18.9,-120.0,-1.5,120.0,-126.0,19.2,0,1188,0,174,0,
0.6633,-60.9,12.9,59.1,-91.2,-13.5,-172.2,197.7,-294.9,-2889.9,330.3,-123.6,-7.2,279.6,180.6,-70.2,-302.4,-6.3,-4.8,-15.0,-105.0,-2.1,144.6,-115.2,21.9,0,1194,0,175,0,
0.6667,-66.6,0.0,47.7,-106.8,-35.7,-186.6,193.5,-310.5,-2889.9,302.1,-145.5,-29.7,264.3,182.1,-36.9,-282.3,-6.3,-4.5,-33.3,-126.6,-1.5,119.4,-119.7,14.4,0,1200,0,176,0,
0.6700,-67.5,4.2,51.3,-105.6,-32.4,-183.9,195.6,-309.3,-2964.0,315.6,-140.7,-22.2,271.5,171.6,-42.3,-297.6,-6.3,-4.5,-25.2,-120.6,-1.8,123.3,-129.6,16.2,0,1206,0,177,0,
0.6733,-69.6,4.8,55.2,-105.0,-27.9,-181.8,192.9,-308.1,-3038.1,317.7,-135.6,-19.2,266.4,173.4,-60.6,-318.0,-6.3,-4.5,-22.5,-120.6,-1.8,117.0,-140.7,13.5,0,1212,0,178,0,
0.6767,-65.4,8.7,59.1,-100.5,-24.0,-181.5,192.3,-303.0,-3038.1,316.8,-135.0,-20.4,276.9,185.1,-60.6,-326.4,-6.3,-4.5,-20.4,-117.6,-1.5,106.8,-148.5,6.0,0,1218,0,179,0,
0.6800,-60.9,12.0,60.0,-98.7,-23.4,-181.5,195.3,-300.0,-2889.9,320.4,-134.7,-21.0,273.9,184.8,-54.0,-327.6,-6.3,-4.2,-19.2,-120.6,-2.1,108.6,-145.2,10.5,0,1224,0,180,0,
0.6833,-61.5,8.1,57.6,-100.8,-25.8,-185.1,192.3,-297.6,-3038.1,308.4,-141.6,-30.6,264.0,177.6,-41.4,-326.1,-6.0,-3.9,-28.8,-126.0,-2.1,89.4,-162.0,-0.3,0,1230,0,181,0,
0.6867,-62.7,5.7,48.0,-109.5,-36.3,-190.5,188.1,-303.3,-2964.0,292.2,-154.5,-42.3,244.5,177.9,-27.9,-308.1,-6.0,-4.5,-37.2,-137.7,-2.1,78.6,-159.0,-15.3,0,1236,0,182,0,
0.6900,-66.0,0.0,51.3,-105.0,-28.2,-183.0,192.9,-297.9,-3038.1,291.3,-148.5,-30.3,249.3,164.7,-43.2,-303.0,-6.3,-4.5,-33.0,-126.6,-1.8,97.8,-138.6,-6.0,0,1242,0,183,0,
0.6933,-65.1,6.6,52.8,-99.6,-17.7,-170.7,199.2,-294.3,-2964.0,308.4,-140.1,-23.4,270.6,166.2,-61.2,-310.5,-6.0,-4.5,-27.0,-118.2,-1.8,113.4,-132.6,9.0,0,1248,0,184,0,
0.6967,-65.1,5.7,54.6,-95.4,-17.4,-175.8,199.8,-291.9,-2964.0,304.5,-139.2,-22.2,260.7,162.6,-65.7,-335.4,-6.3,-4.5,-25.2,-115.8,-1.5,120.6,-132.9,11.4,0,1254,0,185,0,
0.7000,-61.8,13.8,57.3,-94.8,-16.5,-174.6,197.1,-292.5,-2889.9,324.0,-138.0,-15.6,276.6,182.4,-68.7,-331.5,-6.3,-4.8,-25.5,-113.1,-2.1,112.8,-133.5,12.6,0,1260,0,186,0,
0.7033,-65.1,7.8,56.7,-96.3,-19.8,-178.8,199.2,-294.3,-2889.9,311.1,-139.2,-19.8,273.6,175.5,-52.5,-322.2,-6.3,-4.5,-25.2,-117.3,-1.8,106.5,-133.8,10.2,0,1266,0,187,0,
0.7067,-65.1,11.1,58.8,-92.7,-14.7,-178.2,198.9,-289.8,-3038.1,313.8,-137.7,-15.6,266.4,179.4,-47.7,-315.3,-6.0,-4.2,-24.9,-114.3,-2.1,103.5,-135.3,5.4,0,1272,0,188,0,
0.7100,-66.6,8.1,58.5,-94.5,-14.1,-177.9,199.8,-290.7,-2964.0,310.5,-134.4,-15.6,268.8,168.3,-49.8,-326.7,-6.3,-4.5,-24.3,-114.9,-1.8,107.1,-137.1,11.1,0,1278,0,189,0,
0.7133,-63.3,9.6,62.4,-88.5,-11.1,-171.3,201.0,-289.2,-2889.9,312.9,-130.5,-10.8,270.0,179.1,-43.8,-306.0,-6.3,-4.5,-21.3,-111.0,-2.1,121.5,-130.8,19.8,0,1284,0,190,0,
0.7167,-62.7,5.1,57.0,-94.5,-15.6,-173.4,203.7,-285.0,-2964.0,305.7,-139.8,-18.3,266.1,180.9,-49.2,-293.4,-6.0,-4.8,-27.3,-115.2,-1.5,107.1,-123.9,14.7,0,1290,0,191,0,
0.7200,-59.4,15.6,71.1,-80.1,-2.7,-164.4,209.7,-276.0,-2815.8,315.0,-124.8,-3.0,277.5,181.8,-81.3,-311.1,-6.3,-4.2,-14.1,-102.0,-2.1,123.0,-126.6,24.9,0,1296,0,192,0,
0.7233,-60.3,11.4,68.4,-82.8,-6.6,-164.7,209.7,-281.4,-3038.1,307.2,-130.2,-7.8,270.3,174.9,-56.1,-312.0,-6.0,-4.5,-20.4,-108.0,-1.8,113.7,-123.9,13.2,0,1302,0,193,0,
0.7267,-59.7,12.9,67.8,-84.6,-8.1,-168.6,206.1,-279.3,-2889.9,311.7,-130.2,-9.9,288.0,188.7,-50.1,-322.8,-6.3,-4.5,-20.1,-110.1,-1.8,116.4,-118.8,12.9,0,1308,0,194,0,
0.7300,-60.9,6.6,60.9,-91.2,-15.9,-172.5,210.3,-287.4,-2815.8,299.4,-135.6,-12.6,276.3,188.1,-20.7,-289.2,-6.3,-4.5,-26.4,-112.8,-2.1,119.4,-114.6,12.6,0,1314,0,195,0,
0.7333,-64.5,12.3,70.5,-81.3,-4.8,-162.0,212.7,-281.1,-2815.8,317.1,-126.9,-3.6,274.2,169.2,-79.2,-298.5,-6.3,-4.5,-17.4,-103.5,-1.8,124.2,-111.0,25.2,0,1320,0,196,0,
0.7367,-62.4,19.8,75.3,-76.8,1.2,-162.0,208.8,-278.1,-3038.1,329.1,-116.7,3.9,284.7,166.5,-87.3,-333.3,-6.3,-4.5,-6.3,-99.0,-1.8,131.1,-124.2,29.7,0,1326,0,197,0,
0.7400,-65.4,16.5,74.7,-80.4,-6.9,-168.0,206.7,-284.7,-2964.0,327.3,-120.3,-0.6,286.2,158.7,-72.3,-321.3,-6.0,-4.8,-8.7,-101.7,-1.5,134.4,-116.7,28.2,0,1332,0,198,0,
0.7433,-67.2,16.5,71.4,-86.4,-11.1,-169.5,211.8,-288.0,-3038.1,324.9,-127.5,-6.3,283.2,170.1,-81.3,-315.9,-6.3,-4.5,-17.4,-105.0,-1.8,132.6,-123.6,28.8,0,1338,0,199,0,
0.7467,-63.0,14.7,67.5,-88.2,-12.6,-170.1,211.8,-288.0,-2889.9,320.1,-127.2,-9.6,275.1,170.4,-72.0,-302.4,-6.3,-4.5,-14.7,-108.6,-1.5,132.3,-122.4,23.1,0,1344,0,200,0,
0.7500,-63.6,10.5,65.1,-88.8,-13.5,-165.3,209.7,-285.6,-2815.8,309.6,-130.2,-9.0,269.4,181.5,-50.1,-313.5,-6.3,-4.2,-16.2,-109.2,-1.8,115.8,-131.4,23.1,0,1350,0,201,0,
0.7533,-60.9,6.0,60.0,-95.1,-20.1,-168.6,208.8,-290.7,-2889.9,301.5,-135.3,-18.3,271.5,180.3,-26.7,-300.3,-6.3,-4.2,-21.9,-117.9,-1.5,117.3,-134.4,22.2,0,1356,0,202,0,
0.7567,-63.3,3.6,58.8,-94.2,-16.8,-173.7,204.6,-289.2,-2815.8,303.6,-135.3,-15.3,273.3,172.8,-51.3,-292.5,-6.3,-4.2,-21.3,-115.2,-1.8,114.9,-117.0,13.5,0,1362,0,203,0,
0.7600,-57.9,11.1,67.5,-87.6,-7.2,-169.5,208.2,-279.9,-2889.9,319.2,-128.7,-6.6,285.0,168.9,-75.3,-317.4,-6.0,-4.8,-12.9,-109.5,-1.8,129.9,-114.0,20.1,0,1368,0,204,0,
0.7633,-63.0,5.1,58.8,-97.8,-19.8,-176.4,201.9,-291.3,-2889.9,303.3,-137.7,-22.5,276.9,171.3,-42.3,-303.3,-6.3,-4.5,-22.8,-121.5,-1.8,112.2,-129.6,3.0,0,1374,0,205,0,
0.7667,-64.2,9.3,57.6,-99.3,-21.6,-177.0,202.2,-292.2,-2964.0,302.1,-139.2,-28.2,261.6,175.8,-35.7,-310.2,-6.3,-4.5,-23.7,-120.6,-1.8,109.5,-129.9,3.3,0,1380,0,206,0,
0.7700,-63.0,1.2,51.3,-102.6,-27.3,-185.4,201.0,-293.4,-2964.0,300.3,-143.7,-24.3,265.8,182.7,-18.3,-301.2,-6.0,-4.2,-29.4,-124.8,-2.1,101.1,-131.7,11.1,0,1386,0,207,0,
0.7733,-64.5,2.1,52.8,-100.5,-26.7,-181.8,199.5,-296.1,-2964.0,298.2,-144.0,-24.0,267.0,182.7,-16.8,-298.2,-6.0,-4.5,-28.5,-122.1,-1.8,109.2,-129.3,15.9,0,1392,0,208,0,
0.7767,-62.1,13.5,63.0,-90.6,-16.8,-171.3,200.7,-289.2,-2889.9,312.6,-132.0,-11.7,278.7,177.0,-43.8,-320.7,-6.3,-4.5,-21.0,-110.1,-1.8,114.6,-135.6,22.8,0,1398,0,209,0,
0.7800,-63.0,21.9,72.9,-77.7,-0.3,-156.3,208.8,-280.5,-2889.9,331.5,-115.2,11.1,287.1,170.4,-96.0,-329.4,-6.3,-4.5,-6.0,-88.8,-1.5,133.5,-125.1,29.7,0,1404,0,210,0,
0.7833,-62.1,21.6,75.9,-81.0,-4.5,-155.1,210.9,-281.7,-2889.9,323.1,-119.1,8.1,281.7,161.1,-88.8,-310.8,-6.3,-4.2,-7.8,-94.5,-1.8,138.6,-116.4,36.9,0,1410,0,211,0,
0.7867,-67.2,11.1,60.3,-96.0,-19.5,-171.9,207.3,-291.3,-2815.8,313.2,-130.8,-11.1,275.7,171.0,-64.5,-305.4,-6.6,-4.5,-19.8,-112.8,-1.8,114.6,-123.6,16.5,0,1416,0,212,0,
0.7900,-63.0,16.5,63.6,-88.5,-11.4,-168.9,203.7,-285.3,-2964.0,321.3,-124.8,-4.2,282.6,174.0,-70.8,-323.4,-6.3,-4.2,-14.7,-105.0,-1.8,117.3,-125.1,13.8,0,1422,0,213,0,
0.7933,-64.2,15.0,63.6,-90.6,-20.7,-174.9,203.4,-291.6,-2889.9,320.4,-127.2,-10.2,286.2,161.7,-56.7,-315.6,-6.0,-4.5,-13.5,-110.7,-1.8,102.0,-128.4,14.7,0,1428,0,214,0,
0.7967,-65.4,11.7,54.3,-99.3,-26.1,-183.0,201.9,-295.5,-2741.7,300.9,-135.6,-20.1,271.2,192.9,-24.3,-309.0,-6.3,-4.5,-25.8,-124.5,-1.5,96.0,-129.3,1.2,0,1434,0,215,0,
0.8000,-62.7,12.9,60.9,-92.7,-21.6,-176.4,201.9,-288.3,-2815.8,310.8,-131.4,-13.5,273.3,180.3,-39.6,-316.8,-6.3,-4.5,-23.7,-115.5,-1.5,98.7,-134.4,3.0,0,1440,0,216,0,
0.8033,-61.2,18.0,64.5,-89.7,-21.3,-177.9,202.5,-288.9,-2964.0,307.5,-133.2,-14.4,276.6,177.6,-39.0,-306.9,-6.3,-4.5,-21.0,-117.6,-1.8,96.9,-132.9,2.4,0,1446,0,217,0,
0.8067,-61.5,19.8,71.7,-79.8,-9.9,-166.8,205.8,-281.7,-2815.8,326.4,-116.7,0.0,283.5,163.5,-103.5,-339.6,-6.3,-4.5,-9.0,-104.1,-1.8,120.9,-128.4,18.0,0,1452,0,218,0,
0.8100,-62.7,23.1,72.3,-80.4,-15.6,-167.4,210.6,-285.3,-2964.0,322.5,-120.0,-1.5,289.5,162.0,-93.9,-327.6,-6.3,-4.5,-9.0,-106.2,-2.1,129.9,-117.6,18.9,0,1458,0,219,0,
0.8133,-68.4,14.7,60.9,-97.2,-29.4,-185.4,206.7,-295.5,-2741.7,303.9,-131.4,-12.6,267.6,163.5,-62.4,-302.4,-6.3,-4.8,-19.2,-123.0,-1.8,106.8,-120.3,4.8,0,1464,0,220,0,
0.8167,-75.0,0.6,43.5,-111.9,-46.2,-198.3,203.1,-305.1,-2815.8,276.9,-149.4,-32.4,242.7,163.5,-15.6,-271.5,-6.0,-4.5,-41.1,-138.6,-1.8,84.3,-114.3,-6.0,0,1470,0,221,0,
0.8200,-70.2,5.7,54.3,-93.6,-27.9,-185.4,205.5,-292.8,-2889.9,306.3,-134.4,-16.5,257.4,169.8,-67.2,-315.6,-6.6,-4.8,-25.2,-120.0,-1.8,106.8,-114.9,10.2,0,1476,0,222,0,
0.8233,-69.0,13.8,64.5,-90.6,-26.4,-179.1,205.5,-289.8,-2815.8,312.9,-132.9,-11.7,276.9,167.4,-91.8,-344.7,-6.0,-4.8,-19.5,-118.5,-1.8,117.6,-124.8,15.3,0,1482,0,223,0,
0.8267,-64.5,10.5,58.8,-90.6,-24.9,-176.4,209.7,-288.0,-2889.9,311.7,-134.4,-11.1,279.0,159.6,-94.2,-326.4,-6.0,-4.2,-27.3,-116.7,-1.8,113.1,-122.4,16.5,0,1488,0,224,0,
0.8300,-70.2,7.5,52.8,-99.6,-34.5,-180.0,208.2,-293.1,-2815.8,296.7,-142.2,-21.9,274.5,160.5,-89.4,-303.9,-6.0,-4.2,-32.7,-126.9,-1.8,103.2,-118.2,6.3,0,1494,0,225,0,
0.8333,-63.9,17.1,65.7,-88.5,-24.0,-167.4,210.6,-285.6,-2815.8,310.8,-127.5,-6.9,273.3,167.1,-90.3,-324.6,-6.0,-4.5,-15.9,-113.4,-2.1,128.7,-111.9,24.9,0,1500,0,226,0,
0.8367,-63.9,11.7,67.5,-91.5,-23.1,-169.8,208.8,-288.9,-2815.8,308.1,-122.1,-8.4,284.1,169.5,-81.6,-332.1,-6.3,-4.5,-13.5,-114.0,-2.1,128.1,-113.1,24.3,0,1506,0,227,0,
0.8400,-58.5,19.5,70.5,-87.6,-24.6,-171.6,209.1,-284.1,-2815.8,315.0,-120.3,-9.3,288.0,173.1,-70.8,-319.5,-6.6,-4.5,-9.0,-117.6,-1.8,118.8,-118.8,11.7,0,1512,0,228,0,
0.8433,-61.8,19.2,69.0,-94.2,-28.8,-181.8,205.2,-287.7,-2741.7,303.6,-128.1,-24.6,285.9,175.2,-62.1,-321.3,-6.3,-4.5,-12.9,-126.9,-2.4,118.8,-122.7,12.6,0,1518,0,229,0,
0.8467,-63.0,14.4,61.5,-95.7,-34.8,-182.4,203.1,-294.6,-2889.9,300.3,-131.1,-34.8,276.0,175.2,-42.9,-306.3,-6.6,-4.5,-19.2,-125.1,-2.1,113.4,-135.0,18.0,0,1524,0,230,0,
0.8500,-56.7,18.6,66.6,-93.3,-29.4,-181.2,204.3,-292.8,-2815.8,300.0,-128.1,-26.4,277.5,186.0,-27.9,-306.9,-6.3,-4.5,-15.3,-121.5,-1.8,118.8,-142.8,18.6,0,1530,0,231,0,
0.8533,-61.5,13.2,61.5,-98.4,-32.7,-180.9,204.9,-296.7,-2815.8,306.3,-133.2,-28.8,279.6,169.5,-37.5,-303.9,-6.3,-4.8,-19.8,-125.7,-1.8,105.0,-126.0,11.1,0,1536,0,232,0,
0.8567,-59.4,12.3,63.3,-97.2,-27.9,-173.7,208.2,-294.9,-2741.7,303.0,-132.3,-22.5,278.1,182.4,-43.2,-301.2,-6.6,-4.2,-19.8,-121.5,-1.8,108.6,-118.8,12.9,0,1542,0,233,0,
0.8600,-65.1,0.9,45.3,-114.0,-48.0,-190.5,195.6,-306.0,-2889.9,290.7,-147.9,-42.0,278.7,192.6,22.2,-282.6,-6.3,-4.5,-33.3,-143.1,-1.5,78.0,-144.6,-6.9,0,1548,0,234,0,
0.8633,-62.4,10.5,63.6,-97.5,-32.1,-180.9,195.3,-293.7,-2815.8,308.7,-131.1,-23.4,282.0,181.2,-41.7,-318.6,-6.6,-4.5,-14.4,-127.2,-1.5,101.4,-141.9,7.8,0,1554,0,235,0,
0.8667,-62.7,20.7,75.0,-85.2,-18.3,-167.1,208.5,-283.8,-2741.7,327.3,-118.8,-10.5,286.2,170.1,-112.2,-318.6,-6.3,-4.5,-6.0,-114.0,-1.5,120.9,-114.9,23.4,0,1560,0,236,0,
0.8700,-60.9,21.9,76.2,-85.5,-23.4,-174.3,200.1,-289.2,-2815.8,331.8,-116.7,-9.6,294.3,181.5,-93.3,-335.4,-6.3,-4.5,-0.6,-118.5,-2.1,111.6,-140.1,12.0,0,1566,0,237,0,
0.8733,-63.0,20.1,68.4,-92.4,-30.6,-183.3,194.7,-292.2,-2889.9,325.8,-126.9,-19.2,289.2,175.8,-75.9,-329.1,-6.0,-4.5,-14.7,-130.2,-1.5,97.2,-155.4,-3.0,0,1572,0,238,0,
0.8767,-65.4,6.9,53.4,-106.8,-42.0,-195.9,190.2,-304.8,-2741.7,293.7,-144.0,-32.7,277.2,180.6,-28.8,-312.6,-6.6,-4.5,-27.9,-141.9,-2.1,84.3,-156.6,-13.5,0,1578,0,239,0,
0.8800,-64.8,4.5,54.6,-106.5,-39.9,-194.7,189.6,-301.5,-2741.7,298.8,-140.1,-29.1,276.6,179.7,-28.5,-321.3,-6.3,-4.5,-30.0,-136.5,-1.5,90.6,-147.6,-8.7,0,1584,0,240,0,
0.8833,-64.8,7.8,56.1,-100.8,-34.2,-187.8,196.2,-297.9,-2741.7,309.9,-135.6,-21.6,271.2,181.8,-50.4,-319.5,-6.3,-4.2,-22.2,-130.8,-2.1,111.9,-142.2,5.7,0,1590,0,241,0,
0.8867,-64.8,8.7,60.3,-96.0,-30.6,-181.2,199.8,-297.3,-2741.7,321.0,-132.9,-15.0,275.4,166.8,-69.0,-317.7,-5.7,-4.8,-19.5,-123.6,-1.8,114.0,-133.2,10.8,0,1596,0,242,0,
0.8900,-64.8,2.7,52.2,-101.7,-36.3,-184.2,202.2,-300.6,-2741.7,304.2,-140.1,-23.1,277.2,171.6,-42.3,-305.1,-6.0,-3.9,-25.5,-131.1,-2.1,102.6,-133.5,-1.8,0,1602,0,243,0,
0.8933,-63.9,2.4,54.9,-100.2,-35.7,-183.0,204.0,-297.3,-2815.8,306.9,-138.6,-23.1,279.9,174.9,-42.6,-292.8,-6.3,-4.2,-28.5,-132.6,-1.8,110.4,-140.1,-0.6,0,1608,0,244,0,
0.8967,-61.2,8.1,61.8,-92.1,-24.9,-175.5,205.2,-292.5,-2741.7,317.1,-125.4,-12.0,280.2,174.3,-71.4,-314.7,-6.3,-4.2,-14.4,-120.0,-1.8,119.4,-134.4,9.0,0,1614,0,245,0,
0.9000,-60.9,11.7,68.4,-83.1,-16.8,-165.9,208.8,-283.8,-2815.8,328.8,-121.5,-4.2,285.0,175.5,-77.1,-317.7,-6.3,-4.8,-13.2,-111.0,-1.8,134.4,-129.6,34.8,0,1620,0,246,0,
0.9033,-66.6,3.0,57.0,-96.6,-29.7,-178.2,208.8,-296.7,-2741.7,307.2,-136.8,-20.1,275.7,172.5,-56.4,-287.7,-6.3,-4.5,-24.0,-128.7,-1.8,114.9,-129.9,13.8,0,1626,0,247,0,
0.9067,-63.9,-2.1,47.4,-108.9,-41.1,-186.9,203.1,-304.8,-2815.8,294.6,-150.6,-32.4,265.5,177.3,-15.0,-288.9,-6.3,-4.5,-40.2,-138.6,-1.8,85.8,-141.6,4.5,0,1632,0,248,0,
0.9100,-59.1,12.3,61.8,-88.8,-21.0,-176.7,204.0,-288.3,-2815.8,311.4,-128.4,-12.0,274.8,181.2,-48.9,-314.4,-6.3,-4.2,-17.4,-121.8,-1.8,107.1,-145.2,17.1,0,1638,0,249,0,
0.9133,-58.2,15.6,70.5,-83.1,-15.9,-171.0,201.6,-285.0,-2815.8,328.8,-118.5,-3.9,286.8,164.1,-67.5,-312.9,-6.3,-4.5,-5.7,-111.3,-1.8,122.7,-143.7,20.7,0,1644,0,250,0,
0.9167,-60.0,8.4,60.6,-90.6,-21.9,-174.0,199.8,-291.3,-2741.7,315.3,-129.0,-14.7,277.5,170.1,-40.2,-289.5,-6.6,-4.5,-18.6,-118.2,-1.5,120.9,-141.6,9.3,0,1650,0,251,0,
0.9200,-57.3,14.4,67.2,-85.8,-13.5,-165.3,207.9,-284.1,-2889.9,313.2,-123.3,-8.7,283.8,182.4,-53.4,-306.6,-6.0,-4.5,-16.2,-111.0,-2.1,123.9,-137.7,11.1,0,1656,0,252,0,
0.9233,-55.8,9.3,54.0,-97.2,-29.7,-181.5,203.7,-293.7,-2815.8,295.2,-137.4,-21.3,273.0,192.3,-24.9,-304.5,-6.3,-4.2,-27.6,-128.7,-1.5,94.5,-150.3,-6.3,0,1662,0,253,0,
0.9267,-56.4,10.8,60.3,-93.6,-27.3,-180.3,202.5,-288.3,-2889.9,303.0,-131.4,-17.4,281.7,179.1,-53.7,-324.6,-6.3,-4.2,-23.7,-124.2,-1.8,109.8,-146.1,6.6,0,1668,0,254,0,
0.9300,-60.6,17.4,70.2,-80.4,-15.0,-169.2,204.3,-282.6,-2815.8,315.3,-117.3,-2.7,285.9,165.9,-100.2,-329.7,-6.3,-4.5,-8.7,-108.9,-1.8,126.0,-135.6,21.0,0,1674,0,255,0,
0.9333,-67.2,11.7,63.3,-92.7,-24.3,-177.0,197.1,-290.7,-2815.8,313.8,-126.0,-10.5,288.6,169.8,-64.2,-327.6,-6.3,-4.5,-21.0,-116.4,-1.8,112.5,-140.7,12.0,0,1680,0,0,0,
0.9367,-65.1,14.4,66.9,-89.1,-21.9,-171.0,201.9,-287.1,-2815.8,308.1,-127.2,-9.3,287.7,176.4,-53.1,-313.8,-6.3,-4.5,-23.7,-114.0,-1.5,108.0,-144.6,10.2,0,1686,0,1,0,
0.9400,-60.9,18.6,75.6,-81.0,-11.4,-162.9,205.5,-275.1,-2815.8,326.1,-115.5,0.6,283.2,170.4,-87.0,-333.6,-6.3,-4.5,-7.5,-108.9,-1.8,124.5,-133.5,20.7,0,1692,0,2,0,
0.9433,-63.3,18.0,76.5,-82.8,-12.6,-163.2,209.4,-276.3,-2889.9,328.8,-116.4,-2.4,268.5,174.0,-78.3,-312.9,-6.3,-4.2,-5.1,-108.9,-1.8,127.5,-138.0,29.1,0,1698,0,3,0,
0.9467,-66.0,11.4,64.5,-86.1,-14.7,-165.6,203.1,-280.2,-2889.9,323.4,-119.4,-0.9,284.4,168.9,-72.6,-307.2,-6.3,-4.2,-14.4,-110.4,-1.5,132.3,-140.1,27.0,0,1704,0,4,0,
0.9500,-61.2,13.8,63.6,-83.4,-12.6,-161.7,206.4,-278.4,-2815.8,318.0,-122.1,-3.9,286.8,178.2,-55.5,-307.5,-6.3,-4.2,-12.3,-106.2,-1.8,122.4,-132.6,28.2,0,1710,0,5,0,
0.9533,-63.9,12.9,66.3,-82.2,-15.6,-166.8,202.8,-280.8,-2741.7,312.9,-121.2,-1.2,278.4,176.7,-55.2,-315.6,-6.3,-4.5,-16.5,-110.4,-1.8,117.6,-141.3,17.7,0,1716,0,6,0,
0.9567,-63.0,4.8,56.4,-93.0,-24.3,-174.6,199.5,-287.4,-2964.0,297.0,-131.4,-12.6,270.0,183.0,-24.6,-310.2,-6.6,-4.5,-26.4,-121.2,-1.8,115.2,-141.0,14.4,0,1722,0,7,0,
0.9600,-63.3,9.9,55.5,-98.1,-27.0,-181.2,195.3,-290.1,-2889.9,302.1,-132.6,-13.5,279.9,195.3,-10.5,-315.3,-6.0,-4.2,-27.6,-124.8,-1.5,103.8,-156.0,1.5,0,1728,0,8,0,
0.9633,-59.4,21.6,69.0,-83.1,-15.6,-165.9,201.3,-277.5,-2815.8,324.0,-115.5,-1.8,284.1,180.0,-52.5,-317.1,-6.0,-4.5,-12.0,-110.4,-1.5,117.0,-145.5,20.7,0,1734,0,9,0,
0.9667,-62.1,20.4,69.3,-81.9,-10.5,-159.6,206.7,-274.5,-2667.6,321.6,-117.9,2.1,282.3,170.1,-75.3,-297.9,-6.3,-4.5,-14.1,-102.9,-1.8,118.2,-144.0,23.4,0,1740,0,10,0,
0.9700,-60.9,17.7,67.5,-83.7,-16.5,-165.0,207.3,-277.2,-2889.9,317.7,-121.2,-3.0,276.6,168.9,-46.8,-288.3,-6.3,-4.5,-17.1,-114.0,-1.8,116.4,-136.5,9.3,0,1746,0,11,0,
0.9733,-57.6,16.5,65.7,-86.4,-12.3,-164.1,207.9,-280.2,-2889.9,314.4,-117.0,4.2,271.8,181.8,-45.0,-298.8,-6.0,-4.5,-12.3,-106.5,-2.1,123.3,-135.9,20.4,0,1752,0,12,0,
0.9767,-54.6,21.3,72.9,-74.1,-6.6,-160.2,209.4,-276.0,-2815.8,325.2,-112.8,6.9,291.6,182.4,-68.7,-316.2,-6.0,-4.5,-8.7,-103.8,-1.5,135.6,-131.7,27.3,0,1758,0,13,0,
0.9800,-61.2,18.0,65.4,-85.2,-17.4,-169.5,206.4,-283.5,-2815.8,308.4,-123.0,-0.6,278.7,187.2,-43.2,-303.6,-6.3,-4.5,-13.8,-112.2,-1.8,115.8,-141.6,15.3,0,1764,0,14,0,
0.9833,-63.0,12.0,61.5,-88.8,-17.7,-170.4,203.1,-284.4,-2815.8,305.1,-124.2,-6.3,265.5,176.4,-39.3,-297.6,-6.0,-4.2,-19.8,-116.7,-1.8,116.1,-141.3,12.9,0,1770,0,15,0,
0.9867,-62.7,16.8,66.6,-86.1,-22.2,-166.5,207.0,-281.1,-2815.8,310.2,-129.3,-8.1,279.9,169.2,-45.9,-285.9,-6.6,-4.8,-22.5,-115.8,-1.8,109.2,-141.0,11.7,0,1776,0,16,0,
0.9900,-64.8,21.0,67.2,-81.6,-16.2,-166.5,210.3,-279.6,-2815.8,309.3,-121.5,-1.5,266.7,163.8,-58.2,-291.0,-6.3,-4.5,-12.6,-112.5,-1.5,106.8,-143.7,16.5,0,1782,0,17,0,
0.9933,-67.2,17.7,66.6,-82.2,-14.7,-168.0,206.4,-277.8,-2741.7,320.7,-118.8,2.7,273.3,168.9,-76.8,-321.6,-6.0,-4.5,-14.1,-108.3,-1.8,114.3,-147.0,24.0,0,1788,0,18,0,
0.9967,-67.5,16.8,67.2,-84.3,-16.2,-168.9,206.1,-280.2,-2815.8,317.7,-123.9,-4.5,282.0,166.8,-69.3,-314.1,-6.0,-4.5,-18.3,-115.8,-1.8,113.4,-144.6,15.3,0,1794,0,19,0,
1.0000,-65.4,15.9,68.7,-83.4,-15.6,-164.7,204.9,-279.6,-2815.8,321.3,-124.5,1.5,285.6,177.9,-62.7,-312.9,-6.3,-4.5,-18.9,-110.7,-1.8,109.2,-143.7,19.2,0,1800,0,20,0,
1.0033,-60.9,16.8,67.2,-84.3,-17.4,-169.5,202.5,-283.8,-2741.7,309.3,-123.3,0.0,285.9,190.5,-41.4,-304.2,-6.3,-4.5,-17.4,-111.3,-1.8,110.4,-152.4,6.6,0,1806,0,21,0,
1.0067,-59.1,15.0,63.6,-92.1,-21.0,-171.9,201.3,-287.7,-3038.1,308.1,-131.4,-8.1,268.2,192.9,-9.0,-299.7,-6.3,-4.2,-23.7,-116.4,-1.8,101.4,-158.7,0.6,0,1812,0,22,0,
1.0100,-65.4,16.2,72.3,-79.8,-8.4,-157.8,207.0,-283.5,-2815.8,314.1,-114.0,8.7,279.9,174.6,-56.1,-310.2,-6.3,-4.5,-12.0,-102.0,-1.8,128.7,-148.5,22.2,0,1818,0,23,0,
1.0133,-69.9,13.8,69.3,-84.6,-9.6,-162.6,206.4,-284.7,-2815.8,327.6,-113.7,6.9,288.6,162.3,-56.7,-293.4,-6.6,-4.5,-13.2,-102.6,-1.5,118.8,-138.3,25.2,0,1824,0,24,0,
1.0167,-67.8,9.6,60.3,-93.6,-20.1,-173.1,201.0,-293.1,-2815.8,311.1,-124.5,-4.2,275.7,182.4,-45.6,-303.9,-6.3,-4.5,-18.3,-112.5,-1.5,109.2,-140.7,24.6,0,1830,0,25,0,
1.0200,-63.9,11.7,60.9,-89.1,-15.0,-161.4,208.5,-284.7,-2741.7,311.1,-123.0,0.0,288.0,180.0,-62.1,-292.5,-6.0,-4.8,-18.9,-106.2,-1.8,123.3,-135.6,27.3,0,1836,0,26,0,
1.0233,-64.8,12.6,67.5,-82.8,-10.8,-155.4,210.0,-285.0,-2889.9,308.7,-119.1,5.4,286.5,168.3,-59.4,-292.2,-6.3,-4.5,-10.2,-101.7,-1.8,127.8,-130.2,34.8,0,1842,0,27,0,
1.0267,-62.7,21.6,77.1,-72.3,-0.9,-158.4,215.1,-280.2,-2964.0,324.6,-107.7,15.6,281.4,176.1,-59.4,-303.3,-6.3,-4.5,-0.9,-94.8,-1.8,129.0,-137.4,35.7,0,1848,0,28,0,
1.0300,-65.1,16.2,68.4,-73.5,-2.7,-152.4,213.9,-276.3,-2741.7,321.6,-110.4,12.6,275.1,168.6,-65.4,-294.9,-6.0,-4.5,-8.4,-97.8,-2.1,132.0,-127.5,29.7,0,1854,0,29,0,
1.0333,-62.1,23.1,74.1,-70.2,-3.0,-154.8,210.9,-276.3,-2964.0,318.9,-110.4,12.9,285.3,169.8,-79.8,-301.5,-6.6,-4.2,-3.3,-98.1,-1.8,124.5,-132.3,33.6,0,1860,0,30,0,
1.0367,-57.0,23.4,71.7,-76.8,-6.6,-156.9,208.5,-277.8,-2889.9,320.1,-111.3,10.5,294.6,189.3,-47.7,-298.8,-6.3,-4.5,-8.1,-99.6,-1.8,136.2,-130.8,36.3,0,1866,0,31,0,
1.0400,-55.5,23.1,72.6,-70.8,0.6,-146.7,211.2,-275.1,-2964.0,312.0,-110.7,15.0,290.1,187.2,-50.4,-305.1,-5.7,-4.5,-6.6,-92.4,-1.8,136.8,-135.0,49.8,0,1872,0,32,0,
1.0433,-53.4,29.1,77.1,-68.7,0.3,-144.6,210.3,-272.7,-2815.8,312.6,-111.6,12.9,292.2,191.7,-58.5,-318.6,-6.3,-4.5,-5.4,-97.8,-1.5,140.7,-138.3,34.5,0,1878,0,33,0,
1.0467,-58.8,26.7,77.1,-71.7,-4.2,-146.7,210.3,-277.2,-2964.0,316.2,-113.7,9.3,280.2,172.5,-60.3,-306.3,-6.3,-4.2,-4.5,-101.4,-1.5,129.0,-130.5,23.4,0,1884,0,34,0,
1.0500,-60.6,30.0,78.9,-72.0,-2.4,-152.4,213.3,-275.7,-2889.9,316.2,-109.8,15.3,280.2,160.2,-82.8,-304.5,-6.0,-4.5,-2.1,-97.5,-1.8,132.6,-120.0,34.2,0,1890,0,35,0,
1.0533,-61.5,26.1,80.7,-73.2,0.9,-150.3,214.8,-277.2,-2815.8,322.2,-107.4,18.0,279.0,165.3,-72.6,-307.2,-6.0,-4.5,-1.2,-96.9,-1.5,136.5,-124.5,42.3,0,1896,0,36,0,
1.0567,-58.5,22.2,73.5,-76.2,-3.0,-156.0,210.9,-279.3,-2964.0,328.8,-112.8,11.4,290.7,175.2,-58.5,-299.4,-6.6,-4.8,-3.6,-101.1,-1.8,127.8,-129.9,37.5,0,1902,0,37,0,
1.0600,-63.0,15.9,64.2,-84.6,-7.8,-161.1,212.7,-281.1,-2889.9,304.5,-125.4,6.0,285.9,177.0,-49.5,-282.6,-6.0,-4.8,-17.1,-104.1,-1.5,119.4,-119.4,30.0,0,1908,0,38,0,
1.0633,-63.3,17.7,71.7,-84.9,-12.0,-165.9,203.1,-283.8,-2964.0,313.5,-120.6,3.6,287.7,184.2,-57.6,-319.2,-6.0,-4.2,-8.4,-109.2,-2.1,117.0,-140.7,22.2,0,1914,0,39,0,
1.0667,-65.7,13.5,66.0,-87.6,-13.2,-166.5,204.9,-288.9,-2889.9,312.9,-123.6,2.1,280.5,188.4,-48.9,-306.6,-6.3,-4.5,-15.0,-106.2,-1.8,118.5,-141.9,23.1,0,1920,0,40,0,
1.0700,-64.8,16.8,69.0,-86.7,-13.8,-168.3,203.1,-288.6,-3038.1,320.4,-121.2,0.3,282.3,179.1,-45.0,-312.3,-6.3,-4.2,-10.2,-111.9,-1.8,111.3,-140.7,17.7,0,1926,0,41,0,
1.0733,-70.5,7.5,61.8,-96.3,-23.7,-174.0,199.2,-294.6,-2964.0,298.2,-131.4,-9.3,261.9,171.6,-32.7,-297.0,-6.3,-4.5,-22.2,-118.5,-1.8,89.1,-140.7,6.0,0,1932,0,42,0,
1.0767,-68.7,3.9,56.1,-96.0,-26.4,-180.6,196.8,-296.1,-2964.0,293.4,-134.7,-8.1,285.6,184.8,-27.6,-296.7,-6.3,-4.2,-26.4,-120.9,-1.8,96.0,-147.9,3.3,0,1938,0,43,0,
1.0800,-68.1,12.0,61.5,-87.6,-17.1,-168.6,209.7,-287.4,-2889.9,306.0,-125.7,2.1,293.7,168.9,-83.4,-306.0,-6.0,-4.5,-18.9,-108.9,-1.8,119.4,-141.3,21.6,0,1944,0,44,0,
1.0833,-68.1,12.9,63.3,-87.3,-15.3,-168.0,206.7,-287.7,-2964.0,310.5,-123.6,0.0,270.6,167.4,-77.4,-297.9,-6.0,-4.2,-18.9,-108.3,-1.8,122.7,-135.9,20.1,0,1950,0,45,0,
1.0867,-67.8,13.2,64.2,-88.8,-17.1,-166.2,206.1,-286.8,-2964.0,308.1,-125.1,0.3,283.8,162.6,-69.0,-303.3,-6.3,-4.5,-16.8,-108.6,-2.1,114.9,-138.3,24.0,0,1956,0,46,0,
1.0900,-66.6,9.9,62.4,-91.5,-20.4,-175.8,205.2,-292.5,-3038.1,317.4,-127.8,-4.8,284.4,169.5,-54.3,-288.0,-6.3,-4.8,-18.9,-114.9,-1.5,106.2,-135.6,13.8,0,1962,0,47,0,
1.0933,-68.4,9.3,63.9,-90.9,-21.3,-175.5,205.5,-288.3,-2964.0,320.4,-129.0,-4.5,289.5,178.8,-50.1,-302.7,-6.6,-4.5,-17.4,-110.7,-1.5,111.3,-132.0,15.0,0,1968,0,48,0,
1.0967,-68.7,12.9,63.9,-90.9,-20.4,-175.8,200.7,-290.1,-3038.1,316.5,-129.0,-6.3,288.9,187.5,-29.7,-293.1,-6.0,-4.5,-24.0,-115.2,-1.8,99.9,-149.7,11.7,0,1974,0,49,0,
1.1000,-66.6,9.0,62.4,-97.8,-23.4,-177.9,203.7,-290.4,-2964.0,312.6,-135.6,-10.8,281.1,185.7,-15.9,-288.0,-6.6,-4.5,-25.2,-118.8,-1.5,98.1,-146.1,8.7,0,1980,0,50,0,
1.1033,-68.4,6.9,60.3,-96.6,-25.8,-180.3,197.1,-294.0,-3112.2,318.3,-138.9,-19.2,285.0,187.8,-8.1,-291.3,-6.0,-4.2,-30.3,-124.8,-2.1,95.4,-153.3,0.0,0,1986,0,51,0,
1.1067,-64.8,14.7,66.0,-87.3,-16.8,-167.7,207.9,-287.7,-2964.0,337.5,-126.6,-3.3,294.0,184.5,-59.1,-294.3,-6.6,-4.5,-17.1,-110.7,-1.8,105.9,-141.0,11.7,0,1992,0,52,0,
1.1100,-72.9,14.7,66.9,-91.5,-16.2,-170.4,209.4,-289.8,-3038.1,325.8,-129.9,-6.9,295.5,180.0,-69.6,-285.0,-6.3,-4.8,-17.4,-111.9,-2.1,115.5,-135.3,15.6,0,1998,0,53,0,
1.1133,-67.5,4.5,53.7,-98.1,-21.0,-170.4,206.4,-291.9,-3038.1,299.1,-138.0,-12.6,287.4,182.4,-18.0,-277.8,-6.3,-4.5,-31.2,-118.5,-1.5,105.3,-139.5,12.3,0,2004,0,54,0,
1.1167,-67.5,11.4,63.6,-83.4,-8.7,-160.5,211.8,-281.7,-2964.0,302.4,-128.1,1.5,281.1,184.5,-45.9,-288.6,-6.3,-4.5,-20.7,-105.6,-1.8,125.7,-140.4,35.7,0,2010,0,55,0,
1.1200,-65.1,8.7,62.4,-85.8,-8.1,-157.8,220.5,-280.8,-2964.0,297.6,-128.7,3.3,278.7,164.4,-70.2,-258.3,-6.6,-4.5,-27.9,-102.6,-1.8,120.0,-101.1,26.7,0,2016,0,56,0,
1.1233,-63.9,18.0,75.9,-75.3,1.5,-150.6,212.1,-275.4,-3038.1,314.1,-119.4,12.0,288.6,174.0,-71.4,-321.3,-6.0,-4.8,-11.4,-94.2,-1.8,135.6,-123.0,38.7,0,2022,0,57,0,
1.1267,-68.7,7.5,66.6,-86.1,-5.1,-151.8,215.4,-284.4,-3038.1,302.4,-124.8,5.1,290.7,167.4,-66.6,-315.3,-6.6,-4.5,-20.1,-102.3,-1.5,112.8,-129.6,15.6,0,2028,0,58,0,
1.1300,-60.6,16.8,78.9,-72.9,3.3,-149.7,216.0,-272.4,-3038.1,317.4,-112.5,15.9,291.6,156.9,-98.1,-324.6,-6.0,-4.8,-9.6,-90.9,-1.5,134.7,-122.4,31.8,0,2034,0,59,0,
1.1333,-60.9,14.1,71.4,-82.5,-3.0,-158.1,214.8,-279.0,-2889.9,314.1,-124.2,3.9,274.2,176.1,-80.4,-306.9,-6.3,-4.5,-19.8,-102.9,-1.8,128.1,-117.9,27.0,0,2040,0,60,0,
1.1367,-61.2,13.5,66.3,-82.5,-8.1,-157.2,209.4,-277.2,-2964.0,307.5,-127.2,2.7,288.6,182.7,-68.4,-311.7,-6.0,-4.5,-23.4,-105.3,-1.8,117.9,-124.2,28.2,0,2046,0,61,0,
1.1400,-63.9,12.0,60.0,-86.1,-11.1,-159.0,210.6,-280.8,-3186.3,290.7,-130.2,1.8,295.8,163.5,-50.1,-294.3,-6.0,-4.5,-29.1,-108.3,-2.1,114.0,-126.0,25.5,0,2052,0,62,0,
1.1433,-60.0,16.8,69.9,-78.0,1.2,-155.1,208.2,-273.6,-3038.1,311.1,-120.3,11.4,295.5,174.0,-65.4,-311.4,-6.0,-4.5,-13.5,-99.6,-1.5,125.7,-124.5,29.1,0,2058,0,63,0,
1.1467,-63.6,17.1,72.0,-79.2,0.9,-153.9,205.5,-276.3,-3038.1,303.6,-120.3,8.1,289.2,167.7,-74.1,-323.7,-6.0,-4.2,-18.3,-100.8,-2.1,123.9,-134.4,31.8,0,2064,0,64,0,
1.1500,-59.4,25.8,78.9,-73.8,4.2,-150.9,207.9,-270.9,-2964.0,314.1,-114.9,12.0,298.8,175.2,-78.3,-310.8,-6.0,-4.5,-11.7,-96.3,-1.8,126.0,-129.6,32.7,0,2070,0,65,0,
1.1533,-61.5,14.4,63.6,-84.6,-4.8,-161.1,203.7,-274.5,-3038.1,304.2,-127.5,1.5,284.1,169.2,-68.7,-308.4,-6.3,-4.5,-26.7,-105.0,-2.1,113.4,-137.1,26.4,0,2076,0,66,0,
1.1567,-60.0,21.0,76.8,-80.1,-2.1,-156.0,198.3,-273.6,-2964.0,317.7,-117.9,9.9,295.5,170.4,-82.8,-328.2,-6.3,-4.5,-12.6,-99.6,-1.5,118.2,-147.6,25.5,0,2082,0,67,0,
1.1600,-62.1,15.9,61.5,-92.7,-12.6,-165.9,198.0,-282.9,-2889.9,306.6,-131.1,-5.4,283.8,168.0,-60.3,-304.5,-6.0,-4.5,-29.7,-110.1,-1.8,104.1,-152.7,21.3,0,2088,0,68,0,
1.1633,-62.4,19.8,63.3,-92.7,-16.2,-171.9,192.9,-280.8,-2964.0,300.3,-132.9,-7.2,283.2,174.3,-40.5,-315.3,-6.3,-4.5,-21.6,-114.9,-1.8,84.9,-158.7,6.3,0,2094,0,69,0,
1.1667,-68.7,12.6,57.9,-100.5,-19.5,-174.9,195.9,-286.5,-2964.0,291.0,-138.3,-9.9,273.3,174.3,-45.3,-308.4,-6.0,-4.2,-30.9,-116.7,-1.8,89.4,-145.5,5.1,0,2100,0,70,0,
1.1700,-66.3,15.0,65.1,-91.5,-18.0,-168.6,195.9,-285.0,-2964.0,304.8,-133.8,-5.4,294.9,164.1,-88.5,-332.7,-6.0,-4.5,-23.7,-113.7,-1.8,104.7,-149.1,14.1,0,2106,0,71,0,
1.1733,-66.6,10.5,59.1,-96.0,-23.4,-176.7,190.5,-289.8,-2889.9,306.6,-140.1,-9.9,288.0,174.0,-65.4,-327.9,-6.0,-4.5,-30.9,-117.0,-1.5,102.6,-167.7,-2.4,0,2112,0,72,0,
1.1767,-66.6,5.1,52.8,-100.2,-30.0,-181.8,192.0,-294.9,-3038.1,299.7,-140.7,-11.1,286.8,180.0,-44.1,-303.9,-6.3,-4.8,-29.1,-121.2,-1.8,97.8,-160.2,2.4,0,2118,0,73,0,
1.1800,-73.5,-0.9,48.0,-110.1,-39.9,-192.6,190.5,-303.3,-2889.9,291.0,-152.7,-22.5,280.8,182.1,-34.8,-284.7,-6.0,-4.5,-40.5,-130.5,-1.8,90.6,-155.1,-8.4,0,2124,0,74,0,
1.1833,-66.3,21.6,69.6,-88.5,-16.2,-169.8,198.3,-283.2,-2964.0,329.4,-122.7,3.3,311.7,181.5,-75.6,-331.8,-6.3,-4.5,-11.1,-105.9,-1.8,111.0,-155.7,12.9,0,2130,0,75,0,
1.1867,-66.6,9.0,55.8,-104.4,-30.6,-184.8,191.7,-296.4,-3038.1,311.4,-138.0,-10.2,285.0,183.6,-39.0,-300.6,-6.3,-4.2,-26.4,-123.0,-1.8,103.2,-149.4,-2.7,0,2136,0,76,0,
1.1900,-67.2,12.9,53.1,-105.0,-35.1,-186.6,193.5,-300.0,-2964.0,309.3,-141.6,-18.6,271.5,191.7,-25.8,-304.8,-6.3,-4.5,-29.4,-127.5,-1.8,104.4,-148.5,6.9,0,2142,0,77,0,
1.1933,-67.2,18.6,69.0,-93.3,-18.6,-177.0,201.0,-291.0,-3038.1,335.7,-125.4,0.3,302.4,174.3,-77.4,-316.5,-6.6,-4.8,-12.9,-108.6,-2.4,119.7,-142.8,15.6,0,2148,0,78,0,
1.1967,-71.1,9.6,63.9,-99.0,-22.2,-176.4,204.0,-292.2,-3038.1,316.2,-130.2,-3.9,297.3,175.8,-98.7,-315.9,-6.3,-4.8,-19.8,-113.1,-1.8,105.0,-129.6,17.4,0,2154,0,79,0,
1.2000,-72.6,0.6,49.5,-105.6,-36.6,-183.9,197.4,-303.6,-2964.0,303.3,-144.0,-17.1,282.0,178.5,-53.7,-287.4,-6.0,-4.8,-35.4,-128.4,-1.8,104.1,-136.5,-2.1,0,2160,0,80,0,
1.2033,-67.8,-3.6,41.7,-114.9,-39.3,-185.4,197.1,-306.0,-2964.0,298.8,-150.0,-21.9,281.7,196.8,-4.2,-285.0,-6.3,-4.5,-40.5,-134.4,-1.5,98.7,-151.8,2.7,0,2166,0,81,0,
1.2067,-69.0,7.2,58.8,-102.9,-29.7,-176.1,197.1,-296.1,-3038.1,303.9,-137.4,-12.9,292.2,186.3,-26.4,-301.5,-6.3,-4.8,-26.4,-123.9,-1.5,108.3,-151.2,5.4,0,2172,0,82,0,
1.2100,-60.9,22.2,74.7,-83.1,-8.4,-160.2,209.1,-282.6,-2964.0,334.8,-114.9,8.4,300.3,173.1,-97.8,-312.6,-6.0,-4.5,-3.6,-103.2,-1.5,128.7,-127.5,24.3,0,2178,0,83,0,
1.2133,-62.7,18.6,72.6,-85.5,-9.6,-159.9,208.5,-281.7,-3038.1,328.2,-120.9,3.6,292.8,164.7,-94.2,-306.0,-6.0,-4.8,-8.7,-105.3,-1.8,126.0,-128.7,30.6,0,2184,0,84,0,
1.2167,-66.0,14.1,62.4,-93.9,-9.6,-159.3,210.9,-285.0,-2889.9,318.0,-127.2,-1.2,287.7,168.6,-79.2,-291.9,-6.3,-4.5,-17.1,-112.2,-1.5,120.6,-120.6,30.3,0,2190,0,85,0,
1.2200,-67.5,11.1,58.8,-97.8,-18.9,-166.8,201.9,-292.8,-3038.1,298.2,-136.5,-14.4,286.8,171.9,-49.5,-297.6,-6.3,-4.2,-27.3,-120.3,-1.8,108.3,-137.4,14.7,0,2196,0,86,0,
1.2233,-68.4,6.3,50.4,-104.4,-22.8,-169.8,202.2,-297.3,-2964.0,284.1,-142.5,-24.3,277.8,178.2,-24.3,-286.5,-6.0,-4.5,-32.1,-123.0,-1.8,98.4,-142.8,15.9,0,2202,0,87,0,
1.2267,-63.0,19.8,70.8,-91.2,-12.3,-159.3,204.0,-286.5,-3038.1,308.1,-126.9,-8.7,297.6,180.6,-60.6,-310.8,-6.3,-4.5,-14.7,-109.8,-1.8,121.2,-137.7,12.0,0,2208,0,88,0,
1.2300,-67.8,18.0,65.1,-92.7,-14.4,-162.0,203.7,-286.8,-2964.0,306.9,-129.6,-11.1,292.8,176.4,-57.6,-298.2,-6.3,-4.5,-20.7,-110.4,-2.1,132.9,-133.8,23.4,0,2214,0,89,0,
1.2333,-63.9,9.3,62.7,-95.1,-15.0,-163.5,206.7,-290.1,-2964.0,295.5,-135.9,-16.2,290.4,177.0,-34.2,-280.8,-6.0,-4.2,-24.6,-116.4,-1.5,127.2,-126.0,29.4,0,2220,0,90,0,
1.2367,-61.8,18.9,68.1,-88.5,-10.5,-159.3,210.6,-283.2,-2964.0,309.9,-127.8,-6.3,295.2,177.3,-67.5,-296.1,-6.3,-4.2,-17.1,-108.9,-2.1,114.0,-122.4,27.6,0,2226,0,91,0,
1.2400,-65.1,18.6,71.1,-85.8,-6.0,-154.2,213.0,-281.7,-3038.1,321.6,-125.4,3.0,296.1,166.2,-96.6,-311.4,-6.0,-4.2,-10.5,-101.7,-1.5,117.9,-126.0,26.1,0,2232,0,92,0,
1.2433,-59.7,23.4,78.0,-81.3,-1.2,-153.3,208.8,-279.9,-2889.9,325.8,-118.8,3.0,303.9,181.8,-82.2,-327.9,-6.3,-4.5,-8.1,-99.6,-2.1,136.8,-135.0,28.5,0,2238,0,93,0,
1.2467,-61.5,24.0,75.3,-84.3,-7.2,-149.7,209.1,-283.5,-2889.9,321.0,-123.3,-2.7,307.2,173.7,-58.2,-323.4,-6.0,-4.2,-9.3,-106.2,-1.5,139.5,-137.1,34.2,0,2244,0,94,0,
1.2500,-59.7,28.2,75.6,-84.3,-5.7,-150.9,213.0,-278.7,-2889.9,323.4,-122.7,-0.6,302.4,186.0,-74.1,-319.2,-6.0,-4.5,-11.4,-102.3,-2.1,136.8,-121.2,35.7,0,2250,0,95,0,
1.2533,-64.5,24.3,72.6,-85.5,-8.4,-153.3,210.6,-282.6,-2964.0,320.1,-125.7,0.3,275.1,172.5,-73.2,-308.1,-6.0,-4.5,-12.9,-103.8,-1.5,122.1,-124.5,27.9,0,2256,0,96,0,
1.2567,-64.2,17.4,62.1,-91.2,-16.8,-163.8,204.3,-288.9,-2964.0,322.2,-130.2,-7.5,286.8,185.4,-70.5,-318.0,-6.0,-4.5,-21.9,-111.6,-1.8,109.2,-141.6,20.4,0,2262,0,97,0,
1.2600,-63.9,11.4,58.5,-102.6,-23.4,-172.8,200.7,-296.4,-3112.2,309.3,-137.7,-15.3,297.0,182.1,-48.9,-293.7,-6.3,-4.5,-27.6,-119.7,-1.8,99.9,-151.8,9.6,0,2268,0,98,0,
1.2633,-64.5,14.7,58.2,-98.4,-19.8,-169.5,205.5,-296.7,-2889.9,299.7,-139.8,-14.7,289.2,183.0,-36.0,-288.9,-6.3,-4.5,-27.6,-119.1,-1.8,104.4,-148.2,11.7,0,2274,0,99,0,
1.2667,-69.6,3.3,41.4,-112.5,-36.0,-178.2,199.2,-304.8,-3038.1,288.9,-155.7,-27.6,274.2,188.7,2.1,-282.0,-6.0,-4.5,-47.7,-130.5,-1.8,101.4,-141.3,2.4,0,2280,0,100,0,
1.2700,-72.3,2.1,42.0,-107.7,-31.5,-175.5,201.9,-302.1,-2964.0,297.9,-145.2,-23.4,279.6,178.8,-22.2,-288.0,-6.0,-4.5,-36.3,-126.0,-1.8,97.2,-129.3,13.8,0,2286,0,101,0,
1.2733,-68.1,14.4,60.6,-95.4,-17.7,-163.5,207.3,-291.3,-3038.1,318.6,-135.9,-8.7,293.1,173.1,-69.0,-303.9,-6.0,-4.5,-27.6,-112.2,-1.8,114.9,-134.4,25.2,0,2292,0,102,0,
1.2767,-65.1,22.5,75.6,-82.2,-6.9,-155.4,208.8,-283.8,-2889.9,330.0,-119.1,4.2,306.3,179.4,-96.6,-309.0,-6.3,-4.5,-9.9,-101.1,-1.5,128.1,-129.6,29.1,0,2298,0,103,0,
1.2800,-68.4,15.6,67.8,-92.4,-16.2,-162.6,206.7,-291.6,-2964.0,323.7,-131.4,-2.7,301.5,178.8,-64.8,-300.9,-6.3,-4.2,-20.7,-108.6,-1.8,119.4,-123.6,24.0,0,2304,0,104,0,
1.2833,-69.0,14.1,65.4,-93.9,-18.6,-167.4,202.5,-291.0,-2964.0,317.1,-133.2,-10.2,291.0,178.2,-59.4,-308.4,-6.6,-4.2,-24.6,-116.1,-2.1,109.8,-133.8,20.4,0,2310,0,105,0,
1.2867,-67.5,12.0,59.7,-94.5,-21.6,-166.5,201.9,-291.0,-2815.8,313.5,-138.6,-10.5,289.2,186.6,-43.2,-303.6,-6.3,-4.5,-27.9,-117.0,-1.5,107.7,-139.8,16.8,0,2316,0,106,0,
1.2900,-69.9,11.1,60.6,-98.7,-25.8,-167.4,202.5,-291.6,-3038.1,306.3,-141.9,-13.5,290.4,179.4,-42.0,-285.3,-6.0,-4.5,-30.9,-118.5,-1.8,108.6,-132.0,10.5,0,2322,0,107,0,
1.2933,-69.0,8.1,55.5,-103.2,-25.8,-172.2,203.1,-294.0,-3112.2,301.8,-144.0,-17.7,282.3,177.0,-47.7,-292.5,-6.3,-4.5,-32.7,-123.9,-2.1,97.2,-140.4,15.0,0,2328,0,108,0,
1.2967,-64.5,7.5,56.4,-101.7,-28.8,-173.7,200.4,-297.9,-2889.9,300.0,-142.2,-15.9,277.8,192.9,-24.9,-297.0,-6.6,-4.5,-32.1,-122.7,-1.8,97.2,-140.7,11.7,0,2334,0,109,0,
1.3000,-66.0,6.6,52.8,-105.9,-29.1,-178.8,199.8,-303.0,-2889.9,297.0,-148.2,-19.5,276.0,187.5,-33.0,-290.1,-6.0,-4.5,-40.2,-126.3,-1.8,99.6,-138.0,13.8,0,2340,0,110,0,
1.3033,-68.7,9.6,57.0,-98.4,-27.0,-172.8,202.8,-296.1,-3038.1,304.8,-144.0,-21.3,277.5,181.8,-66.3,-300.0,-6.3,-4.5,-29.7,-126.6,-1.5,101.4,-136.5,15.9,0,2346,0,111,0,
1.3067,-67.5,15.9,63.3,-89.7,-17.4,-163.2,206.4,-288.6,-3038.1,325.5,-131.7,-5.4,300.0,164.1,-92.7,-312.0,-6.0,-4.2,-12.9,-112.2,-1.5,120.6,-131.7,16.8,0,2352,0,112,0,
1.3100,-66.6,10.2,61.2,-91.8,-20.1,-163.8,198.3,-293.7,-3112.2,311.4,-133.2,-7.5,291.9,170.4,-84.6,-316.2,-6.3,-4.5,-18.6,-114.9,-1.8,111.6,-145.8,15.3,0,2358,0,113,0,
1.3133,-65.4,14.1,58.8,-91.8,-19.5,-166.5,201.9,-291.0,-2889.9,306.0,-133.8,-9.3,286.8,175.5,-75.0,-315.9,-6.0,-4.2,-21.6,-116.7,-1.8,109.8,-147.6,15.0,0,2364,0,114,0,
1.3167,-68.4,4.2,45.6,-102.9,-32.7,-177.3,197.1,-301.8,-2889.9,292.5,-148.2,-23.1,266.1,179.4,-45.6,-309.0,-6.3,-4.5,-34.2,-127.8,-1.8,100.8,-160.2,5.7,0,2370,0,115,0,
1.3200,-66.3,1.8,43.8,-105.9,-36.3,-181.8,200.7,-301.2,-2964.0,285.0,-153.9,-23.4,264.0,178.5,-34.8,-293.7,-6.3,-4.2,-39.3,-133.8,-1.8,87.6,-143.1,0.0,0,2376,0,116,0,
1.3233,-67.8,4.8,53.4,-99.9,-29.1,-175.8,200.7,-301.2,-3038.1,286.2,-143.4,-16.8,258.9,158.7,-55.5,-306.9,-6.0,-4.8,-29.4,-125.7,-2.1,93.9,-148.8,-2.1,0,2382,0,117,0,
1.3267,-66.0,3.9,53.7,-102.0,-30.9,-174.3,196.5,-297.6,-3038.1,285.6,-146.4,-21.6,259.2,158.1,-44.1,-314.4,-6.3,-4.5,-32.7,-133.2,-1.8,92.4,-158.7,1.2,0,2388,0,118,0,
1.3300,-64.2,14.4,69.9,-84.6,-14.1,-158.4,209.7,-283.2,-2889.9,301.8,-129.9,-0.9,288.3,173.7,-86.7,-319.8,-6.3,-4.8,-18.3,-110.7,-1.8,114.6,-138.3,26.1,0,2394,0,119,0,
1.3333,-63.0,18.6,75.9,-80.4,-8.4,-155.7,213.9,-276.9,-2889.9,306.9,-123.9,6.9,285.3,153.3,-111.6,-326.7,-5.7,-4.2,-10.8,-103.5,-1.5,119.1,-132.6,26.4,0,2400,0,120,0,
1.3367,-65.1,9.0,61.5,-89.1,-22.2,-167.4,202.8,-285.3,-2815.8,300.9,-135.3,-7.5,280.8,160.8,-86.7,-320.4,-6.3,-4.8,-24.6,-116.7,-1.8,114.0,-147.9,21.3,0,2406,0,121,0,
1.3400,-69.3,5.7,51.0,-107.1,-32.4,-174.3,197.7,-291.6,-3112.2,286.2,-149.4,-15.3,269.7,162.3,-63.9,-297.6,-6.3,-4.2,-34.5,-126.3,-1.8,87.3,-139.8,8.4,0,2412,0,122,0,
1.3433,-66.3,6.0,50.4,-103.5,-31.2,-173.7,198.0,-295.2,-2964.0,294.0,-143.1,-14.1,273.9,170.4,-68.1,-318.6,-6.0,-4.5,-31.2,-126.6,-1.5,96.9,-150.6,11.4,0,2418,0,123,0,
1.3467,-59.7,13.5,61.8,-93.0,-22.8,-165.3,200.7,-291.0,-2889.9,310.2,-133.2,-2.1,282.6,172.8,-78.0,-331.8,-6.3,-4.5,-15.6,-116.7,-1.8,124.2,-149.4,18.3,0,2424,0,124,0,
1.3500,-65.7,-0.3,42.6,-108.3,-34.8,-179.4,197.4,-305.1,-2889.9,303.0,-151.8,-20.1,274.8,169.2,-51.9,-300.9,-6.0,-4.2,-37.8,-129.3,-1.8,102.0,-144.6,12.0,0,2430,0,125,0,
1.3533,-61.2,-2.4,36.9,-116.1,-43.5,-184.8,194.1,-307.2,-2889.9,290.1,-157.8,-27.6,276.0,183.6,-22.5,-302.7,-6.3,-4.2,-42.3,-140.1,-1.8,82.2,-148.2,3.9,0,2436,0,126,0,
1.3567,-62.1,1.8,43.2,-114.0,-42.6,-180.6,198.3,-306.3,-2815.8,303.6,-153.0,-24.0,275.1,174.3,-41.1,-318.0,-6.0,-4.2,-33.9,-137.4,-1.8,89.7,-154.2,2.1,0,2442,0,127,0,
1.3600,-60.9,-2.4,36.9,-115.2,-40.8,-177.9,201.0,-305.1,-2964.0,294.9,-157.5,-23.7,267.9,183.6,-53.7,-303.3,-6.6,-4.5,-40.8,-136.8,-1.8,98.4,-147.3,-0.9,0,2448,0,128,0,
1.3633,-60.9,1.8,42.0,-112.5,-37.8,-177.6,201.6,-302.4,-2889.9,303.6,-151.8,-20.7,281.4,182.7,-66.6,-330.9,-6.3,-4.2,-32.1,-132.3,-1.8,101.4,-156.3,6.9,0,2454,0,129,0,
1.3667,-62.7,-3.9,35.1,-117.3,-42.3,-177.9,200.4,-309.6,-2889.9,312.0,-154.8,-23.7,282.3,190.2,-43.8,-320.7,-6.3,-4.2,-38.1,-136.5,-1.8,99.0,-161.4,3.9,0,2460,0,130,0,
1.3700,-65.1,1.5,38.7,-117.3,-40.5,-173.4,203.4,-305.1,-2889.9,314.1,-154.2,-21.0,284.1,189.0,-52.2,-311.1,-6.3,-4.5,-30.6,-133.2,-1.2,103.5,-157.8,6.6,0,2466,0,131,0,
1.3733,-69.3,1.8,38.7,-116.1,-39.9,-169.8,203.1,-304.8,-2964.0,298.8,-155.7,-24.3,271.2,177.0,-57.9,-312.9,-6.3,-4.5,-36.6,-135.9,-2.1,103.8,-142.5,8.7,0,2472,0,132,0,
1.3767,-60.0,11.7,52.8,-99.0,-21.6,-162.9,210.3,-293.1,-2889.9,312.9,-140.7,-9.6,263.4,167.4,-95.1,-336.6,-6.3,-4.8,-18.9,-117.9,-1.8,106.2,-131.4,15.0,0,2478,0,133,0,
1.3800,-69.9,-7.8,30.3,-116.7,-40.2,-173.7,204.6,-308.4,-2964.0,301.2,-162.0,-25.8,264.6,170.4,-46.5,-313.8,-6.0,-4.2,-46.8,-138.9,-1.8,97.8,-135.3,12.6,0,2484,0,134,0,
1.3833,-64.5,-2.7,38.1,-114.9,-40.2,-180.0,201.9,-306.0,-2889.9,297.6,-156.3,-27.0,283.5,179.1,-40.8,-306.3,-6.0,-4.8,-40.2,-138.6,-1.8,93.6,-147.3,10.5,0,2490,0,135,0,
1.3867,-66.3,3.9,44.7,-105.3,-31.2,-167.7,201.9,-298.8,-2964.0,310.8,-148.2,-13.8,282.0,168.3,-73.5,-317.7,-6.0,-4.2,-30.9,-124.2,-1.8,120.0,-146.7,26.7,0,2496,0,136,0,
1.3900,-70.2,-1.8,39.9,-111.3,-36.9,-171.3,201.9,-300.3,-3038.1,308.4,-152.4,-18.9,269.7,161.4,-81.0,-300.6,-6.3,-4.5,-34.2,-127.5,-2.1,111.0,-138.9,15.3,0,2502,0,137,0,
1.3933,-66.3,0.3,42.6,-115.2,-38.7,-174.3,203.1,-298.2,-2964.0,301.2,-156.9,-21.3,265.8,165.0,-55.5,-300.6,-6.0,-4.5,-39.6,-132.9,-1.8,96.0,-133.8,18.0,0,2508,0,138,0,
1.3967,-65.7,-2.7,37.2,-114.9,-39.3,-178.5,201.9,-303.9,-2964.0,298.5,-156.3,-23.4,262.2,168.6,-54.6,-309.9,-6.0,-4.5,-44.1,-133.2,-1.5,98.4,-138.3,7.5,0,2514,0,139,0,
1.4000,-69.0,-6.0,31.5,-120.0,-45.0,-186.0,197.4,-312.3,-2815.8,288.9,-163.2,-31.2,263.1,181.5,-37.2,-292.8,-6.0,-3.9,-49.8,-142.5,-2.1,99.3,-147.9,6.9,0,2520,0,140,0,
1.4033,-60.6,2.4,33.0,-115.8,-40.5,-182.4,196.8,-301.8,-2889.9,296.7,-159.6,-23.7,273.9,187.5,-38.1,-310.2,-6.3,-4.5,-42.9,-135.9,-2.1,102.3,-154.5,8.1,0,2526,0,141,0,
1.4067,-60.3,0.0,37.5,-120.3,-45.0,-188.7,193.5,-304.5,-3112.2,299.4,-162.0,-31.2,280.2,184.8,-46.5,-315.3,-6.3,-4.5,-45.3,-143.1,-1.8,95.7,-157.2,0.9,0,2532,0,142,0,
1.4100,-63.9,5.1,36.3,-111.6,-37.5,-178.8,197.1,-300.0,-2889.9,307.2,-153.9,-24.9,281.1,171.6,-67.2,-317.1,-6.0,-4.5,-38.4,-138.0,-1.8,99.6,-151.8,-5.7,0,2538,0,143,0,
1.4133,-63.6,8.7,49.5,-103.8,-27.9,-173.1,200.7,-289.5,-2889.9,308.1,-146.7,-17.7,283.5,165.9,-84.9,-321.9,-6.0,-4.2,-32.4,-131.4,-2.1,111.3,-143.7,16.2,0,2544,0,144,0,
1.4167,-65.4,3.0,37.5,-115.2,-39.3,-182.7,197.7,-294.9,-2964.0,294.0,-159.3,-28.8,274.2,161.7,-45.0,-311.7,-6.0,-4.5,-44.4,-142.2,-1.8,93.9,-149.1,4.5,0,2550,0,145,0,
1.4200,-65.4,1.8,40.5,-110.4,-35.7,-180.9,201.3,-296.1,-3038.1,291.6,-156.6,-23.1,263.4,162.0,-74.7,-307.5,-6.3,-4.5,-46.2,-136.5,-1.8,90.0,-139.8,6.6,0,2556,0,146,0,
1.4233,-64.8,5.4,45.0,-105.9,-29.1,-180.0,203.4,-293.7,-2964.0,305.4,-151.2,-21.9,280.2,167.1,-71.7,-309.6,-6.0,-4.8,-36.6,-133.5,-1.8,97.2,-133.8,11.7,0,2562,0,147,0,
1.4267,-61.2,6.0,48.9,-98.4,-20.1,-169.2,207.3,-289.5,-2964.0,307.8,-144.0,-12.6,278.4,170.7,-84.6,-331.8,-6.6,-4.2,-33.6,-119.4,-1.8,111.3,-139.2,27.6,0,2568,0,148,0,
1.4300,-59.1,4.2,43.5,-104.4,-28.5,-174.3,205.5,-294.0,-2964.0,294.3,-149.1,-13.2,273.0,175.2,-65.1,-318.6,-6.3,-4.8,-38.1,-126.6,-1.5,99.3,-143.4,7.8,0,2574,0,149,0,
1.4333,-60.3,1.8,40.2,-105.9,-28.8,-176.7,198.3,-295.8,-3038.1,297.3,-149.4,-16.2,279.0,187.5,-63.9,-323.7,-6.3,-4.5,-41.4,-128.4,-1.8,96.9,-151.8,11.7,0,2580,0,150,0,
1.4367,-63.6,3.9,43.8,-106.8,-29.7,-177.0,200.1,-297.6,-2964.0,292.8,-153.6,-17.7,281.1,175.2,-58.2,-323.1,-6.3,-4.2,-42.0,-127.5,-1.8,104.4,-148.5,8.7,0,2586,0,151,0,
1.4400,-59.1,1.8,40.2,-111.0,-40.2,-188.4,196.5,-299.7,-3038.1,282.6,-157.2,-26.1,270.6,195.0,-28.2,-309.9,-6.3,-4.5,-45.9,-140.1,-1.8,86.7,-144.6,-7.5,0,2592,0,152,0,
1.4433,-60.9,7.5,50.7,-106.5,-35.4,-185.1,198.6,-300.0,-2964.0,294.3,-152.1,-20.4,277.8,186.9,-60.6,-327.0,-6.0,-4.5,-40.8,-133.8,-1.8,86.7,-148.5,5.4,0,2598,0,153,0,
1.4467,-60.3,17.1,62.4,-88.8,-12.6,-162.6,209.1,-283.2,-2889.9,319.2,-127.5,0.0,281.1,163.8,-111.3,-323.7,-6.3,-4.5,-18.0,-110.7,-1.8,121.8,-128.1,26.7,0,2604,0,154,0,
1.4500,-58.5,12.0,52.5,-99.3,-24.6,-168.9,203.7,-289.5,-2964.0,304.8,-144.9,-13.5,280.2,173.1,-63.0,-306.3,-6.6,-4.8,-34.2,-123.0,-2.1,100.5,-143.7,14.7,0,2610,0,155,0,
1.4533,-62.4,5.4,46.2,-107.7,-36.9,-181.5,200.7,-293.1,-3038.1,287.4,-152.4,-24.0,270.6,170.7,-28.2,-284.4,-6.3,-4.5,-43.2,-136.2,-2.1,84.9,-134.1,-0.3,0,2616,0,156,0,
1.4567,-63.0,7.5,49.8,-101.7,-33.0,-176.4,202.2,-288.6,-3038.1,292.2,-147.9,-18.9,274.2,165.3,-42.6,-296.4,-6.0,-4.5,-37.8,-129.0,-1.2,97.2,-133.2,8.1,0,2622,0,157,0,
1.4600,-54.6,19.5,59.7,-91.5,-23.7,-169.8,203.4,-278.7,-3038.1,307.2,-136.8,-15.0,281.7,183.6,-75.9,-332.1,-6.3,-4.8,-24.3,-123.6,-1.8,122.1,-139.2,17.4,0,2628,0,158,0,
1.4633,-57.9,18.6,57.3,-98.4,-27.0,-169.8,200.7,-283.2,-2964.0,303.9,-141.6,-20.4,287.1,180.3,-78.3,-335.1,-6.0,-4.8,-27.0,-123.0,-1.5,108.6,-147.6,12.3,0,2634,0,159,0,
1.4667,-60.9,18.9,57.0,-99.6,-35.1,-177.6,198.6,-287.1,-3038.1,299.4,-143.4,-23.4,291.3,180.0,-60.9,-303.0,-6.0,-4.5,-31.8,-132.0,-1.8,87.6,-144.9,-0.9,0,2640,0,160,0,
1.4700,-60.3,11.1,46.8,-102.0,-33.0,-175.8,200.4,-288.3,-2889.9,295.8,-147.3,-24.9,265.5,183.3,-48.3,-311.4,-6.0,-4.5,-38.4,-133.8,-2.1,94.5,-146.7,1.5,0,2646,0,161,0,
1.4733,-54.3,10.8,51.0,-102.3,-30.3,-175.5,196.8,-287.4,-2964.0,291.9,-149.7,-24.6,267.9,191.4,-40.8,-317.4,-6.0,-4.2,-37.5,-130.2,-1.8,94.2,-163.8,0.6,0,2652,0,162,0,
1.4767,-59.1,14.7,60.3,-92.1,-22.8,-168.3,200.4,-281.7,-3038.1,312.3,-135.9,-8.1,284.4,184.8,-67.5,-343.2,-6.0,-4.2,-24.9,-117.6,-1.5,121.2,-153.3,-1.8,0,2658,0,163,0,
1.4800,-57.6,13.2,56.7,-93.6,-29.4,-173.1,198.3,-284.7,-2964.0,302.4,-141.3,-12.9,284.4,185.1,-49.8,-328.2,-6.0,-4.5,-29.4,-123.9,-2.1,99.3,-150.0,1.5,0,2664,0,164,0,
1.4833,-64.2,12.9,52.2,-95.7,-31.2,-178.2,201.3,-282.3,-3038.1,291.6,-148.5,-18.9,279.6,181.8,-63.3,-314.4,-6.0,-4.8,-33.3,-128.7,-1.5,93.0,-144.0,6.3,0,2670,0,165,0,
1.4867,-62.7,6.9,49.2,-99.3,-36.9,-180.9,196.2,-287.7,-3038.1,282.3,-153.6,-22.5,273.3,183.6,-51.6,-307.2,-6.0,-4.2,-39.9,-135.0,-1.8,84.0,-147.0,-2.7,0,2676,0,166,0,
1.4900,-65.7,10.8,54.0,-97.5,-34.5,-182.1,196.8,-286.8,-3038.1,299.1,-151.2,-22.5,277.8,187.5,-56.4,-312.0,-6.0,-4.5,-34.2,-134.1,-1.5,85.8,-141.3,-3.9,0,2682,0,167,0,
1.4933,-56.7,17.1,58.2,-91.2,-29.1,-182.7,198.3,-280.5,-3038.1,310.2,-139.2,-13.2,287.7,185.4,-51.0,-322.8,-6.0,-4.5,-24.3,-126.9,-1.8,105.3,-145.5,2.7,0,2688,0,168,0,
1.4967,-60.6,16.2,56.1,-96.6,-32.7,-185.1,191.1,-286.2,-3112.2,305.4,-145.2,-20.1,269.4,188.7,-36.0,-332.4,-6.3,-4.5,-25.8,-134.1,-1.5,103.8,-151.8,2.1,0,2694,0,169,0,
1.5000,-63.0,5.7,44.1,-105.3,-41.4,-194.4,192.0,-291.9,-2964.0,288.9,-157.2,-31.2,270.9,189.6,-10.5,-313.8,-6.3,-4.5,-38.7,-146.1,-1.8,80.4,-160.5,-12.6,0,2700,0,170,0,
1.5033,-61.2,15.6,61.8,-90.6,-19.8,-174.3,203.7,-278.4,-3038.1,314.7,-134.1,-7.8,294.6,167.1,-84.3,-321.0,-6.3,-4.2,-18.6,-123.3,-1.5,101.7,-135.9,12.0,0,2706,0,171,0,
1.5067,-61.5,11.7,54.9,-91.2,-25.2,-176.4,201.6,-282.6,-3038.1,304.5,-138.9,-12.0,288.0,176.1,-65.7,-327.3,-6.0,-4.5,-25.2,-125.7,-2.1,86.4,-148.2,1.2,0,2712,0,172,0,
1.5100,-57.9,11.4,52.5,-97.8,-30.9,-179.4,200.1,-284.4,-3038.1,309.3,-144.9,-16.8,280.5,192.6,-57.0,-332.4,-6.3,-4.8,-31.8,-131.7,-1.5,91.2,-145.8,0.6,0,2718,0,173,0,
1.5133,-63.9,12.6,55.2,-96.0,-30.3,-179.7,202.8,-282.3,-2964.0,300.0,-142.2,-17.1,285.9,178.8,-71.4,-327.9,-6.3,-4.2,-29.4,-131.4,-1.8,101.4,-137.4,2.7,0,2724,0,174,0,
1.5167,-67.2,-4.2,37.5,-114.9,-48.0,-190.5,201.3,-294.9,-3038.1,284.7,-160.8,-36.9,262.2,181.8,-23.7,-293.7,-6.0,-4.8,-46.2,-150.3,-1.8,76.5,-145.5,-5.4,0,2730,0,175,0,
1.5200,-62.1,3.9,40.8,-108.6,-46.2,-189.9,201.9,-291.6,-3038.1,291.6,-160.2,-35.1,280.8,174.9,-32.4,-298.5,-6.3,-4.5,-43.2,-147.6,-2.1,78.6,-148.8,-8.4,0,2736,0,176,0,
1.5233,-60.9,8.1,56.4,-95.1,-30.0,-177.9,202.5,-283.5,-3112.2,307.5,-139.2,-16.2,289.2,185.1,-73.8,-342.9,-6.3,-4.5,-25.8,-130.2,-1.8,98.1,-162.0,-10.2,0,2742,0,177,0,
1.5267,-62.4,-1.2,40.2,-109.2,-46.8,-187.5,201.0,-290.4,-3112.2,288.6,-162.9,-40.2,276.3,188.7,-57.6,-323.7,-6.3,-4.5,-47.7,-150.9,-1.8,78.0,-158.1,-11.7,0,2748,0,178,0,
1.5300,-61.2,-3.6,39.9,-111.3,-45.6,-188.1,202.8,-290.1,-3038.1,283.8,-166.5,-39.0,267.6,169.2,-61.8,-320.1,-6.3,-4.2,-53.1,-150.6,-1.5,76.8,-153.6,-13.2,0,2754,0,179,0,
1.5333,-56.1,12.3,54.6,-91.2,-25.8,-176.4,202.8,-282.6,-2889.9,306.3,-142.8,-13.2,289.8,177.0,-93.6,-343.2,-6.0,-4.8,-29.4,-126.6,-1.8,104.4,-149.1,13.5,0,2760,0,180,0,
1.5367,-54.9,22.2,68.4,-79.2,-14.7,-169.8,209.7,-273.9,-3038.1,319.2,-124.5,5.7,291.3,171.9,-105.6,-331.8,-6.3,-4.5,-16.5,-111.6,-2.1,109.8,-136.8,13.5,0,2766,0,181,0,
1.5400,-62.4,10.5,51.9,-95.1,-31.2,-181.5,204.0,-287.7,-3038.1,298.8,-140.1,-12.3,266.7,169.5,-59.4,-319.8,-6.3,-3.9,-31.2,-129.0,-1.8,89.1,-144.9,4.5,0,2772,0,182,0,
1.5433,-64.2,0.0,42.0,-104.1,-36.3,-183.3,203.4,-291.6,-3038.1,279.9,-153.6,-23.4,266.7,173.7,-44.4,-319.8,-6.6,-4.5,-42.9,-139.2,-1.8,79.2,-150.9,-2.1,0,2778,0,183,0,
1.5467,-58.5,9.9,50.7,-95.1,-28.8,-174.9,209.4,-284.1,-3038.1,297.6,-143.4,-15.3,286.5,179.1,-81.0,-336.6,-6.3,-4.5,-27.9,-130.5,-2.1,95.4,-146.7,6.9,0,2784,0,184,0,
1.5500,-54.6,15.9,63.0,-86.4,-21.3,-164.4,211.5,-275.4,-2889.9,316.2,-129.6,-3.6,287.7,176.4,-106.2,-353.7,-6.3,-4.5,-19.8,-119.1,-1.8,111.0,-149.7,13.5,0,2790,0,185,0,
1.5533,-62.4,10.2,54.6,-96.0,-28.2,-174.9,208.5,-285.9,-2964.0,310.5,-143.4,-17.7,283.2,174.0,-79.5,-336.0,-6.3,-4.5,-27.3,-131.7,-1.8,98.4,-158.7,9.0,0,2796,0,186,0,
1.5567,-62.4,6.6,45.3,-106.5,-36.6,-178.8,204.9,-292.8,-2964.0,302.7,-149.1,-20.1,279.6,184.5,-47.7,-319.8,-6.0,-4.5,-34.8,-137.7,-1.8,87.6,-155.7,4.8,0,2802,0,187,0,
1.5600,-62.7,7.5,49.2,-95.7,-28.8,-173.4,206.4,-285.3,-3038.1,307.5,-140.4,-9.3,282.6,183.6,-67.8,-336.6,-6.0,-4.5,-28.8,-126.9,-2.1,102.9,-150.9,10.2,0,2808,0,188,0,
1.5633,-59.1,12.9,53.4,-97.2,-27.0,-168.0,211.5,-286.5,-2889.9,306.9,-135.9,-6.9,293.4,178.5,-67.8,-327.3,-6.3,-4.2,-21.3,-122.1,-1.5,107.1,-153.3,14.1,0,2814,0,189,0,
1.5667,-66.0,3.9,45.9,-104.1,-35.7,-177.6,207.6,-289.5,-3038.1,293.1,-144.9,-17.1,277.8,167.7,-42.3,-306.6,-6.3,-4.2,-32.1,-135.0,-1.8,96.6,-152.1,7.2,0,2820,0,190,0,
1.5700,-65.7,3.9,47.4,-101.1,-33.6,-177.3,211.8,-288.3,-2964.0,297.0,-143.7,-14.7,267.3,169.5,-50.4,-298.5,-6.3,-4.8,-28.5,-132.0,-1.5,99.3,-135.3,12.6,0,2826,0,191,0,
1.5733,-62.1,12.6,57.0,-91.8,-26.1,-169.5,208.5,-283.5,-3112.2,308.1,-133.2,-3.9,289.8,182.1,-60.3,-322.2,-6.3,-4.2,-18.3,-119.4,-2.1,111.9,-138.3,9.9,0,2832,0,192,0,
1.5767,-60.3,11.1,55.5,-95.1,-26.4,-171.3,206.4,-285.6,-3038.1,308.1,-133.8,-2.4,297.3,171.0,-45.6,-320.4,-6.0,-4.8,-19.2,-118.8,-1.5,111.3,-138.3,9.9,0,2838,0,193,0,
1.5800,-58.5,11.7,51.3,-103.2,-36.6,-180.0,200.4,-289.5,-2964.0,302.7,-141.9,-13.2,296.1,200.1,-23.1,-315.0,-6.3,-4.5,-26.7,-129.9,-1.8,107.1,-149.7,-3.6,0,2844,0,194,0,
1.5833,-61.2,10.5,51.3,-101.4,-32.4,-174.3,205.5,-291.0,-2964.0,303.0,-141.3,-12.0,279.0,193.5,-52.5,-311.1,-6.3,-4.5,-30.0,-126.9,-1.8,107.7,-142.8,9.0,0,2850,0,195,0,
1.5867,-62.1,10.5,58.8,-97.2,-27.6,-173.7,207.3,-282.9,-2964.0,314.7,-131.4,-6.0,289.8,176.1,-60.0,-328.5,-6.3,-3.9,-23.7,-121.2,-2.1,111.6,-141.6,13.2,0,2856,0,196,0,
1.5900,-60.0,12.0,56.4,-94.5,-30.6,-181.2,207.0,-287.7,-3038.1,318.0,-133.8,-6.6,296.4,182.7,-63.9,-323.4,-6.3,-4.8,-23.4,-122.1,-1.5,104.4,-144.0,7.8,0,2862,0,197,0,
1.5933,-58.5,17.4,59.7,-95.7,-29.1,-176.7,205.8,-285.3,-2964.0,315.0,-132.3,-3.0,294.3,184.2,-51.9,-333.9,-6.0,-4.2,-20.1,-118.2,-1.8,108.6,-150.0,14.7,0,2868,0,198,0,
1.5967,-58.2,12.3,51.9,-106.5,-35.7,-181.8,203.7,-293.7,-3112.2,301.5,-141.6,-16.2,280.8,188.1,-15.3,-299.7,-5.7,-4.5,-27.9,-132.3,-1.5,90.3,-157.2,0.6,0,2874,0,199,0,
1.6000,-56.7,14.1,57.9,-100.5,-33.6,-177.9,204.6,-290.1,-3038.1,309.0,-139.8,-17.1,275.7,189.3,-38.7,-315.6,-6.0,-4.5,-25.2,-130.8,-1.8,95.7,-151.2,7.8,0,2880,0,200,0,
1.6033,-60.0,3.6,47.1,-107.1,-35.4,-175.5,205.8,-291.6,-3038.1,304.2,-146.4,-17.4,279.9,181.8,-56.4,-304.2,-6.0,-4.2,-37.8,-131.1,-1.8,105.0,-142.2,10.8,0,2886,0,201,0,
1.6067,-54.6,7.8,47.1,-108.6,-37.2,-177.0,204.0,-292.8,-3112.2,307.2,-144.0,-20.7,294.6,194.7,-40.5,-294.6,-6.0,-4.2,-36.3,-132.6,-1.5,98.4,-132.6,6.9,0,2892,0,202,0,
1.6100,-59.7,7.2,52.5,-96.3,-29.1,-166.8,209.7,-282.3,-3038.1,312.9,-137.4,-8.1,288.6,165.3,-53.7,-312.0,-6.6,-4.5,-26.7,-124.2,-1.8,115.2,-143.7,12.3,0,2898,0,203,0,
1.6133,-63.3,1.2,37.8,-112.5,-43.2,-177.9,201.3,-295.5,-2964.0,294.6,-158.1,-25.8,258.9,174.0,-14.7,-313.2,-6.3,-5.1,-44.4,-139.8,-1.8,90.0,-153.0,-7.8,0,2904,0,204,0,
1.6167,-62.7,1.2,36.3,-111.6,-42.9,-180.9,205.8,-294.9,-3038.1,288.9,-159.3,-22.8,269.1,177.9,-14.1,-318.0,-6.3,-4.2,-44.4,-138.6,-2.1,87.0,-147.6,-4.8,0,2910,0,205,0,
1.6200,-61.2,8.4,49.8,-99.3,-30.0,-174.9,210.3,-285.3,-2964.0,305.4,-144.0,-11.7,283.8,173.7,-83.1,-315.3,-6.0,-4.5,-29.7,-125.4,-1.5,93.6,-140.1,4.2,0,2916,0,206,0,
1.6233,-61.5,4.8,43.5,-104.1,-34.8,-174.3,216.6,-285.9,-3112.2,306.3,-150.6,-17.1,278.1,168.9,-74.7,-310.5,-6.3,-4.5,-36.3,-130.2,-2.1,95.4,-136.5,8.4,0,2922,0,207,0,
1.6267,-64.5,7.5,48.0,-98.1,-33.0,-171.0,211.5,-283.5,-3038.1,309.3,-140.1,-8.4,285.0,163.8,-84.0,-334.2,-5.7,-4.8,-28.5,-123.0,-1.8,106.5,-140.7,0.9,0,2928,0,208,0,
1.6300,-69.9,0.9,35.7,-109.5,-47.1,-183.6,207.0,-294.6,-2889.9,290.1,-156.6,-24.3,274.8,167.4,-46.5,-295.5,-6.3,-4.5,-44.1,-138.9,-2.1,81.6,-141.0,-5.1,0,2934,0,209,0,
1.6333,-55.5,21.3,59.1,-91.2,-29.1,-169.5,209.1,-278.1,-2889.9,312.0,-137.4,-6.9,291.6,181.5,-65.7,-339.9,-6.0,-4.5,-23.7,-123.0,-1.5,105.3,-159.3,6.9,0,2940,0,210,0,
1.6367,-59.7,10.8,49.5,-99.9,-33.3,-174.0,205.8,-289.5,-2889.9,291.9,-140.7,-6.0,277.5,181.2,-31.8,-331.5,-6.3,-4.5,-32.4,-122.4,-1.8,103.8,-153.0,5.4,0,2946,0,211,0,
1.6400,-58.5,19.5,64.2,-88.8,-20.1,-164.1,210.9,-277.2,-3112.2,314.1,-127.5,3.3,291.3,170.4,-70.5,-343.8,-6.3,-4.5,-18.6,-111.6,-1.2,111.9,-150.3,16.8,0,2952,0,212,0,
1.6433,-60.9,13.5,60.3,-90.6,-22.5,-165.3,215.1,-278.7,-2964.0,312.3,-129.3,-0.9,286.5,171.0,-72.0,-328.8,-6.0,-4.2,-19.2,-116.1,-1.5,108.6,-147.3,19.2,0,2958,0,213,0,
1.6467,-62.7,18.9,60.9,-86.4,-16.2,-160.2,209.7,-278.7,-2964.0,311.4,-124.2,9.0,285.6,173.4,-92.7,-333.6,-6.3,-4.5,-15.3,-108.9,-1.8,107.7,-137.4,22.2,0,2964,0,214,0,
1.6500,-58.8,15.6,58.2,-86.1,-21.0,-156.6,218.1,-281.7,-2889.9,303.0,-127.5,3.0,285.0,176.7,-86.7,-318.0,-6.0,-4.5,-21.0,-113.4,-1.8,106.2,-132.3,18.3,0,2970,0,215,0,
1.6533,-63.3,4.5,46.5,-98.4,-27.0,-164.4,213.9,-285.6,-2964.0,291.3,-143.1,-7.8,272.7,164.1,-71.4,-304.2,-6.3,-4.2,-36.3,-120.6,-2.1,94.2,-137.1,12.6,0,2976,0,216,0,
1.6567,-62.4,7.8,48.9,-98.7,-25.8,-166.8,210.9,-280.8,-2964.0,289.8,-138.9,-6.9,270.6,162.9,-87.9,-316.8,-6.3,-4.5,-31.8,-123.6,-1.8,109.5,-146.1,9.0,0,2982,0,217,0,
1.6600,-57.3,6.0,47.1,-102.0,-26.4,-177.3,202.8,-289.2,-3038.1,287.4,-137.7,-6.3,262.2,168.6,-64.2,-319.8,-6.6,-4.5,-31.8,-126.3,-2.1,103.2,-153.3,9.6,0,2988,0,218,0,
1.6633,-62.4,0.3,37.2,-114.0,-42.3,-183.6,201.9,-300.0,-2964.0,286.2,-149.4,-24.0,268.5,182.4,-35.7,-307.5,-6.3,-4.2,-40.2,-141.3,-1.8,87.3,-147.3,1.5,0,2994,0,219,0,
1.6667,-62.7,-4.2,34.2,-116.4,-42.6,-184.5,202.5,-301.8,-2964.0,281.7,-157.5,-24.3,266.4,182.7,-43.5,-311.7,-6.3,-4.5,-46.2,-141.3,-2.1,87.6,-142.5,-3.9,0,3000,0,220,0,
1.6700,-60.6,1.2,42.9,-109.2,-32.7,-177.0,206.4,-296.4,-2964.0,300.6,-146.7,-8.7,272.1,177.3,-48.3,-296.7,-6.0,-4.5,-36.0,-127.8,-1.5,89.7,-145.2,6.9,0,3006,0,221,0,
1.6733,-59.1,6.0,51.0,-100.2,-29.7,-171.3,209.4,-291.6,-2964.0,306.9,-139.2,-2.1,268.5,171.0,-78.0,-303.0,-6.0,-4.5,-30.6,-122.1,-2.1,101.7,-135.3,22.2,0,3012,0,222,0,
1.6767,-58.8,11.7,53.4,-94.8,-24.6,-172.5,210.6,-287.7,-2964.0,309.3,-132.0,-1.2,279.6,177.9,-73.5,-317.4,-6.3,-4.5,-23.7,-119.4,-1.8,116.4,-129.3,17.1,0,3018,0,223,0,
1.6800,-61.2,6.3,43.8,-101.7,-30.6,-173.1,207.3,-289.2,-3038.1,298.5,-141.3,-7.2,269.1,180.0,-46.5,-315.0,-6.0,-4.5,-36.6,-124.5,-1.5,105.0,-131.7,8.4,0,3024,0,224,0,
1.6833,-63.3,2.7,36.9,-107.4,-36.3,-174.9,207.0,-293.1,-2889.9,292.2,-148.2,-15.0,267.3,175.8,-22.2,-291.0,-6.0,-4.2,-44.1,-133.5,-1.5,94.2,-132.9,0.9,0,3030,0,225,0,
1.6867,-66.9,-1.5,36.0,-107.7,-39.3,-179.7,207.6,-295.5,-2889.9,292.8,-148.2,-13.8,269.1,174.9,-36.0,-287.4,-6.0,-4.8,-39.9,-133.8,-1.8,92.4,-133.5,0.6,0,3036,0,226,0,
1.6900,-65.1,9.3,45.3,-100.5,-32.7,-174.9,203.7,-293.1,-3038.1,297.0,-145.5,-7.8,274.8,179.4,-52.5,-318.0,-6.0,-5.1,-36.6,-126.3,-1.8,111.3,-134.4,11.1,0,3042,0,227,0,
1.6933,-61.8,12.9,53.4,-89.4,-15.9,-161.4,207.9,-282.3,-3038.1,310.8,-130.2,5.1,274.2,172.2,-87.6,-332.1,-6.3,-4.5,-25.8,-107.7,-1.8,124.8,-135.3,19.2,0,3048,0,228,0,
1.6967,-60.6,10.5,48.9,-95.7,-22.8,-166.5,207.9,-287.1,-2964.0,302.1,-136.2,-1.5,271.8,172.5,-60.3,-329.7,-6.6,-4.5,-32.7,-118.2,-1.5,117.9,-142.2,18.3,0,3054,0,229,0,
1.7000,-67.2,0.0,38.7,-102.6,-35.4,-178.8,206.4,-293.1,-2964.0,294.9,-148.5,-12.0,268.5,169.8,-54.9,-317.1,-6.0,-4.8,-43.5,-128.1,-1.5,83.1,-135.3,0.9,0,3060,0,230,0,
1.7033,-63.6,1.8,37.2,-106.2,-38.1,-184.2,202.8,-291.0,-3038.1,297.6,-147.9,-14.7,273.0,167.4,-45.6,-310.8,-6.0,-4.5,-44.1,-134.4,-1.5,90.6,-134.7,1.5,0,3066,0,231,0,
1.7067,-61.5,7.2,42.6,-104.7,-34.2,-181.8,200.4,-289.5,-2964.0,296.1,-143.7,-9.6,268.5,181.8,-45.6,-316.2,-6.3,-4.5,-35.4,-130.5,-2.1,93.3,-136.2,6.9,0,3072,0,232,0,
1.7100,-68.4,-4.2,31.8,-113.1,-44.4,-187.2,197.4,-299.1,-3038.1,283.5,-164.1,-21.3,267.6,177.6,-24.3,-287.1,-6.0,-4.2,-50.4,-143.1,-2.1,84.6,-135.6,-6.9,0,3078,0,233,0,
1.7133,-67.2,-4.2,28.2,-118.5,-49.8,-192.9,198.6,-299.4,-3038.1,277.8,-171.0,-28.5,265.5,186.3,-9.3,-288.6,-5.7,-4.2,-53.1,-150.3,-1.8,80.7,-136.2,-5.7,0,3084,0,234,0,
1.7167,-59.7,13.2,50.7,-98.7,-33.0,-179.1,210.3,-284.4,-2964.0,309.3,-146.1,-5.1,276.9,176.4,-74.4,-328.5,-6.0,-4.5,-29.1,-128.4,-1.5,97.5,-140.4,1.2,0,3090,0,235,0,
1.7200,-66.3,11.4,50.1,-95.7,-28.2,-170.4,209.1,-281.7,-2889.9,312.6,-140.7,0.3,280.8,166.5,-90.6,-338.1,-6.6,-4.8,-28.2,-124.8,-1.2,96.6,-144.9,7.5,0,3096,0,236,0,
1.7233,-64.2,13.2,53.4,-94.2,-25.5,-169.5,208.2,-282.6,-3038.1,310.2,-135.6,1.2,277.5,168.9,-90.3,-336.9,-6.3,-4.2,-22.2,-119.7,-1.5,117.0,-140.7,14.1,0,3102,0,237,0,
1.7267,-66.0,8.4,49.8,-105.6,-30.3,-174.6,207.9,-285.6,-3038.1,309.9,-144.0,-7.8,282.3,165.3,-73.2,-327.3,-6.3,-5.1,-32.4,-128.1,-1.8,104.1,-129.0,4.8,0,3108,0,238,0,
1.7300,-64.2,3.9,44.1,-110.7,-34.8,-178.2,208.5,-288.3,-2964.0,305.4,-146.7,-12.9,280.2,181.5,-44.1,-312.0,-6.0,-4.5,-36.9,-135.0,-1.5,92.4,-139.2,3.0,0,3114,0,239,0,
1.7333,-63.9,0.6,35.7,-117.9,-45.9,-184.8,204.6,-291.9,-2964.0,286.8,-161.7,-24.9,264.6,183.9,-23.1,-311.7,-6.3,-4.5,-46.8,-148.8,-2.1,73.5,-152.4,-8.7,0,3120,0,240,0,
1.7367,-66.6,-2.4,36.3,-118.5,-46.2,-180.0,214.2,-289.8,-3112.2,278.4,-159.9,-24.3,252.6,174.0,-39.0,-270.0,-6.3,-4.2,-51.0,-145.2,-1.8,77.1,-136.8,-8.1,0,3126,0,241,0,
1.7400,-59.4,11.4,50.4,-100.5,-28.8,-175.2,209.1,-278.4,-3112.2,305.1,-141.0,-6.9,278.1,172.8,-82.2,-344.4,-6.0,-4.5,-30.9,-129.0,-1.8,101.1,-139.8,4.2,0,3132,0,242,0,
1.7433,-55.2,19.5,53.7,-102.9,-30.9,-177.0,206.1,-279.0,-3038.1,306.9,-139.8,-7.5,290.4,188.4,-71.1,-359.7,-6.3,-4.5,-29.4,-129.6,-1.8,98.4,-156.6,4.8,0,3138,0,243,0,
1.7467,-57.9,0.6,38.7,-114.6,-38.1,-183.0,203.4,-287.4,-2964.0,294.9,-151.8,-15.0,277.5,183.3,-47.1,-331.5,-6.0,-4.8,-39.6,-139.2,-1.8,89.7,-168.3,0.0,0,3144,0,244,0,
1.7500,-55.8,5.4,45.9,-108.0,-35.4,-180.3,206.4,-285.6,-2964.0,295.5,-148.5,-11.7,278.7,186.9,-56.7,-338.4,-6.3,-4.5,-37.2,-132.3,-2.1,84.6,-160.2,-3.3,0,3150,0,245,0,
1.7533,-61.5,3.6,43.2,-114.9,-38.1,-180.6,206.7,-286.5,-3038.1,293.7,-151.2,-17.7,270.6,170.4,-71.4,-329.7,-6.3,-4.5,-43.2,-142.2,-1.8,84.3,-156.9,-12.3,0,3156,0,246,0,
1.7567,-61.8,7.2,46.2,-111.9,-37.5,-179.1,209.1,-288.0,-3038.1,307.5,-148.5,-16.8,267.3,176.1,-65.7,-325.8,-6.3,-4.2,-40.8,-138.9,-1.5,87.0,-151.5,0.9,0,3162,0,247,0,
1.7600,-61.5,13.5,51.6,-103.8,-30.9,-173.4,211.5,-278.4,-2964.0,312.3,-140.7,-7.8,280.5,162.3,-84.6,-319.2,-6.0,-4.8,-29.7,-130.2,-1.8,93.6,-141.6,11.4,0,3168,0,248,0,
1.7633,-59.1,7.2,40.8,-111.6,-36.6,-175.8,211.5,-283.2,-2964.0,297.6,-150.0,-14.7,275.4,175.8,-81.3,-311.4,-6.0,-4.5,-43.2,-135.0,-1.5,102.3,-134.7,6.9,0,3174,0,249,0,
1.7667,-60.9,5.1,40.2,-114.3,-41.1,-179.4,205.8,-287.4,-2964.0,298.5,-152.4,-20.1,277.8,177.3,-68.4,-315.0,-6.0,-4.5,-44.4,-138.6,-1.5,88.8,-143.4,2.1,0,3180,0,250,0,
1.7700,-64.8,6.3,41.4,-117.3,-41.4,-177.3,205.8,-287.4,-2964.0,300.9,-148.8,-15.0,279.0,180.9,-75.9,-341.1,-6.3,-4.5,-42.0,-131.7,-1.8,99.0,-143.4,2.7,0,3186,0,251,0,
1.7733,-61.2,8.4,42.6,-114.9,-33.9,-171.3,206.7,-287.4,-3038.1,292.8,-147.9,-12.0,273.9,175.2,-68.7,-331.8,-6.3,-4.5,-45.6,-131.1,-1.8,97.2,-141.0,4.5,0,3192,0,252,0,
1.7767,-64.8,-0.3,30.0,-123.0,-43.5,-178.2,207.3,-290.4,-3038.1,291.0,-159.0,-20.7,272.7,177.9,-66.6,-316.5,-6.3,-4.5,-56.1,-133.8,-2.1,101.1,-135.6,3.6,0,3198,0,253,0,
1.7800,-64.2,-2.1,33.6,-116.7,-42.6,-171.3,202.8,-289.2,-3112.2,289.2,-153.6,-15.9,269.7,168.3,-55.5,-324.3,-6.6,-4.2,-45.9,-129.9,-2.1,105.3,-138.0,-0.6,0,3204,0,254,0,
1.7833,-63.0,-3.9,30.3,-119.7,-43.8,-171.9,205.2,-289.8,-2964.0,286.5,-161.4,-20.4,262.8,173.7,-58.8,-315.0,-6.0,-4.5,-59.1,-133.5,-1.8,100.2,-133.8,-2.4,0,3210,0,255,0,
1.7867,-60.3,3.0,38.4,-112.8,-36.3,-172.5,208.2,-284.1,-3038.1,287.4,-152.1,-18.9,269.1,166.2,-67.2,-316.2,-6.0,-4.8,-49.5,-132.3,-1.8,94.8,-131.4,5.1,0,3216,0,0,0,
1.7900,-63.6,-3.0,34.2,-115.8,-39.6,-182.4,204.3,-289.2,-3038.1,285.9,-154.5,-21.6,257.7,161.1,-60.3,-321.6,-6.3,-4.5,-51.3,-135.6,-1.8,101.4,-137.4,2.4,0,3222,0,1,0,
1.7933,-63.9,1.8,37.5,-114.3,-35.4,-181.8,203.4,-289.5,-2964.0,293.1,-149.7,-18.6,263.1,165.0,-76.8,-332.7,-5.7,-4.8,-45.9,-132.6,-1.8,93.0,-137.4,8.7,0,3228,0,2,0,
1.7967,-71.4,-3.3,40.5,-111.3,-38.7,-179.7,203.1,-291.0,-3038.1,298.5,-152.1,-21.0,268.5,146.7,-79.5,-319.8,-6.0,-4.2,-47.4,-138.3,-1.8,87.3,-138.9,0.9,0,3234,0,3,0,
1.8000,-66.3,0.3,36.0,-114.9,-44.7,-184.2,197.1,-294.0,-2964.0,281.7,-155.4,-26.7,263.4,163.5,-41.4,-335.4,-6.0,-4.5,-51.3,-140.7,-2.1,82.2,-155.4,-5.7,0,3240,0,4,0,
1.8033,-64.2,5.7,43.8,-108.6,-38.7,-179.7,203.7,-287.7,-2889.9,294.3,-149.7,-17.4,268.8,147.6,-56.1,-322.8,-6.3,-3.9,-43.2,-135.0,-2.1,79.2,-142.8,3.3,0,3246,0,5,0,
1.8067,-60.3,12.0,48.6,-102.9,-36.0,-174.6,204.3,-285.0,-3038.1,296.1,-144.6,-13.5,270.0,167.7,-61.5,-312.9,-6.6,-4.5,-35.4,-129.6,-1.8,87.9,-143.1,6.9,0,3252,0,6,0,
1.8100,-55.8,9.0,48.3,-106.5,-35.7,-174.3,201.0,-287.1,-3112.2,295.2,-145.5,-18.3,263.7,174.9,-36.9,-330.0,-6.3,-4.2,-36.6,-130.8,-1.8,99.9,-167.1,5.1,0,3258,0,7,0,
1.8133,-55.8,8.7,48.0,-102.6,-28.8,-171.9,203.4,-283.5,-2964.0,300.0,-141.0,-14.1,267.6,176.1,-61.2,-322.5,-6.0,-4.8,-38.1,-129.9,-1.8,97.2,-147.0,-3.0,0,3264,0,8,0,
1.8167,-62.7,3.9,45.0,-108.9,-37.8,-176.4,205.8,-286.2,-2964.0,290.4,-151.2,-24.3,270.3,165.6,-54.9,-328.5,-6.6,-4.5,-44.4,-141.0,-1.8,84.3,-141.9,-3.0,0,3270,0,9,0,
1.8200,-60.6,12.0,55.5,-97.2,-24.6,-171.3,211.5,-278.1,-2964.0,298.8,-142.2,-11.7,272.4,166.5,-74.4,-333.6,-6.3,-4.2,-39.6,-125.4,-2.1,101.4,-138.3,8.7,0,3276,0,10,0,
1.8233,-63.0,9.3,50.7,-101.1,-22.5,-169.5,210.3,-285.3,-3038.1,291.3,-148.5,-12.6,265.5,166.5,-69.9,-334.8,-6.3,-4.5,-40.2,-126.9,-2.1,84.9,-138.9,3.9,0,3282,0,11,0,
1.8267,-65.7,4.2,45.9,-102.6,-27.6,-166.2,213.0,-283.5,-2889.9,286.2,-144.6,-12.0,268.2,165.3,-79.5,-312.3,-6.3,-4.5,-41.4,-128.7,-1.8,84.3,-125.1,7.8,0,3288,0,12,0,
1.8300,-62.4,6.3,49.5,-94.2,-22.2,-168.6,214.5,-284.1,-2889.9,288.3,-140.1,-4.5,270.6,155.1,-100.2,-321.6,-6.3,-4.5,-38.4,-122.7,-1.5,95.1,-128.4,8.1,0,3294,0,13,0,
1.8333,-59.1,7.8,47.4,-103.2,-25.2,-174.9,205.5,-284.1,-2964.0,291.6,-146.7,-11.7,276.0,171.6,-84.3,-349.5,-6.0,-4.5,-42.0,-129.6,-1.8,78.3,-157.2,-4.5,0,3300,0,14,0,
1.8367,-64.5,1.5,41.7,-108.3,-38.1,-184.2,201.9,-290.1,-3112.2,274.5,-158.1,-23.1,263.4,163.8,-64.2,-331.2,-6.3,-4.5,-52.2,-142.2,-2.1,61.8,-155.7,-18.3,0,3306,0,15,0,
1.8400,-62.1,0.9,48.6,-102.9,-31.8,-176.7,201.9,-285.0,-3038.1,289.2,-146.4,-22.8,266.4,169.8,-72.3,-364.5,-6.0,-4.2,-44.7,-133.8,-1.8,78.9,-156.6,-9.3,0,3312,0,16,0,
1.8433,-57.9,12.3,63.6,-86.7,-13.8,-161.4,210.3,-275.1,-3038.1,305.4,-131.4,-3.9,282.9,164.7,-111.3,-357.0,-6.0,-4.5,-28.2,-115.8,-2.1,111.3,-145.8,11.7,0,3318,0,17,0,
1.8467,-62.7,3.3,49.5,-96.9,-24.9,-168.0,207.9,-280.8,-2964.0,285.6,-144.0,-17.1,264.6,160.2,-77.7,-342.6,-6.0,-4.5,-43.2,-129.6,-1.8,85.8,-146.7,-1.5,0,3324,0,18,0,
1.8500,-61.2,7.8,53.7,-96.0,-21.9,-169.2,211.8,-277.8,-2964.0,288.3,-141.9,-17.4,272.1,158.4,-63.3,-327.9,-6.3,-4.5,-36.6,-131.1,-1.8,83.7,-137.4,2.7,0,3330,0,19,0,
1.8533,-58.2,12.6,63.0,-88.8,-15.9,-170.1,208.8,-269.4,-2964.0,295.2,-136.2,-10.8,282.3,181.8,-55.5,-341.1,-6.3,-4.8,-34.2,-124.5,-1.8,85.2,-138.6,-2.7,0,3336,0,20,0,
1.8567,-58.2,17.4,63.6,-84.0,-13.5,-166.8,210.3,-269.7,-3112.2,299.4,-132.9,-6.9,284.1,175.8,-74.1,-339.6,-6.3,-4.2,-29.7,-120.3,-1.8,90.6,-141.6,8.4,0,3342,0,21,0,
1.8600,-65.7,12.3,55.2,-88.5,-16.5,-167.1,206.7,-276.3,-3038.1,289.2,-141.3,-10.8,269.1,172.2,-68.7,-320.1,-6.0,-4.8,-35.7,-124.8,-1.8,95.7,-136.2,6.9,0,3348,0,22,0,
1.8633,-60.0,17.1,62.7,-84.3,-7.2,-161.4,205.8,-274.8,-3038.1,302.7,-130.2,-0.9,280.8,179.4,-72.0,-344.4,-6.6,-4.5,-23.7,-116.4,-1.5,102.0,-144.3,5.1,0,3354,0,23,0,
1.8667,-67.8,10.8,51.9,-90.6,-15.9,-167.4,202.5,-276.0,-2964.0,287.1,-138.6,-8.1,267.9,168.3,-73.8,-341.4,-6.3,-4.5,-36.0,-120.6,-1.8,90.0,-145.5,3.3,0,3360,0,24,0,
1.8700,-66.0,9.3,56.7,-88.2,-12.0,-168.0,201.0,-274.5,-3112.2,298.8,-136.5,-7.5,261.3,161.4,-87.3,-343.8,-6.3,-4.5,-34.8,-120.0,-1.5,98.4,-151.2,4.8,0,3366,0,25,0,
1.8733,-65.7,0.3,42.9,-100.2,-24.3,-177.6,199.5,-281.4,-3112.2,282.6,-148.5,-21.9,261.3,175.5,-39.9,-310.5,-6.3,-4.8,-45.9,-134.1,-1.8,76.2,-151.2,-12.3,0,3372,0,26,0,
1.8767,-63.9,-0.6,41.4,-100.5,-23.4,-179.7,201.3,-280.8,-2964.0,283.2,-146.7,-20.7,263.4,175.5,-51.3,-317.4,-6.3,-4.5,-48.9,-132.6,-1.8,76.8,-149.1,-10.5,0,3378,0,27,0,
1.8800,-68.4,5.7,47.7,-94.8,-19.5,-171.6,201.0,-274.8,-3038.1,287.7,-147.0,-15.3,271.8,160.8,-81.3,-312.3,-6.0,-4.5,-44.4,-125.4,-2.1,90.0,-143.4,-0.6,0,3384,0,28,0,
1.8833,-64.5,3.0,39.6,-99.9,-21.3,-176.7,199.8,-279.3,-2964.0,276.6,-151.8,-17.1,266.4,169.5,-43.5,-339.0,-6.3,-4.8,-51.9,-128.4,-2.1,91.2,-157.8,-5.4,0,3390,0,29,0,
1.8867,-59.1,8.4,48.3,-92.7,-20.7,-170.1,204.6,-270.6,-3038.1,295.8,-141.3,-9.3,267.6,164.7,-95.4,-350.1,-6.3,-4.5,-41.1,-122.1,-1.5,100.2,-145.8,0.9,0,3396,0,30,0,
1.8900,-64.8,6.9,49.8,-92.7,-19.5,-166.5,204.0,-269.7,-2964.0,294.6,-142.5,-10.8,255.3,142.2,-94.2,-350.4,-6.0,-4.2,-43.8,-123.0,-2.1,96.3,-148.5,12.3,0,3402,0,31,0,
1.8933,-65.7,-2.1,39.6,-100.5,-27.3,-170.4,201.9,-279.3,-3112.2,279.9,-151.5,-14.1,248.7,165.0,-63.3,-328.2,-6.3,-4.5,-51.3,-129.3,-1.5,90.6,-149.7,-2.1,0,3408,0,32,0,
1.8967,-61.2,1.8,43.8,-98.4,-22.8,-170.4,205.8,-274.2,-3038.1,291.3,-148.5,-10.8,268.8,156.6,-65.7,-329.1,-6.3,-4.8,-49.2,-125.4,-1.8,87.9,-152.4,3.6,0,3414,0,33,0,
1.9000,-62.4,6.0,45.9,-98.7,-22.8,-168.6,208.8,-271.5,-3038.1,291.6,-148.5,-12.9,276.3,162.3,-72.0,-327.6,-5.7,-4.5,-46.8,-125.4,-1.5,97.5,-141.0,4.5,0,3420,0,34,0,
1.9033,-62.4,0.9,41.4,-107.4,-29.1,-173.7,207.6,-275.1,-3038.1,282.3,-153.3,-17.4,267.9,162.3,-47.7,-330.0,-6.3,-4.2,-53.7,-132.3,-1.8,88.8,-144.9,1.2,0,3426,0,35,0,
1.9067,-68.7,-5.7,35.7,-111.0,-35.7,-176.7,202.5,-284.7,-3112.2,278.1,-160.5,-24.3,249.9,160.5,-55.5,-319.8,-6.0,-4.2,-60.9,-138.3,-1.5,87.0,-141.0,-9.3,0,3432,0,36,0,
1.9100,-67.8,-8.1,30.0,-114.9,-37.2,-180.0,203.1,-285.3,-3038.1,265.2,-168.3,-29.4,252.3,163.5,-29.1,-312.9,-6.3,-4.5,-67.8,-142.5,-1.8,74.4,-141.6,-11.7,0,3438,0,37,0,
1.9133,-70.8,-1.2,41.1,-105.0,-20.7,-170.7,208.8,-280.5,-3186.3,285.9,-153.6,-16.2,260.7,153.6,-71.7,-320.4,-6.3,-4.8,-49.8,-127.8,-1.5,81.6,-135.6,2.4,0,3444,0,38,0,
1.9167,-74.7,-5.4,36.3,-108.0,-24.6,-176.7,210.0,-282.9,-3038.1,268.8,-159.0,-22.8,254.4,151.2,-57.3,-300.3,-6.0,-4.5,-58.5,-135.3,-1.8,69.6,-132.9,-7.2,0,3450,0,39,0,
1.9200,-74.1,-1.2,37.5,-101.1,-22.8,-167.7,212.7,-278.7,-3038.1,276.9,-153.6,-17.4,254.1,154.8,-91.5,-338.1,-6.0,-4.2,-52.8,-130.2,-1.8,74.1,-140.4,1.2,0,3456,0,40,0,
1.9233,-67.8,0.6,44.1,-99.3,-15.0,-165.9,211.5,-272.7,-3038.1,285.6,-150.9,-11.1,273.3,167.7,-95.4,-345.3,-6.0,-4.2,-46.5,-123.3,-1.8,88.2,-138.6,12.3,0,3462,0,41,0,
1.9267,-72.6,-2.1,36.3,-104.4,-18.9,-170.4,209.1,-279.9,-3112.2,276.9,-159.3,-17.4,270.9,162.3,-76.8,-327.9,-5.7,-4.2,-58.2,-130.8,-1.5,87.3,-144.3,8.1,0,3468,0,42,0,
1.9300,-69.0,-1.2,36.6,-102.0,-24.3,-172.8,209.7,-276.0,-3038.1,270.9,-163.5,-22.2,265.2,162.3,-82.2,-334.5,-6.0,-4.5,-63.3,-134.1,-2.1,66.0,-138.0,-0.6,0,3474,0,43,0,
1.9333,-68.7,1.5,45.0,-98.1,-18.0,-167.4,216.0,-273.0,-3038.1,274.8,-153.0,-18.9,266.4,161.7,-79.5,-319.8,-6.3,-4.2,-53.7,-130.2,-1.5,71.1,-131.1,2.1,0,3480,0,44,0,
1.9367,-68.7,4.2,46.8,-92.1,-12.0,-161.7,215.1,-269.1,-3038.1,285.9,-147.6,-6.9,267.3,163.2,-79.2,-331.2,-6.0,-4.5,-51.0,-116.1,-2.1,88.8,-142.2,9.3,0,3486,0,45,0,
1.9400,-66.3,4.2,43.5,-98.4,-21.3,-169.5,207.9,-274.5,-3038.1,284.7,-150.0,-11.7,258.0,162.9,-60.0,-333.6,-6.0,-4.2,-49.2,-126.0,-1.5,88.2,-142.2,0.9,0,3492,0,46,0,
1.9433,-62.4,9.0,51.9,-89.4,-13.5,-167.1,210.0,-266.4,-3186.3,286.5,-145.2,-2.7,257.7,160.5,-81.3,-338.4,-6.0,-4.8,-47.7,-114.9,-1.5,94.5,-136.8,6.6,0,3498,0,47,0,
1.9467,-64.8,1.2,42.6,-98.7,-22.8,-174.6,203.7,-274.2,-3038.1,283.8,-156.6,-15.0,266.1,150.6,-72.6,-328.5,-6.0,-4.2,-58.5,-129.6,-1.8,78.3,-148.8,-6.3,0,3504,0,48,0,
1.9500,-59.7,2.4,45.3,-100.2,-21.9,-169.5,203.7,-273.0,-2964.0,281.7,-156.6,-12.9,265.8,171.6,-75.9,-331.8,-6.3,-4.2,-59.4,-125.4,-2.1,79.5,-142.8,5.7,0,3510,0,49,0,
1.9533,-61.5,7.5,49.5,-93.0,-16.8,-166.2,203.4,-272.1,-3038.1,285.6,-148.2,-4.8,269.1,161.7,-101.1,-338.7,-6.3,-4.5,-50.4,-117.3,-1.5,95.7,-140.1,10.8,0,3516,0,50,0,
1.9567,-61.5,2.4,45.0,-104.4,-24.9,-171.3,204.6,-280.5,-2964.0,272.1,-153.6,-13.2,258.6,167.7,-75.0,-336.9,-6.6,-4.8,-58.5,-123.9,-2.1,87.3,-137.4,9.9,0,3522,0,51,0,
1.9600,-66.9,-6.6,34.2,-111.0,-34.5,-179.7,200.1,-292.5,-3112.2,266.4,-166.8,-26.1,252.6,164.1,-54.0,-325.5,-6.3,-4.8,-74.7,-137.4,-1.8,78.0,-143.1,1.5,0,3528,0,52,0,
1.9633,-65.1,0.6,39.9,-106.2,-29.4,-177.9,198.9,-286.8,-3038.1,267.6,-162.9,-19.2,253.8,156.3,-49.5,-314.7,-6.3,-4.5,-62.7,-130.8,-1.8,82.5,-146.1,2.4,0,3534,0,53,0,
1.9667,-61.5,5.7,47.4,-98.7,-23.7,-168.3,201.3,-280.5,-3112.2,285.0,-155.7,-12.6,265.5,157.5,-80.1,-334.8,-6.0,-4.5,-56.1,-123.9,-1.8,105.0,-157.5,5.4,0,3540,0,54,0,
1.9700,-63.3,3.3,46.8,-103.8,-29.7,-174.9,198.6,-280.2,-3038.1,285.9,-158.1,-21.0,258.9,155.7,-81.6,-336.6,-6.3,-4.5,-58.2,-130.8,-2.1,75.9,-146.7,-2.7,0,3546,0,55,0,
1.9733,-62.7,3.3,48.3,-101.4,-29.7,-185.1,196.2,-282.0,-3038.1,285.0,-154.8,-17.7,264.6,160.2,-78.3,-352.8,-6.0,-4.8,-54.3,-135.0,-1.8,72.9,-152.7,-8.1,0,3552,0,56,0,
1.9767,-60.9,-3.9,37.5,-112.5,-39.6,-190.8,193.2,-289.5,-3112.2,258.9,-165.6,-26.7,248.4,158.1,-44.4,-330.6,-6.3,-4.5,-68.7,-143.4,-1.8,70.2,-159.3,-9.9,0,3558,0,57,0,
1.9800,-65.1,-7.8,31.8,-118.5,-44.4,-190.8,191.7,-294.3,-2964.0,249.6,-174.0,-34.8,240.0,152.7,-40.5,-320.4,-6.0,-4.8,-76.5,-150.6,-2.1,63.0,-152.4,-14.7,0,3564,0,58,0,
1.9833,-65.7,-8.1,37.2,-111.6,-37.5,-181.2,193.5,-289.5,-3112.2,266.4,-163.2,-26.7,248.1,145.2,-63.0,-326.7,-6.3,-4.5,-69.3,-142.2,-1.8,73.2,-150.6,-12.9,0,3570,0,59,0,
1.9867,-67.5,-4.8,41.1,-105.9,-30.0,-174.9,202.5,-287.1,-3038.1,274.8,-157.2,-18.0,263.1,147.0,-80.7,-325.8,-6.3,-4.5,-67.5,-134.4,-1.8,88.2,-142.5,-6.3,0,3576,0,60,0,
1.9900,-61.8,-2.1,35.4,-114.9,-33.6,-176.7,198.3,-285.6,-3112.2,268.2,-162.9,-21.6,257.7,166.5,-57.9,-319.8,-6.0,-4.5,-70.2,-135.6,-2.1,76.8,-141.6,-8.1,0,3582,0,61,0,
1.9933,-60.0,-1.5,38.7,-108.9,-29.1,-176.1,201.9,-287.1,-3038.1,282.0,-152.4,-15.3,265.5,163.8,-74.1,-320.7,-6.0,-4.8,-57.3,-132.9,-1.8,79.5,-138.0,-9.3,0,3588,0,62,0,
1.9967,-65.7,-17.1,21.6,-128.4,-46.5,-190.5,194.4,-301.5,-3038.1,246.3,-175.2,-37.2,241.8,170.7,-18.3,-292.8,-6.3,-4.5,-79.2,-153.6,-1.8,63.9,-146.7,-27.9,0,3594,0,63,0,
2.0000,-65.1,-10.8,37.8,-112.5,-31.5,-181.8,199.5,-292.5,-2964.0,273.6,-158.1,-20.4,252.6,169.5,-42.9,-328.2,-6.0,-4.2,-64.2,-137.1,-2.1,81.9,-144.0,-10.8,0,3600,0,64,0,
2.0033,-66.0,1.2,54.6,-95.7,-13.5,-165.9,210.3,-279.3,-3112.2,298.5,-138.9,1.5,261.3,153.6,-110.7,-336.9,-6.3,-4.5,-42.6,-114.9,-1.8,100.8,-121.8,14.4,0,3606,0,65,0,
2.0067,-68.7,2.4,53.7,-97.8,-14.7,-163.5,208.5,-285.3,-3112.2,300.3,-141.0,-0.6,263.1,150.9,-98.7,-318.3,-6.0,-4.8,-44.1,-112.5,-1.8,107.7,-121.2,17.4,0,3612,0,66,0,
2.0100,-62.7,2.1,55.5,-98.4,-17.1,-168.6,208.8,-280.5,-3038.1,293.7,-142.5,-4.8,280.8,167.4,-72.9,-321.9,-6.0,-4.2,-42.0,-122.4,-2.1,97.8,-123.3,3.9,0,3618,0,67,0,
2.0133,-66.0,3.9,51.3,-96.9,-17.7,-172.5,208.8,-281.7,-3038.1,290.1,-141.3,-6.0,275.4,160.8,-79.5,-307.8,-5.7,-4.5,-47.1,-119.4,-1.8,93.9,-121.2,10.8,0,3624,0,68,0,
2.0167,-60.0,5.7,54.6,-98.4,-19.8,-171.3,205.5,-284.1,-3112.2,285.0,-142.8,-5.1,283.2,176.7,-63.0,-336.0,-5.7,-4.5,-46.2,-121.5,-1.8,86.1,-144.6,8.7,0,3630,0,69,0,
2.0200,-63.0,5.4,54.6,-99.0,-16.8,-170.1,201.9,-282.6,-3112.2,293.7,-137.1,-2.1,271.2,169.5,-60.9,-332.7,-6.0,-4.8,-42.9,-116.7,-1.5,93.9,-149.1,8.1,0,3636,0,70,0,
2.0233,-60.3,6.3,55.5,-96.0,-15.3,-171.6,201.9,-280.8,-2964.0,297.0,-142.8,-4.2,274.5,171.9,-55.5,-335.7,-6.0,-4.5,-44.1,-121.2,-1.8,90.9,-145.8,-9.0,0,3642,0,71,0,
2.0267,-63.3,11.1,67.8,-86.7,-5.4,-159.9,204.9,-269.4,-2889.9,308.7,-132.3,6.3,280.2,154.2,-91.8,-337.8,-6.3,-4.2,-34.2,-106.8,-1.5,105.3,-144.6,14.1,0,3648,0,72,0,
2.0300,-58.2,10.2,64.8,-88.5,-13.2,-169.5,204.3,-274.5,-2964.0,291.0,-135.9,4.8,274.5,155.7,-79.8,-333.3,-6.3,-4.8,-36.6,-111.9,-1.8,100.8,-145.5,7.2,0,3654,0,73,0,
2.0333,-60.0,14.1,63.6,-90.0,-13.2,-169.8,204.9,-271.5,-3038.1,294.0,-134.4,3.6,270.3,168.0,-79.8,-326.1,-6.3,-4.5,-37.8,-117.6,-1.5,93.6,-140.7,7.2,0,3660,0,74,0,
2.0367,-58.2,11.7,68.7,-88.5,-8.4,-162.0,209.1,-272.7,-3112.2,298.5,-130.2,8.4,281.7,171.6,-69.0,-329.4,-6.6,-5.1,-30.3,-105.9,-1.2,97.5,-140.7,15.6,0,3666,0,75,0,
2.0400,-59.4,12.6,67.5,-85.8,-9.0,-161.7,203.4,-273.0,-3186.3,311.4,-130.2,8.1,290.1,170.7,-75.9,-328.5,-6.3,-4.2,-28.5,-110.4,-1.8,100.8,-142.5,14.7,0,3672,0,76,0,
2.0433,-59.4,2.7,58.5,-97.2,-14.4,-165.6,203.7,-279.0,-3038.1,282.9,-141.3,-3.9,272.4,184.5,-55.8,-320.1,-6.3,-4.5,-40.2,-121.2,-1.2,86.4,-145.8,-2.4,0,3678,0,77,0,
2.0467,-56.1,9.6,62.7,-90.3,-11.1,-166.8,202.8,-278.7,-2964.0,298.5,-129.3,6.3,281.7,177.9,-69.0,-328.5,-6.0,-4.5,-35.7,-112.2,-1.5,100.8,-145.2,0.0,0,3684,0,78,0,
2.0500,-56.7,10.2,64.5,-90.0,-15.9,-167.4,203.7,-277.2,-3112.2,296.7,-128.1,9.0,284.1,179.7,-67.5,-336.9,-6.0,-4.5,-31.2,-111.3,-1.5,103.2,-144.6,6.6,0,3690,0,79,0,
2.0533,-54.3,11.7,56.7,-96.9,-22.5,-172.5,200.4,-276.9,-3038.1,290.4,-139.2,-3.6,279.3,180.6,-55.5,-336.9,-6.3,-4.5,-38.7,-123.6,-1.8,92.4,-151.5,-4.2,0,3696,0,80,0,
2.0567,-57.0,0.9,47.7,-106.5,-31.5,-179.7,198.0,-285.3,-3038.1,289.5,-149.1,-12.6,275.1,185.4,-31.2,-334.2,-6.0,-4.8,-52.2,-132.3,-1.5,82.5,-158.4,-11.1,0,3702,0,81,0,
2.0600,-55.2,13.5,61.5,-96.3,-23.4,-171.0,204.0,-277.2,-3038.1,298.5,-131.7,-3.0,283.2,177.0,-66.3,-339.9,-6.0,-4.5,-35.4,-122.1,-1.8,90.9,-159.0,5.4,0,3708,0,82,0,
2.0633,-57.3,12.9,62.4,-92.4,-21.9,-171.0,202.5,-273.0,-3038.1,307.8,-127.2,4.2,279.3,176.7,-94.2,-340.5,-6.0,-4.8,-30.9,-115.2,-1.8,104.1,-154.2,5.1,0,3714,0,83,0,
2.0667,-59.4,5.1,57.3,-99.3,-22.5,-173.4,206.7,-279.3,-3038.1,289.2,-139.5,-3.6,273.6,176.7,-81.0,-321.6,-6.3,-4.5,-44.7,-125.7,-2.1,89.4,-135.9,-2.4,0,3720,0,84,0,
2.0700,-62.4,5.1,51.9,-99.6,-22.2,-181.2,203.4,-282.6,-3112.2,289.8,-143.7,-9.0,273.3,181.8,-71.4,-338.4,-6.6,-4.8,-44.1,-129.6,-1.8,86.1,-154.2,-8.1,0,3726,0,85,0,
2.0733,-62.7,0.0,48.9,-107.1,-30.0,-183.6,202.5,-286.8,-2964.0,283.2,-151.8,-17.4,268.8,180.3,-45.9,-314.4,-6.3,-4.2,-48.9,-134.4,-1.8,71.7,-147.3,-13.5,0,3732,0,86,0,
2.0767,-61.8,-5.4,39.9,-115.5,-36.9,-183.6,204.6,-290.7,-3112.2,279.3,-158.4,-23.7,262.5,177.6,-20.7,-296.7,-6.0,-4.5,-56.1,-145.2,-1.5,63.0,-145.2,-13.5,0,3738,0,87,0,
2.0800,-63.0,-3.9,42.9,-115.2,-35.1,-180.6,204.3,-293.4,-3112.2,282.9,-155.7,-19.8,261.9,180.0,-13.8,-302.1,-6.3,-4.8,-54.0,-138.6,-2.1,83.4,-141.9,-11.4,0,3744,0,88,0,
2.0833,-63.6,0.9,51.9,-102.0,-25.2,-173.4,212.7,-287.1,-2964.0,289.5,-146.4,-8.7,266.4,165.6,-70.8,-299.4,-6.3,-4.5,-47.4,-130.2,-1.5,101.4,-124.8,-9.0,0,3750,0,89,0,
2.0867,-64.8,4.5,60.0,-90.6,-10.5,-162.0,213.0,-280.5,-3038.1,299.1,-134.1,0.0,261.3,156.3,-100.5,-322.8,-6.0,-4.8,-36.0,-117.9,-1.8,116.1,-122.4,3.6,0,3756,0,90,0,
2.0900,-58.8,4.5,63.9,-91.5,-15.0,-170.1,212.7,-278.7,-3038.1,296.1,-136.5,-1.8,267.3,169.5,-85.8,-319.2,-6.0,-4.5,-34.5,-123.0,-1.8,88.5,-133.2,-4.2,0,3762,0,91,0,
2.0933,-62.1,1.8,53.7,-99.6,-23.4,-178.5,203.7,-284.4,-3112.2,292.8,-144.0,-8.1,278.1,171.9,-45.9,-321.0,-6.3,-4.5,-47.4,-129.0,-1.8,86.4,-149.1,-8.7,0,3768,0,92,0,
2.0967,-60.6,0.9,52.8,-101.7,-24.6,-175.2,203.1,-288.9,-2964.0,292.8,-147.6,-12.0,273.6,161.1,-51.3,-312.3,-6.0,-4.8,-46.8,-135.9,-1.5,80.4,-145.8,-6.6,0,3774,0,93,0,
2.1000,-57.3,-1.8,46.8,-103.8,-26.1,-172.5,207.0,-287.7,-3112.2,291.0,-149.7,-10.8,267.0,195.3,-54.0,-306.9,-6.3,-4.8,-50.4,-131.1,-2.1,86.4,-148.8,-11.1,0,3780,0,94,0,
2.1033,-55.8,3.0,50.4,-105.6,-28.5,-175.8,206.7,-289.8,-3038.1,282.3,-147.9,-12.9,268.2,183.3,-42.9,-296.1,-6.0,-4.2,-43.5,-135.6,-1.5,77.4,-135.9,-11.1,0,3786,0,95,0,
2.1067,-63.0,3.0,48.9,-107.1,-26.4,-176.7,207.0,-287.4,-2964.0,288.0,-145.8,-10.8,249.3,167.1,-67.5,-323.4,-6.3,-4.5,-39.6,-131.4,-1.8,82.2,-134.7,-6.6,0,3792,0,96,0,
2.1100,-60.3,3.6,48.0,-104.4,-23.7,-171.3,204.0,-287.7,-2964.0,290.7,-143.7,-8.4,261.9,169.8,-63.0,-329.4,-6.0,-4.8,-41.4,-130.2,-1.5,86.7,-146.4,-15.6,0,3798,0,97,0,
2.1133,-62.7,-2.4,48.6,-106.2,-27.3,-175.2,204.9,-289.2,-2964.0,281.7,-146.7,-11.1,254.7,161.4,-76.5,-322.2,-6.3,-4.5,-46.5,-133.5,-2.1,86.4,-139.8,-2.7,0,3804,0,98,0,
2.1167,-62.7,-6.3,40.5,-109.5,-30.0,-177.3,205.2,-291.3,-3038.1,284.1,-147.3,-9.3,251.1,173.4,-41.7,-322.8,-6.0,-4.2,-43.8,-132.3,-1.8,99.0,-145.5,1.5,0,3810,0,99,0,
2.1200,-60.9,-2.4,46.8,-102.9,-27.6,-171.6,205.5,-284.4,-3038.1,289.5,-141.0,-5.4,253.5,172.2,-56.1,-332.4,-6.0,-4.5,-42.0,-129.9,-1.8,102.3,-138.6,6.9,0,3816,0,100,0,
2.1233,-62.7,-2.1,44.4,-103.8,-27.9,-168.9,208.5,-282.9,-3112.2,288.6,-143.4,-7.8,257.4,163.2,-85.8,-321.9,-6.0,-4.2,-44.1,-132.0,-1.2,86.7,-132.6,3.3,0,3822,0,101,0,
2.1267,-54.6,6.9,56.1,-96.3,-15.9,-156.9,213.3,-273.0,-2964.0,294.6,-134.4,1.8,261.3,174.6,-79.8,-321.0,-6.0,-4.5,-35.1,-119.7,-1.8,96.0,-133.8,14.7,0,3828,0,102,0,
2.1300,-57.6,5.7,55.8,-92.7,-14.7,-155.1,211.5,-272.4,-2964.0,300.0,-128.4,8.1,268.2,183.0,-64.2,-332.4,-6.3,-4.8,-26.7,-116.7,-2.1,101.1,-134.4,16.2,0,3834,0,103,0,
2.1333,-56.4,7.2,58.2,-93.9,-15.0,-158.7,211.2,-272.1,-2889.9,306.3,-127.2,9.9,263.7,188.7,-62.1,-343.2,-6.0,-4.8,-25.8,-117.3,-1.5,93.3,-141.0,2.4,0,3840,0,104,0,
2.1367,-60.9,1.5,51.3,-97.5,-18.9,-162.0,210.0,-275.7,-2964.0,304.8,-135.0,3.0,258.9,170.1,-67.2,-326.7,-6.3,-4.2,-33.3,-123.3,-1.8,78.9,-149.1,-4.8,0,3846,0,105,0,
2.1400,-55.8,12.0,63.9,-85.5,-5.7,-152.7,217.2,-264.6,-2964.0,315.0,-118.8,15.9,269.1,172.5,-105.6,-334.5,-6.0,-4.5,-15.9,-111.9,-1.8,104.1,-135.9,9.3,0,3852,0,106,0,
2.1433,-56.7,8.4,53.4,-94.8,-18.3,-164.7,208.8,-273.6,-2964.0,296.4,-132.6,6.9,255.0,178.8,-73.8,-330.6,-6.0,-4.5,-28.5,-120.3,-1.8,90.3,-147.0,8.4,0,3858,0,107,0,
2.1467,-62.7,-3.3,44.1,-102.6,-26.1,-173.7,204.3,-281.4,-2964.0,283.2,-142.5,-4.2,250.5,174.9,-44.1,-325.8,-6.3,-4.5,-36.0,-129.6,-1.8,85.2,-141.6,-0.3,0,3864,0,108,0,
2.1500,-57.0,6.6,57.9,-92.1,-15.3,-161.7,209.4,-274.8,-2964.0,301.8,-129.6,5.7,268.2,168.6,-67.5,-317.1,-6.3,-4.8,-24.0,-118.8,-1.8,89.4,-131.7,12.6,0,3870,0,109,0,
2.1533,-54.9,11.7,59.4,-88.5,-15.9,-162.0,213.9,-268.5,-3038.1,299.4,-126.9,8.1,260.4,156.9,-87.6,-324.9,-6.3,-4.5,-22.5,-118.8,-1.8,90.6,-123.3,9.3,0,3876,0,110,0,
2.1567,-55.2,11.1,55.5,-89.7,-13.8,-158.4,212.4,-270.0,-3038.1,294.3,-131.1,9.9,266.4,172.5,-90.9,-330.0,-6.0,-4.5,-25.2,-115.2,-1.5,97.2,-135.3,8.1,0,3882,0,111,0,
2.1600,-53.4,7.8,48.3,-99.6,-25.5,-165.9,208.2,-276.6,-3038.1,292.5,-134.4,1.8,259.2,181.8,-67.2,-320.1,-6.0,-4.5,-30.3,-128.1,-1.8,87.0,-145.5,-4.5,0,3888,0,112,0,
2.1633,-47.4,11.7,51.3,-97.8,-27.0,-167.4,208.2,-271.2,-2889.9,295.5,-136.2,-0.6,257.4,186.6,-68.4,-328.8,-6.0,-4.2,-30.0,-128.7,-1.8,89.7,-142.2,2.7,0,3894,0,113,0,
2.1667,-56.4,-0.9,37.5,-113.1,-37.8,-174.3,203.1,-278.7,-2964.0,273.6,-152.1,-12.0,246.0,174.3,-54.6,-321.6,-6.0,-4.2,-51.6,-137.7,-1.8,78.3,-150.3,2.4,0,3900,0,114,0,
2.1700,-57.9,3.0,42.0,-108.9,-30.9,-175.5,203.7,-271.2,-2964.0,285.0,-148.5,-6.9,251.4,176.4,-45.0,-327.3,-6.6,-4.2,-42.9,-134.4,-1.8,82.2,-148.2,-3.3,0,3906,0,115,0,
2.1733,-62.4,-2.4,41.4,-110.7,-39.0,-179.1,199.5,-276.0,-3038.1,285.0,-147.3,-6.9,240.0,158.1,-72.6,-335.1,-6.0,-4.5,-43.5,-136.8,-2.1,92.7,-145.2,-1.2,0,3912,0,116,0,
2.1767,-60.6,-2.4,35.1,-116.4,-39.3,-178.8,202.2,-283.5,-3038.1,274.8,-154.5,-11.4,244.8,160.2,-67.8,-321.3,-6.3,-4.5,-48.3,-138.6,-1.8,89.4,-142.2,-1.5,0,3918,0,117,0,
2.1800,-60.6,-11.4,33.0,-118.2,-39.0,-177.0,200.7,-287.4,-2964.0,272.7,-154.5,-10.2,246.6,163.2,-65.1,-333.3,-6.0,-4.2,-49.2,-138.6,-1.5,95.1,-152.4,3.3,0,3924,0,118,0,
2.1833,-61.8,-8.4,26.1,-119.4,-41.4,-180.0,201.3,-292.2,-2964.0,270.6,-162.3,-17.4,247.8,169.5,-49.8,-320.4,-6.3,-4.2,-54.6,-144.0,-1.5,80.1,-143.4,-9.0,0,3930,0,119,0,
2.1867,-59.1,2.1,47.7,-102.9,-26.7,-163.8,204.9,-279.3,-2964.0,289.8,-141.3,1.5,258.0,159.0,-85.5,-331.8,-6.0,-4.5,-37.5,-125.4,-1.8,77.1,-138.9,5.4,0,3936,0,120,0,
2.1900,-63.6,1.8,39.9,-107.4,-30.6,-171.9,205.5,-282.0,-3112.2,291.9,-148.2,-4.8,256.2,165.3,-80.4,-322.5,-6.3,-4.5,-38.4,-131.7,-1.8,75.0,-141.9,-5.1,0,3942,0,121,0,
2.1933,-60.6,0.9,40.8,-110.4,-34.2,-180.0,204.3,-280.5,-3112.2,291.3,-145.2,-4.2,250.8,165.6,-73.5,-329.1,-6.0,-4.5,-42.0,-131.4,-2.1,104.4,-143.1,-6.9,0,3948,0,122,0,
2.1967,-59.7,2.4,46.5,-110.7,-34.5,-177.6,205.5,-280.5,-2964.0,288.3,-141.9,-3.3,253.2,171.3,-68.4,-333.6,-6.6,-4.2,-34.2,-130.8,-1.8,104.1,-141.6,3.6,0,3954,0,123,0,
2.2000,-56.7,9.3,52.8,-103.2,-27.0,-172.2,206.1,-275.4,-2964.0,303.3,-133.5,3.9,265.5,166.5,-85.5,-345.9,-6.0,-4.2,-27.6,-124.8,-1.8,107.4,-138.9,7.2,0,3960,0,124,0,
2.2033,-56.4,0.9,43.8,-110.4,-29.4,-171.0,207.6,-282.3,-2964.0,297.6,-141.0,-1.2,254.1,179.1,-52.2,-319.8,-6.3,-4.5,-34.5,-129.3,-1.2,97.5,-144.0,-0.3,0,3966,0,125,0,
2.2067,-60.3,-10.5,34.2,-120.9,-42.6,-184.2,202.2,-293.4,-3112.2,277.8,-151.8,-13.5,240.9,184.8,3.6,-310.2,-6.3,-4.5,-44.1,-141.3,-1.5,69.0,-153.6,-15.6,0,3972,0,126,0,
2.2100,-58.2,-8.7,37.2,-115.2,-38.7,-180.3,206.7,-290.4,-2964.0,284.1,-149.4,-9.6,253.8,185.1,-29.4,-313.8,-6.0,-4.5,-42.6,-140.1,-1.5,82.2,-149.7,-7.2,0,3978,0,127,0,
2.2133,-60.0,1.5,49.8,-98.4,-22.8,-161.7,214.5,-282.3,-2964.0,307.2,-133.8,10.2,261.6,167.1,-79.2,-324.0,-6.0,-4.8,-24.9,-118.5,-1.8,101.1,-133.8,11.1,0,3984,0,128,0,
2.2167,-63.9,-1.5,47.7,-99.9,-22.8,-167.1,213.6,-282.6,-3038.1,309.3,-137.7,5.4,258.6,155.7,-82.8,-312.3,-6.0,-4.5,-28.8,-121.8,-1.8,100.2,-131.1,7.8,0,3990,0,129,0,
2.2200,-64.2,-6.0,37.2,-106.5,-30.9,-169.2,211.8,-285.3,-2964.0,279.9,-142.2,-3.0,236.4,174.3,-48.3,-309.9,-6.3,-4.5,-37.2,-129.3,-1.8,90.6,-133.2,7.5,0,3996,0,130,0,
2.2233,-62.1,0.0,50.1,-96.9,-16.8,-159.0,220.5,-276.6,-3038.1,290.7,-131.7,12.0,237.3,162.3,-93.0,-325.5,-6.0,-4.5,-27.6,-116.7,-2.1,108.6,-126.0,16.8,0,4002,0,131,0,
2.2267,-58.5,4.5,51.6,-92.4,-16.5,-153.9,224.1,-278.1,-2889.9,301.5,-130.8,12.0,265.2,168.6,-88.8,-317.1,-6.0,-4.5,-25.5,-115.8,-1.5,103.2,-120.9,11.7,0,4008,0,132,0,
2.2300,-59.1,3.6,46.8,-95.7,-19.8,-155.1,221.4,-278.4,-3038.1,294.9,-131.7,8.1,263.4,162.0,-99.9,-309.3,-6.0,-4.2,-24.9,-119.1,-1.5,92.4,-124.2,0.9,0,4014,0,133,0,
2.2333,-59.7,11.7,55.8,-91.2,-15.9,-155.1,221.4,-276.9,-2964.0,291.6,-129.9,18.0,238.2,153.9,-87.3,-331.5,-6.3,-4.5,-24.0,-115.8,-1.8,101.4,-134.1,0.3,0,4020,0,134,0,
2.2367,-61.5,1.5,45.3,-93.3,-15.9,-162.0,216.0,-278.7,-3038.1,294.9,-127.8,11.1,233.4,174.6,-56.7,-341.7,-6.0,-4.5,-24.9,-116.4,-1.8,100.5,-148.8,12.6,0,4026,0,135,0,
2.2400,-55.8,0.3,40.5,-103.8,-31.5,-175.8,213.0,-283.2,-2815.8,280.8,-140.7,-3.6,254.4,187.5,-8.4,-326.4,-6.0,-4.2,-35.7,-131.7,-1.5,85.8,-159.3,0.3,0,4032,0,136,0,
2.2433,-49.5,14.4,59.1,-83.4,-12.0,-156.3,220.5,-267.0,-2889.9,318.0,-117.6,18.3,272.4,185.7,-84.6,-350.1,-5.4,-3.9,-18.9,-110.7,-1.8,112.5,-140.4,23.4,0,4038,0,137,0,
2.2467,-56.4,17.4,61.8,-79.2,-7.5,-154.5,225.3,-264.3,-2964.0,316.8,-119.4,20.4,271.2,167.7,-106.8,-331.8,-6.3,-4.5,-14.4,-108.3,-2.1,110.1,-124.8,31.5,0,4044,0,138,0,
2.2500,-60.0,5.4,46.5,-91.2,-20.4,-166.8,215.1,-274.2,-2964.0,303.9,-129.3,7.5,257.7,179.1,-62.7,-320.7,-6.3,-4.5,-25.8,-121.8,-1.5,103.5,-136.8,22.8,0,4050,0,139,0,
2.2533,-61.5,2.7,47.7,-98.7,-29.7,-174.6,213.3,-274.5,-3112.2,289.5,-138.3,3.6,257.7,178.2,-55.8,-316.8,-6.0,-4.2,-33.3,-127.5,-1.8,95.4,-131.1,13.8,0,4056,0,140,0,
2.2567,-58.8,14.7,58.2,-87.3,-19.2,-167.7,209.7,-268.5,-2964.0,319.2,-124.8,16.2,260.4,168.9,-69.3,-340.8,-6.0,-4.5,-15.6,-116.4,-1.5,102.9,-147.9,8.7,0,4062,0,141,0,
2.2600,-62.4,10.8,54.3,-92.7,-21.6,-164.4,207.9,-272.7,-2964.0,309.6,-128.4,9.3,256.2,176.7,-91.5,-335.4,-6.0,-4.5,-19.2,-119.1,-1.8,106.8,-143.4,13.2,0,4068,0,142,0,
2.2633,-59.1,9.0,48.9,-92.4,-19.8,-164.7,205.8,-268.2,-2889.9,306.3,-131.7,8.4,272.4,168.6,-68.1,-342.3,-6.3,-4.5,-24.0,-119.7,-2.1,99.6,-150.9,9.0,0,4074,0,143,0,
2.2667,-63.6,1.5,40.5,-104.7,-29.4,-180.0,203.7,-278.7,-3112.2,283.8,-144.0,-2.7,260.7,162.6,-51.9,-316.2,-6.3,-4.8,-39.3,-133.5,-1.5,90.0,-145.2,-1.2,0,4080,0,144,0,
2.2700,-63.3,-4.5,42.0,-100.2,-21.0,-174.0,207.6,-274.8,-3112.2,281.4,-141.0,-0.3,259.5,162.0,-67.5,-333.9,-6.3,-4.2,-35.4,-130.2,-1.5,91.5,-143.7,3.3,0,4086,0,145,0,
2.2733,-66.3,-4.2,42.9,-99.6,-21.9,-167.1,210.6,-274.8,-3038.1,293.4,-136.5,2.4,253.5,163.5,-78.0,-343.2,-6.0,-4.8,-34.2,-126.3,-1.5,103.8,-143.4,6.0,0,4092,0,146,0,
2.2767,-62.4,-1.2,42.6,-103.8,-28.5,-169.5,210.0,-277.8,-3038.1,286.8,-141.0,2.1,234.6,170.4,-59.7,-329.1,-6.3,-4.2,-35.4,-129.0,-1.8,87.3,-143.7,-2.4,0,4098,0,147,0,
2.2800,-62.7,-10.2,30.0,-116.7,-40.2,-178.2,208.5,-286.5,-2889.9,280.2,-149.4,-10.5,231.6,182.1,-33.6,-315.0,-6.0,-4.8,-47.4,-140.1,-2.1,85.8,-145.2,-11.7,0,4104,0,148,0,
2.2833,-63.6,-11.4,29.7,-117.9,-40.5,-180.9,205.5,-288.3,-3038.1,282.9,-151.5,-15.3,254.7,177.9,-36.6,-318.0,-6.3,-4.5,-50.1,-144.0,-1.8,80.1,-147.6,-6.3,0,4110,0,149,0,
2.2867,-67.8,-11.4,27.9,-117.3,-42.9,-179.1,204.6,-288.3,-3038.1,280.8,-149.7,-14.4,253.5,172.5,-46.8,-321.9,-6.0,-4.8,-46.8,-142.2,-1.5,78.9,-146.7,-10.2,0,4116,0,150,0,
2.2900,-68.4,-6.6,30.9,-115.8,-41.4,-179.7,210.9,-287.7,-3112.2,279.0,-146.7,-7.8,261.6,154.2,-60.9,-301.8,-6.3,-4.2,-46.5,-136.2,-1.8,89.4,-132.6,0.9,0,4122,0,151,0,
2.2933,-62.7,-2.7,37.2,-108.0,-33.9,-174.9,213.9,-284.1,-3038.1,290.1,-141.6,-5.1,266.1,173.4,-71.1,-332.4,-5.7,-4.5,-38.4,-133.8,-1.8,88.8,-144.6,-0.3,0,4128,0,152,0,
2.2967,-65.1,-11.1,27.9,-114.0,-42.3,-177.9,207.6,-288.9,-2964.0,279.6,-151.2,-13.5,239.7,173.1,-33.6,-326.4,-6.9,-4.5,-46.8,-141.6,-1.8,87.6,-145.5,-4.8,0,4134,0,153,0,
2.3000,-68.1,-7.2,32.7,-109.5,-36.3,-172.8,213.3,-286.8,-2964.0,290.7,-142.8,-2.1,250.5,162.6,-69.3,-341.1,-6.3,-4.2,-42.3,-130.5,-1.5,106.2,-147.9,12.6,0,4140,0,154,0,
2.3033,-63.0,-3.6,38.7,-104.4,-30.0,-164.7,216.6,-277.2,-3038.1,301.2,-140.7,0.9,261.9,160.2,-82.2,-334.2,-6.3,-4.5,-36.3,-126.9,-1.8,103.2,-134.1,12.0,0,4146,0,155,0,
2.3067,-66.0,-8.1,32.4,-109.5,-38.1,-168.3,216.0,-280.8,-3038.1,285.3,-149.1,-12.0,253.8,162.0,-82.5,-318.9,-6.0,-4.2,-48.9,-138.6,-1.5,93.6,-129.9,3.3,0,4152,0,156,0,
2.3100,-67.5,-14.4,26.7,-113.7,-42.0,-171.3,213.9,-284.7,-2964.0,275.1,-154.2,-19.5,248.4,179.7,-47.4,-322.8,-6.0,-4.5,-52.8,-146.1,-1.8,95.1,-141.0,-1.8,0,4158,0,157,0,
2.3133,-68.7,-17.1,18.6,-119.1,-45.3,-172.8,211.8,-287.1,-2964.0,264.0,-163.5,-26.4,234.6,176.1,-14.7,-304.8,-6.0,-4.5,-61.5,-152.4,-1.8,75.3,-149.7,-7.8,0,4164,0,158,0,
2.3167,-61.5,-9.3,26.4,-111.0,-39.0,-175.2,212.1,-280.5,-3038.1,276.9,-158.1,-18.0,248.1,185.4,-32.4,-315.0,-6.0,-4.2,-54.3,-146.1,-1.8,81.3,-152.4,-0.9,0,4170,0,159,0,
2.3200,-60.3,-0.9,34.8,-105.0,-34.5,-175.5,212.7,-275.4,-3038.1,282.9,-149.1,-12.0,249.6,172.2,-77.7,-336.9,-6.3,-4.8,-47.1,-141.0,-1.8,86.7,-142.8,-4.8,0,4176,0,160,0,
2.3233,-60.0,3.3,41.7,-99.0,-32.7,-170.1,215.7,-273.9,-2889.9,289.8,-143.1,-7.8,251.7,164.4,-94.2,-327.0,-5.7,-4.5,-40.2,-135.6,-2.1,84.9,-141.6,6.0,0,4182,0,161,0,
2.3267,-62.1,3.0,42.6,-94.5,-27.6,-160.2,216.0,-269.7,-3038.1,292.2,-135.9,0.6,258.9,164.7,-100.5,-338.1,-6.3,-4.5,-36.6,-128.4,-1.8,84.6,-148.2,3.0,0,4188,0,162,0,
2.3300,-59.7,4.2,47.1,-92.1,-27.0,-162.9,217.2,-268.2,-3038.1,299.1,-137.4,-2.4,267.6,162.0,-101.7,-339.6,-6.0,-4.8,-36.3,-129.9,-2.1,87.0,-146.1,1.5,0,4194,0,163,0,
2.3333,-60.0,5.7,45.3,-96.3,-24.6,-165.9,216.6,-267.9,-3038.1,291.6,-139.2,-3.0,254.4,169.5,-93.9,-345.6,-6.3,-4.5,-39.0,-129.9,-1.5,99.0,-141.0,-0.6,0,4200,0,164,0,
2.3367,-63.9,1.8,41.4,-99.0,-27.9,-168.9,212.4,-271.5,-3112.2,279.9,-144.6,-6.9,237.9,171.6,-75.3,-333.0,-5.7,-4.5,-46.2,-136.5,-1.5,74.7,-148.2,0.3,0,4206,0,165,0,
2.3400,-61.2,-3.3,34.8,-97.2,-29.4,-174.0,209.4,-273.6,-3112.2,278.1,-149.7,-12.9,242.7,168.0,-56.4,-335.1,-6.3,-4.2,-48.0,-138.6,-1.8,72.9,-157.8,-2.7,0,4212,0,166,0,
2.3433,-66.0,-8.4,32.1,-105.6,-33.6,-178.5,209.4,-273.6,-3112.2,266.7,-155.4,-18.0,242.1,186.3,-45.9,-321.0,-6.3,-4.2,-55.8,-143.4,-1.8,68.4,-150.9,-8.1,0,4218,0,167,0,
2.3467,-65.4,-5.7,40.8,-99.3,-29.4,-171.9,213.9,-271.8,-2889.9,280.8,-143.4,-10.5,252.6,155.4,-82.2,-324.0,-6.3,-4.5,-44.1,-139.2,-1.8,76.2,-137.7,-2.1,0,4224,0,168,0,
2.3500,-60.3,1.8,49.5,-91.5,-18.9,-160.2,217.8,-265.2,-2964.0,291.6,-136.5,2.7,259.5,162.6,-97.5,-339.0,-6.0,-4.5,-39.0,-123.0,-1.8,96.9,-140.1,6.6,0,4230,0,169,0,
2.3533,-63.0,-0.6,46.5,-96.9,-23.4,-161.4,216.0,-267.6,-3038.1,285.6,-140.4,-1.5,255.9,169.2,-88.5,-326.7,-6.0,-4.5,-42.3,-129.9,-1.5,89.1,-134.1,10.2,0,4236,0,170,0,
2.3567,-59.4,-2.4,46.2,-94.8,-24.3,-165.6,214.8,-268.2,-3186.3,280.8,-142.2,-4.2,258.3,171.6,-67.2,-311.4,-6.0,-4.5,-44.1,-132.6,-1.8,81.6,-144.0,5.1,0,4242,0,171,0,
2.3600,-56.7,8.1,57.9,-87.9,-15.6,-160.2,209.7,-264.9,-3038.1,292.5,-132.0,8.1,265.2,177.3,-75.9,-352.2,-6.0,-4.5,-29.1,-120.6,-1.5,103.2,-161.1,9.6,0,4248,0,172,0,
2.3633,-56.4,7.5,53.1,-89.7,-17.1,-162.3,212.4,-266.7,-3038.1,297.0,-137.7,4.2,273.0,183.6,-77.1,-349.2,-6.3,-4.5,-34.5,-121.2,-1.8,104.7,-145.2,9.9,0,4254,0,173,0,
2.3667,-63.3,5.4,51.9,-92.1,-15.6,-161.7,212.7,-265.8,-3038.1,288.3,-136.2,4.8,258.0,161.4,-89.1,-336.6,-6.6,-4.5,-34.5,-123.6,-1.8,95.7,-143.1,7.8,0,4260,0,174,0,
2.3700,-60.6,6.9,51.3,-89.4,-15.6,-156.3,221.7,-264.9,-3112.2,295.2,-132.9,5.7,262.2,165.9,-81.3,-322.8,-5.7,-4.5,-30.9,-122.1,-1.8,93.3,-138.0,15.3,0,4266,0,175,0,
2.3733,-65.4,4.5,43.8,-95.4,-21.0,-157.8,217.8,-270.3,-2964.0,284.4,-144.0,-0.6,263.1,167.4,-62.7,-315.9,-6.0,-4.8,-38.7,-129.0,-2.1,88.8,-145.5,5.7,0,4272,0,176,0,
