# Mains_Frequency_(Hz) =,60,,,,,,,,,,,,,,,,,,,,,,,,,,,
# Sample_Frequency_(Hz) =,300,,,,,,,,,,,,,,,,,,,,,,,,,,,
# Filter_Delay_(ms) =,43.3,,,,,,,,,,,,,,,,,,,,,,,,,,,
# Sensor_Data_Units =,uV,,,,,,,,,,,,,,,,,,,,,,,,,,,
# Headset_Name =,DSI-24 SN:1580,,,,,,,,,,,,,,,,,,,,,,,,,,,
# Data_Logger =,DSI-Streamer-v.1.08.31,,,,,,,,,,,,,,,,,,,,,,,,,,,
# Date =,4/20/2018,,,,,,,,,,,,,,,,,,,,,,,,,,,
# Time =,11:33:11,,,,,,,,,,,,,,,,,,,,,,,,,,,
# Patient_ID =,X F 01-MAY-1999 X,,,,,,,,,,,,,,,,,,,,,,,,,,,
# Record_ID =,Startdate 20-APR-2018 EEG_XX X X,,,,,,,,,,,,,,,,,,,,,,,,,,,
# Filter =,Non-Filtered,,,,,,,,,,,,,,,,,,,,,,,,,,,
# Comments =,,,,,,,,,,,,,,,,,,,,,,,,,,,,
# Reference location:,Pz,,,,,,,,,,,,,,,,,,,,,,,,,,,
# Trigger Source,Wireless,,,,,,,,,,,,,,,,,,,,,,,,,,,
# Channel_Number =,ch_1,ch_2,ch_3,ch_4,ch_5,ch_6,ch_7,ch_8,ch_9,ch_10,ch_11,ch_12,ch_13,ch_14,ch_15,ch_16,ch_17,ch_18,ch_19,ch_20,ch_21,ch_22,ch_23,ch_24,Trigger,Time_Offset,ADC_Status,ADC_Sequence,Event,Comments
Time,P3,C3,F3,Fz,F4,C4,P4,Cz,CM,A1,Fp1,Fp2,T3,T5,O1,O2,X3,X2,F7,F8,X1,A2,T6,T4,Trigger,Time_Offset,ADC_Status,ADC_Sequence,Event,Comments
0.0033,-31.5,65.4,-1.2,-82.8,-234.3,-332.7,181.5,-204.3,-3186.3,317.7,-313.8,-59.1,113.4,121.8,-64.5,-368.1,-6.3,-4.2,-185.1,-240.6,-1.8,-11.4,-91.8,145.2,0,6,0,217,0,Start Data Acquisition
0.0067,-30.6,66.6,-0.9,-84.0,-234.6,-334.5,178.5,-205.5,-3112.2,321.3,-311.4,-57.6,114.3,117.9,-66.3,-388.8,-6.3,-4.5,-182.7,-238.5,-1.8,-21.9,-101.4,139.2,0,12,0,218,0,
0.0100,-30.6,67.5,-3.6,-85.2,-236.7,-335.7,181.5,-204.0,-3038.1,319.5,-317.4,-62.1,123.9,120.0,-57.6,-386.4,-6.0,-4.5,-186.9,-242.4,-1.5,-32.1,-106.2,136.5,0,18,0,219,0,
0.0133,-30.6,58.5,-16.5,-97.5,-250.5,-345.0,175.8,-215.1,-3112.2,299.1,-331.5,-74.1,108.0,127.5,-24.0,-367.2,-6.6,-4.2,-203.7,-253.8,-1.5,-29.7,-106.8,128.1,0,24,0,220,0,
0.0167,-33.0,61.8,-12.3,-94.5,-246.9,-346.2,174.3,-214.8,-3112.2,303.9,-321.3,-71.7,112.5,123.9,-36.0,-388.8,-6.3,-4.2,-198.3,-252.3,-1.8,-32.4,-117.6,128.1,0,30,0,221,0,
0.0200,-29.7,64.2,-11.4,-94.2,-246.3,-337.8,176.1,-210.9,-3112.2,317.1,-318.6,-68.4,124.5,120.9,-45.6,-373.8,-6.3,-4.5,-193.5,-245.7,-2.1,-19.5,-113.1,122.4,0,36,0,222,0,
0.0233,-33.9,60.3,-14.7,-98.7,-251.1,-339.0,173.4,-216.3,-3038.1,300.9,-329.4,-73.5,108.9,115.2,-51.9,-369.3,-6.6,-4.5,-201.6,-251.4,-1.5,-39.0,-107.1,117.6,0,42,0,223,0,
0.0267,-35.4,51.9,-25.2,-106.2,-258.6,-348.3,174.3,-220.2,-3112.2,296.4,-331.8,-81.6,101.1,128.1,-1.5,-363.6,-6.0,-4.5,-205.2,-261.6,-1.5,-51.6,-116.4,110.7,0,48,0,224,0,
0.0300,-37.2,59.1,-11.7,-96.6,-249.3,-339.9,181.2,-210.3,-3038.1,308.1,-326.7,-69.9,111.9,125.7,-37.8,-379.8,-6.0,-4.2,-202.5,-249.9,-1.8,-31.5,-107.1,128.4,0,54,0,225,0,
0.0333,-34.2,66.9,3.3,-82.5,-233.7,-326.7,183.6,-201.9,-3186.3,318.0,-312.9,-57.3,123.0,118.5,-82.2,-389.7,-6.0,-4.8,-186.3,-234.0,-1.5,-6.9,-95.7,150.3,0,60,0,226,0,
0.0367,-39.3,59.1,-8.4,-86.1,-239.1,-330.0,184.2,-208.2,-3112.2,318.3,-313.2,-59.1,112.8,110.4,-74.1,-381.0,-6.3,-4.2,-189.9,-237.6,-1.8,-14.7,-101.4,147.6,0,66,0,227,0,
0.0400,-36.9,62.7,-10.2,-92.4,-246.3,-337.8,184.5,-209.4,-3038.1,313.5,-322.5,-65.4,110.1,125.1,-49.8,-373.5,-6.3,-4.5,-196.5,-243.3,-1.8,-28.8,-104.7,142.5,0,72,0,228,0,
0.0433,-33.9,64.2,-6.9,-90.9,-244.8,-336.3,186.6,-208.2,-3112.2,318.3,-320.7,-62.4,100.2,131.1,-34.2,-367.8,-6.3,-4.8,-196.5,-241.8,-1.8,-25.5,-95.7,136.5,0,78,0,229,0,
0.0467,-25.8,63.6,-4.5,-87.9,-237.3,-330.3,184.5,-208.2,-3186.3,319.2,-313.8,-59.7,108.0,137.1,-21.9,-364.2,-6.0,-4.2,-190.5,-236.7,-1.5,-32.7,-94.5,135.0,0,84,0,230,0,
0.0500,-30.6,67.5,0.9,-79.8,-230.7,-324.6,188.1,-202.5,-3186.3,326.4,-309.9,-53.1,122.7,125.7,-47.7,-372.9,-6.3,-4.5,-188.1,-232.5,-1.8,-23.1,-88.5,147.3,0,90,0,231,0,
0.0533,-28.2,66.6,-0.9,-82.2,-235.2,-328.2,185.4,-205.5,-3112.2,317.4,-316.8,-60.9,126.0,130.2,-33.9,-372.9,-6.3,-4.2,-191.7,-240.9,-2.1,-15.6,-93.3,145.5,0,96,0,232,0,
0.0567,-22.5,73.5,6.6,-73.2,-226.2,-319.8,186.0,-195.6,-3038.1,327.6,-305.7,-47.7,129.9,139.8,-34.8,-393.0,-6.0,-4.5,-181.2,-226.5,-1.5,-9.0,-100.5,149.7,0,102,0,233,0,
0.0600,-23.1,73.8,3.6,-78.3,-230.4,-318.0,186.3,-200.7,-3038.1,327.0,-312.6,-52.5,125.7,139.8,-31.2,-383.1,-6.6,-4.2,-187.8,-230.4,-1.8,-16.2,-88.2,149.4,0,108,0,234,0,
0.0633,-26.4,72.0,1.8,-80.1,-227.1,-318.6,186.3,-200.1,-3186.3,329.7,-311.1,-50.7,128.7,137.4,-29.7,-373.2,-6.3,-4.5,-187.2,-228.9,-1.8,-15.6,-89.4,144.6,0,114,0,235,0,
0.0667,-25.8,73.8,3.0,-78.3,-230.4,-319.5,186.3,-198.0,-3260.4,330.9,-308.4,-50.1,131.4,140.1,-33.0,-380.4,-6.6,-4.5,-183.3,-226.8,-1.5,-5.4,-84.9,150.3,0,120,0,236,0,
0.0700,-24.9,73.8,4.5,-79.5,-228.6,-321.6,186.3,-198.6,-3260.4,334.8,-305.7,-47.4,131.7,135.3,-46.8,-366.9,-6.6,-4.5,-184.2,-225.9,-1.5,-6.0,-81.3,150.9,0,126,0,237,0,
0.0733,-30.0,70.2,2.4,-85.2,-233.4,-323.7,181.8,-198.6,-3038.1,327.6,-309.0,-48.3,127.8,134.1,-45.6,-396.9,-6.3,-4.2,-183.9,-228.6,-1.5,-3.3,-96.9,145.2,0,132,0,238,0,
0.0767,-28.2,61.5,-9.9,-96.9,-249.6,-341.1,174.9,-212.4,-3186.3,310.8,-321.0,-66.9,122.1,145.2,13.5,-375.9,-6.3,-4.2,-197.7,-248.4,-1.5,-33.0,-112.8,131.1,0,138,0,239,0,
0.0800,-31.5,59.7,-8.7,-90.0,-246.0,-334.5,177.3,-210.6,-3186.3,315.6,-318.3,-68.4,120.0,142.5,-1.8,-385.2,-6.3,-4.2,-197.4,-247.8,-1.8,-34.5,-117.3,135.0,0,144,0,240,0,
0.0833,-27.0,76.5,12.6,-72.3,-224.4,-316.5,188.1,-191.1,-3260.4,337.5,-296.1,-43.5,138.9,132.6,-70.5,-391.2,-6.3,-4.8,-172.8,-225.6,-1.5,-11.4,-93.3,158.1,0,150,0,241,0,
0.0867,-31.2,74.4,6.9,-79.5,-227.4,-313.5,188.7,-194.7,-3260.4,338.4,-303.0,-50.1,136.8,123.0,-61.8,-381.6,-6.0,-4.8,-179.4,-229.8,-1.5,-16.2,-90.3,148.2,0,156,0,242,0,
0.0900,-28.5,76.2,8.4,-80.7,-228.6,-318.6,188.4,-195.9,-3186.3,339.3,-301.8,-50.7,140.4,122.1,-54.3,-379.8,-6.6,-4.8,-177.6,-231.6,-2.1,-13.2,-95.4,146.1,0,162,0,243,0,
0.0933,-27.3,73.5,10.8,-76.2,-231.3,-318.3,191.1,-194.7,-3038.1,334.5,-301.2,-50.4,134.4,129.6,-65.1,-382.8,-6.0,-4.5,-177.6,-233.7,-1.8,-11.4,-94.8,148.8,0,168,0,244,0,
0.0967,-27.6,69.0,5.4,-82.2,-234.3,-323.1,187.5,-194.4,-3186.3,331.8,-306.0,-57.3,126.9,123.6,-49.5,-369.3,-6.3,-3.9,-183.0,-238.5,-1.8,-16.2,-96.6,145.8,0,174,0,245,0,
0.1000,-30.9,62.1,0.0,-84.6,-240.9,-327.0,182.4,-202.5,-3260.4,317.7,-312.3,-60.6,123.9,125.7,-26.7,-373.2,-6.6,-4.5,-187.8,-246.0,-1.8,-15.3,-104.4,141.0,0,180,0,246,0,
0.1033,-31.2,58.5,-8.7,-95.1,-246.9,-330.6,184.2,-209.4,-3260.4,306.3,-326.1,-71.4,120.6,133.5,4.8,-366.3,-6.0,-4.2,-199.8,-252.0,-1.5,-24.0,-98.7,127.8,0,186,0,247,0,
0.1067,-30.3,61.8,-1.2,-85.5,-240.6,-327.3,187.5,-204.9,-3112.2,311.1,-316.2,-66.6,124.8,129.9,-13.2,-365.1,-6.6,-4.8,-194.1,-245.7,-1.5,-18.6,-98.4,131.7,0,192,0,248,0,
0.1100,-33.0,62.1,-3.6,-84.3,-234.3,-327.3,185.1,-201.6,-3038.1,316.5,-314.7,-60.6,123.0,124.5,-26.4,-369.3,-6.3,-4.5,-195.3,-239.7,-1.8,-20.4,-104.4,135.9,0,198,0,249,0,
0.1133,-27.3,71.4,2.4,-78.3,-228.3,-322.5,194.1,-199.5,-3186.3,322.2,-311.4,-57.9,124.2,118.8,-60.3,-364.2,-6.0,-4.2,-186.9,-238.2,-1.5,-12.3,-83.7,149.7,0,204,0,250,0,
0.1167,-29.1,73.5,3.0,-80.1,-233.4,-325.5,190.2,-195.0,-3260.4,322.8,-310.2,-62.1,125.7,122.1,-52.2,-378.0,-6.0,-4.2,-185.7,-239.1,-1.8,-21.3,-92.1,143.4,0,210,0,251,0,
0.1200,-26.1,75.6,8.4,-74.7,-222.6,-315.6,193.5,-189.9,-3260.4,331.2,-303.3,-50.4,135.3,122.1,-64.5,-389.4,-6.3,-4.5,-179.1,-229.8,-1.5,-7.8,-87.9,158.4,0,216,0,252,0,
0.1233,-26.7,69.6,4.8,-79.5,-228.9,-318.9,193.8,-196.5,-3186.3,318.6,-314.4,-60.9,126.3,123.3,-40.5,-361.2,-6.6,-4.2,-192.0,-239.7,-1.8,-18.6,-87.3,153.3,0,222,0,253,0,
0.1267,-29.1,62.4,-5.1,-86.7,-239.7,-328.2,191.7,-202.2,-3186.3,302.7,-322.5,-70.8,105.9,120.0,-18.3,-352.2,-6.0,-4.2,-201.6,-245.4,-1.8,-28.8,-99.0,143.4,0,228,0,254,0,
0.1300,-28.5,66.3,-3.6,-86.7,-240.3,-329.4,187.5,-199.8,-3186.3,303.6,-320.7,-67.5,112.5,133.5,-17.4,-382.8,-6.3,-4.5,-196.2,-248.7,-1.8,-26.4,-107.1,140.4,0,234,0,255,0,
0.1333,-29.1,66.9,-1.5,-87.6,-242.1,-326.1,192.3,-198.3,-3186.3,306.0,-319.5,-72.9,123.3,133.8,-29.4,-376.2,-6.3,-4.5,-195.9,-247.5,-1.5,-20.7,-98.7,147.0,0,240,0,0,0,
0.1367,-35.7,67.8,0.9,-88.5,-239.7,-333.9,188.1,-198.0,-3260.4,311.7,-315.9,-66.6,124.5,127.2,-34.5,-365.1,-6.0,-4.5,-192.3,-244.8,-1.5,-21.3,-104.7,137.1,0,246,0,1,0,
0.1400,-25.2,78.6,11.4,-76.5,-228.0,-319.5,191.4,-190.5,-3112.2,330.6,-302.4,-52.8,134.4,133.5,-39.6,-384.9,-6.3,-4.5,-179.7,-228.6,-1.8,-16.5,-101.4,148.2,0,252,0,2,0,
0.1433,-27.9,78.6,10.2,-78.0,-227.7,-317.1,191.4,-189.3,-3112.2,328.8,-300.6,-51.6,132.9,138.6,-38.4,-375.0,-6.3,-4.5,-179.7,-231.6,-1.5,-12.0,-99.0,156.6,0,258,0,3,0,
0.1467,-28.2,74.7,6.6,-75.0,-229.5,-320.1,189.0,-190.2,-3186.3,321.9,-306.3,-59.4,124.5,124.2,-53.1,-369.0,-5.7,-4.5,-180.6,-234.6,-1.5,-13.5,-97.8,148.8,0,264,0,4,0,
0.1500,-27.9,72.6,6.0,-79.5,-232.2,-325.8,189.9,-189.6,-3408.6,318.6,-312.0,-63.0,130.2,130.8,-43.2,-363.0,-6.3,-4.5,-186.9,-237.9,-1.5,-18.0,-90.6,148.8,0,270,0,5,0,
0.1533,-24.6,70.5,2.7,-80.1,-230.7,-320.7,189.3,-192.0,-3186.3,311.7,-314.7,-59.7,125.4,134.1,-32.1,-369.9,-6.0,-4.5,-192.3,-234.3,-1.2,-22.5,-96.9,147.9,0,276,0,6,0,
0.1567,-28.8,67.8,2.7,-80.7,-232.8,-320.4,190.2,-194.7,-3038.1,311.1,-313.8,-59.1,126.0,138.0,-20.4,-359.1,-6.3,-4.5,-190.2,-233.4,-1.8,-17.4,-90.9,148.8,0,282,0,7,0,
0.1600,-30.3,69.6,7.2,-74.4,-223.2,-315.3,192.6,-194.1,-3038.1,325.8,-307.2,-54.6,128.7,132.6,-34.5,-367.8,-6.0,-4.2,-186.3,-229.5,-1.5,-12.0,-88.5,155.4,0,288,0,8,0,
0.1633,-27.9,68.7,0.6,-78.9,-225.6,-315.9,190.8,-196.8,-3112.2,313.8,-309.9,-56.7,126.0,136.5,-16.5,-364.8,-6.3,-4.2,-189.9,-231.6,-1.8,-16.2,-96.9,153.0,0,294,0,9,0,
0.1667,-27.3,71.7,7.5,-75.6,-222.9,-313.5,192.9,-193.8,-3112.2,320.7,-301.5,-48.0,129.6,132.3,-34.5,-378.0,-6.0,-4.8,-180.0,-226.5,-1.8,-10.2,-88.5,159.3,0,300,0,10,0,
0.1700,-28.2,70.8,4.8,-75.0,-225.3,-315.6,194.7,-193.8,-3038.1,323.7,-304.5,-52.5,130.2,132.6,-26.4,-359.1,-6.6,-4.5,-184.8,-228.6,-1.8,-1.2,-86.7,153.3,0,306,0,11,0,
0.1733,-27.9,74.7,6.0,-74.1,-223.8,-315.6,193.5,-193.2,-3038.1,332.4,-300.3,-44.7,139.5,142.5,-45.9,-382.2,-6.0,-4.2,-182.7,-223.5,-1.8,3.9,-93.9,157.5,0,312,0,12,0,
0.1767,-27.3,74.1,3.6,-77.1,-223.2,-319.8,190.2,-192.0,-2889.9,327.9,-302.4,-48.9,137.1,135.9,-39.9,-377.1,-6.3,-4.5,-184.8,-227.7,-1.8,-6.3,-96.3,153.6,0,318,0,13,0,
0.1800,-32.7,69.9,0.9,-79.2,-230.1,-324.0,186.3,-195.9,-3038.1,326.7,-307.8,-55.8,132.6,132.9,-44.7,-375.0,-6.0,-4.5,-185.1,-234.9,-1.8,-27.0,-109.2,141.9,0,324,0,14,0,
0.1833,-28.5,71.7,-7.2,-88.8,-240.6,-333.6,181.8,-202.2,-3186.3,318.9,-311.1,-62.4,128.4,143.7,-3.3,-369.6,-6.3,-4.5,-187.5,-243.9,-1.2,-42.9,-120.6,131.7,0,330,0,15,0,
0.1867,-24.6,71.7,-2.4,-85.2,-236.7,-325.8,185.7,-191.7,-2964.0,330.6,-314.1,-61.2,134.4,144.0,-12.9,-368.7,-6.3,-4.2,-190.8,-241.2,-1.8,-35.1,-114.0,138.0,0,336,0,16,0,
0.1900,-30.9,71.4,-6.0,-88.5,-237.0,-328.8,182.7,-196.5,-3112.2,326.4,-312.0,-61.5,131.4,131.1,-38.1,-368.4,-5.7,-4.5,-188.1,-240.0,-1.5,-34.2,-104.7,139.8,0,342,0,17,0,
0.1933,-30.0,71.4,-2.1,-82.2,-233.7,-327.0,184.8,-196.5,-3112.2,321.6,-311.4,-61.8,129.6,132.0,-43.8,-373.2,-6.6,-4.2,-188.1,-237.9,-1.5,-28.2,-101.4,133.8,0,348,0,18,0,
0.1967,-28.2,70.5,0.9,-85.8,-235.8,-322.8,182.7,-195.9,-3260.4,316.2,-310.8,-56.4,132.6,135.3,-16.8,-372.6,-6.3,-4.5,-189.0,-236.1,-1.5,-24.9,-106.2,139.8,0,354,0,19,0,
0.2000,-25.5,70.8,-1.5,-86.7,-232.8,-322.5,183.0,-195.9,-3112.2,315.9,-314.4,-55.5,131.7,139.8,-18.3,-372.3,-6.3,-4.5,-192.6,-234.9,-1.5,-24.3,-102.0,145.5,0,360,0,20,0,
0.2033,-28.8,78.9,7.2,-75.3,-222.3,-315.0,188.1,-185.7,-3260.4,332.4,-303.3,-46.2,135.9,124.2,-70.5,-385.2,-6.3,-4.2,-180.0,-226.2,-1.5,-9.3,-94.2,151.5,0,366,0,21,0,
0.2067,-29.7,78.6,10.5,-73.2,-220.2,-313.8,187.2,-185.1,-3186.3,334.8,-300.0,-48.0,134.1,120.9,-76.8,-384.6,-6.3,-4.2,-175.8,-225.9,-1.5,-9.0,-88.2,151.5,0,372,0,22,0,
0.2100,-32.1,66.3,-1.8,-81.9,-230.7,-319.2,184.5,-193.2,-3112.2,310.2,-308.4,-52.8,119.1,117.3,-39.9,-374.1,-6.0,-4.2,-194.1,-232.2,-1.5,-15.9,-94.8,142.5,0,378,0,23,0,
0.2133,-30.6,68.4,1.5,-77.7,-227.1,-316.2,185.1,-186.9,-3112.2,319.2,-306.9,-54.6,123.3,120.0,-51.3,-394.5,-6.3,-4.5,-189.9,-233.7,-1.8,-22.2,-98.1,145.5,0,384,0,24,0,
0.2167,-35.1,63.0,-5.4,-82.8,-231.6,-317.4,190.2,-188.1,-3112.2,309.9,-313.8,-57.0,116.7,111.9,-44.1,-388.8,-6.0,-4.5,-198.0,-237.9,-1.8,-29.7,-100.2,147.3,0,390,0,25,0,
0.2200,-35.1,64.5,-3.0,-85.5,-230.7,-322.2,187.2,-193.2,-3186.3,304.2,-314.7,-60.9,114.0,108.3,-52.5,-371.7,-6.3,-4.5,-196.2,-241.2,-1.8,-26.4,-97.8,145.5,0,396,0,26,0,
0.2233,-30.6,62.7,-10.5,-88.5,-236.4,-326.7,189.0,-192.3,-3038.1,303.3,-317.7,-64.5,116.4,114.0,-47.7,-367.5,-6.3,-4.5,-199.5,-246.3,-1.8,-26.4,-96.3,140.4,0,402,0,27,0,
0.2267,-26.4,67.2,-9.6,-90.0,-236.7,-329.1,186.0,-199.2,-3186.3,300.0,-324.6,-67.5,113.4,126.9,-32.4,-382.5,-6.3,-4.8,-204.3,-246.0,-1.8,-38.4,-105.0,135.3,0,408,0,28,0,
0.2300,-25.8,70.8,-4.2,-85.8,-234.0,-324.0,188.7,-194.7,-3260.4,314.4,-312.0,-57.9,111.3,126.6,-54.6,-395.7,-6.3,-4.2,-197.4,-238.5,-1.5,-24.3,-108.3,140.1,0,414,0,29,0,
0.2333,-27.3,72.9,5.1,-82.2,-227.4,-319.8,190.8,-191.7,-3186.3,314.4,-309.9,-56.4,116.1,120.0,-58.2,-379.2,-6.3,-4.5,-190.5,-237.0,-2.1,-18.3,-101.4,143.4,0,420,0,30,0,
0.2367,-27.0,68.4,-5.4,-88.2,-236.4,-328.5,186.3,-197.4,-3260.4,311.4,-320.7,-61.8,117.3,116.1,-32.1,-372.3,-6.3,-4.2,-200.4,-245.4,-1.5,-36.0,-104.4,135.0,0,426,0,31,0,
0.2400,-27.9,72.6,-1.2,-87.9,-239.1,-326.7,188.1,-195.3,-3186.3,304.8,-320.4,-69.3,112.8,119.4,-20.4,-364.5,-6.3,-4.5,-199.2,-249.0,-1.8,-43.2,-108.6,135.0,0,432,0,32,0,
0.2433,-24.9,72.0,-0.9,-90.3,-236.4,-328.2,188.4,-194.7,-2964.0,306.3,-318.0,-63.9,107.4,120.0,-32.1,-379.8,-6.3,-4.2,-194.1,-248.1,-1.5,-36.9,-108.3,134.1,0,438,0,33,0,
0.2467,-27.0,74.1,0.9,-86.1,-235.2,-321.9,191.7,-192.0,-3112.2,305.7,-315.6,-65.1,117.9,117.9,-45.9,-381.0,-6.0,-4.5,-194.4,-243.6,-1.8,-24.0,-96.6,142.2,0,444,0,34,0,
0.2500,-30.6,63.9,-8.4,-92.1,-241.8,-330.3,183.6,-197.7,-3186.3,294.0,-324.6,-75.0,108.6,114.0,-22.2,-369.0,-6.0,-4.5,-204.9,-252.6,-1.5,-36.9,-100.2,133.2,0,450,0,35,0,
0.2533,-23.4,69.9,-3.6,-90.6,-241.2,-328.5,184.8,-192.9,-3334.5,298.8,-321.6,-73.8,120.9,123.3,-21.0,-382.2,-6.0,-4.5,-199.2,-254.7,-1.8,-31.2,-107.1,133.5,0,456,0,36,0,
0.2567,-26.7,68.7,-8.4,-95.7,-244.2,-328.5,181.2,-196.2,-3186.3,290.7,-327.3,-77.1,116.1,114.3,-42.9,-375.6,-6.3,-4.5,-207.9,-257.7,-1.2,-34.8,-105.6,132.6,0,462,0,37,0,
0.2600,-22.2,77.1,-2.7,-89.7,-237.0,-326.1,186.0,-193.5,-3112.2,301.2,-323.7,-74.7,119.1,120.0,-39.6,-360.0,-6.3,-4.5,-204.0,-253.5,-1.8,-42.3,-97.5,133.8,0,468,0,38,0,
0.2633,-29.1,70.2,0.0,-94.5,-239.4,-328.2,183.9,-195.6,-3112.2,299.7,-319.5,-75.0,120.3,113.7,-48.3,-374.7,-6.3,-4.2,-201.0,-253.5,-1.5,-43.5,-100.8,126.6,0,474,0,39,0,
0.2667,-26.7,73.2,-2.1,-90.3,-237.0,-327.9,185.4,-193.5,-3334.5,309.6,-317.1,-74.1,124.2,120.9,-50.1,-376.5,-6.3,-4.5,-200.4,-255.3,-2.1,-49.8,-101.4,129.3,0,480,0,40,0,
0.2700,-29.7,66.9,-5.4,-93.3,-237.0,-324.3,182.4,-195.0,-3260.4,304.2,-323.1,-73.5,117.0,118.2,-48.3,-382.5,-6.3,-4.5,-209.4,-254.7,-1.8,-52.5,-109.8,121.2,0,486,0,41,0,
0.2733,-26.1,77.1,6.0,-87.0,-232.8,-323.1,186.9,-191.1,-3186.3,309.9,-318.6,-69.9,128.4,117.0,-54.0,-379.2,-6.3,-4.8,-198.9,-251.1,-1.5,-41.1,-109.8,124.2,0,492,0,42,0,
0.2767,-29.7,64.8,-7.8,-94.2,-237.6,-325.2,183.3,-195.3,-3038.1,298.5,-324.9,-76.5,117.0,116.4,-48.3,-375.6,-6.3,-4.5,-210.9,-255.0,-1.5,-48.3,-121.8,125.7,0,498,0,43,0,
0.2800,-31.2,63.0,-8.7,-97.5,-241.8,-330.9,182.7,-199.2,-3186.3,290.7,-328.8,-78.3,107.1,115.2,-31.5,-366.6,-6.3,-4.8,-212.1,-258.6,-1.5,-54.0,-119.4,118.8,0,504,0,44,0,
0.2833,-30.9,62.7,-11.1,-95.7,-240.0,-328.5,184.5,-197.4,-3260.4,289.8,-331.5,-78.3,112.8,126.0,-19.8,-372.6,-6.3,-4.2,-215.7,-256.8,-1.8,-57.9,-108.0,128.7,0,510,0,45,0,
0.2867,-29.7,66.0,-3.9,-93.3,-236.1,-327.0,184.8,-196.5,-3112.2,294.0,-324.6,-71.1,114.0,126.3,-21.9,-396.6,-6.0,-4.5,-211.2,-250.5,-1.5,-41.1,-109.2,136.2,0,516,0,46,0,
0.2900,-27.6,82.2,13.2,-77.1,-220.8,-314.4,188.1,-185.1,-3112.2,321.6,-306.9,-54.0,128.7,119.4,-85.2,-426.3,-6.6,-4.8,-192.9,-234.3,-1.8,-29.7,-114.6,142.5,0,522,0,47,0,
0.2933,-29.4,73.5,1.2,-87.6,-232.8,-324.6,184.8,-191.7,-3112.2,303.3,-320.1,-70.8,116.1,115.5,-68.7,-391.5,-6.3,-4.5,-208.2,-247.5,-1.5,-42.9,-112.8,130.2,0,528,0,48,0,
0.2967,-26.7,72.3,-2.1,-87.6,-234.9,-327.0,186.9,-194.1,-3334.5,296.7,-322.5,-72.6,113.4,117.9,-42.6,-375.9,-6.3,-4.8,-206.4,-253.2,-1.5,-45.6,-121.8,123.0,0,534,0,49,0,
0.3000,-23.1,71.4,-1.5,-87.3,-235.8,-325.8,186.9,-196.2,-3334.5,300.3,-324.3,-72.9,118.5,132.3,-22.2,-373.5,-6.3,-4.2,-209.7,-251.4,-1.5,-50.7,-123.9,128.1,0,540,0,50,0,
0.3033,-24.0,77.4,3.9,-83.7,-228.0,-315.6,188.4,-188.4,-3334.5,298.2,-312.3,-64.2,125.1,129.0,-30.6,-394.5,-6.6,-4.5,-199.5,-242.7,-1.8,-37.5,-118.5,137.7,0,546,0,51,0,
0.3067,-22.8,84.9,18.9,-68.4,-214.5,-304.5,196.8,-177.6,-3186.3,326.7,-299.4,-48.6,139.8,107.4,-100.8,-403.2,-6.6,-4.2,-185.1,-229.2,-1.8,-18.6,-102.9,145.8,0,552,0,52,0,
0.3100,-31.2,75.3,4.8,-83.7,-228.9,-318.0,191.1,-187.5,-3186.3,301.2,-314.1,-65.7,121.8,104.1,-70.5,-383.1,-6.3,-4.5,-199.5,-243.6,-1.5,-45.0,-116.4,129.0,0,558,0,53,0,
0.3133,-29.4,72.0,0.9,-85.2,-229.2,-321.3,189.3,-188.1,-3260.4,299.4,-317.4,-65.7,118.2,119.1,-48.3,-387.6,-6.3,-4.5,-205.2,-246.6,-2.1,-44.1,-114.3,132.6,0,564,0,54,0,
0.3167,-27.9,75.6,7.5,-81.6,-224.4,-317.1,189.3,-186.3,-3260.4,308.1,-310.8,-60.0,125.1,119.7,-69.0,-388.8,-6.3,-4.2,-197.1,-243.0,-1.5,-39.0,-116.4,136.2,0,570,0,55,0,
0.3200,-30.6,67.2,1.2,-84.9,-230.1,-319.5,189.3,-190.2,-3260.4,305.4,-317.4,-65.4,117.9,120.6,-41.4,-384.0,-6.0,-4.5,-204.3,-244.5,-1.2,-41.7,-118.2,131.7,0,576,0,56,0,
0.3233,-30.9,70.5,3.3,-84.6,-229.5,-317.7,191.4,-192.0,-3112.2,312.0,-313.2,-64.5,121.8,128.1,-44.7,-381.6,-6.6,-4.2,-198.0,-244.5,-1.5,-33.3,-111.9,132.9,0,582,0,57,0,
0.3267,-24.6,77.1,15.0,-77.4,-221.1,-307.5,196.5,-184.2,-3112.2,327.3,-302.4,-55.8,132.3,126.9,-69.9,-390.0,-6.0,-4.5,-187.8,-238.5,-1.8,-28.5,-105.3,140.1,0,588,0,58,0,
0.3300,-29.7,69.6,-0.3,-84.9,-226.5,-311.1,192.6,-191.1,-3186.3,312.3,-311.4,-60.6,123.6,128.1,-45.3,-384.3,-6.6,-4.2,-197.1,-241.2,-2.1,-33.6,-107.4,136.2,0,594,0,59,0,
0.3333,-30.3,68.1,0.0,-84.3,-225.0,-308.1,189.3,-192.0,-3334.5,312.6,-313.5,-60.6,117.9,122.1,-55.2,-372.0,-6.0,-4.8,-200.1,-242.7,-1.8,-35.7,-96.0,142.5,0,600,0,60,0,
0.3367,-35.1,62.1,-3.9,-90.9,-232.8,-318.3,187.2,-200.4,-3186.3,297.6,-321.9,-66.9,109.5,113.7,-42.6,-366.0,-6.6,-4.8,-205.5,-247.5,-1.8,-36.0,-98.4,135.0,0,606,0,61,0,
0.3400,-30.3,64.2,-0.6,-89.4,-234.3,-319.8,192.0,-201.3,-3038.1,304.8,-315.9,-70.8,121.2,123.6,-28.2,-366.6,-6.3,-4.2,-202.5,-250.8,-1.8,-33.3,-101.4,133.2,0,612,0,62,0,
0.3433,-25.8,75.3,14.1,-76.5,-220.2,-309.0,195.3,-185.7,-3112.2,317.1,-301.2,-50.7,129.0,126.6,-57.6,-382.2,-5.7,-4.5,-181.8,-230.1,-1.8,-15.9,-96.3,148.8,0,618,0,63,0,
0.3467,-26.7,71.7,12.0,-84.0,-224.4,-314.1,190.8,-190.5,-3186.3,325.2,-307.5,-58.2,131.1,127.8,-44.1,-380.1,-6.3,-4.2,-187.2,-237.9,-1.8,-23.7,-103.8,146.1,0,624,0,64,0,
0.3500,-31.5,66.3,3.9,-90.9,-235.5,-321.0,187.8,-193.5,-3260.4,310.8,-314.1,-64.8,120.9,128.7,-38.4,-369.0,-6.3,-4.2,-198.0,-244.2,-1.5,-37.8,-102.9,135.9,0,630,0,65,0,
0.3533,-35.7,63.3,2.4,-91.2,-240.9,-325.8,185.1,-197.7,-3260.4,306.9,-315.0,-70.5,116.1,119.4,-38.4,-366.9,-6.3,-4.5,-197.1,-252.0,-1.8,-45.6,-111.3,123.3,0,636,0,66,0,
0.3567,-29.7,59.7,-2.4,-96.9,-246.6,-327.0,181.2,-202.8,-3260.4,294.3,-321.0,-76.5,119.7,129.3,-21.0,-362.7,-6.3,-4.2,-207.3,-259.5,-1.5,-49.2,-106.2,117.9,0,642,0,67,0,
0.3600,-29.7,69.9,4.8,-92.1,-238.2,-323.1,178.8,-198.3,-3260.4,304.2,-310.5,-67.8,132.9,128.7,-46.8,-396.3,-6.6,-4.2,-197.7,-251.7,-2.1,-42.3,-119.4,123.6,0,648,0,68,0,
0.3633,-28.5,75.6,12.9,-86.1,-232.2,-321.3,183.6,-196.2,-3186.3,309.9,-303.9,-61.5,131.7,115.5,-71.1,-388.8,-6.3,-4.2,-189.9,-244.2,-1.8,-29.4,-108.9,130.8,0,654,0,69,0,
0.3667,-30.6,67.5,4.5,-88.5,-237.3,-323.4,184.5,-200.1,-3334.5,302.4,-313.2,-66.6,117.9,120.3,-53.1,-380.4,-6.3,-4.5,-200.1,-247.5,-1.8,-31.2,-106.8,130.8,0,660,0,70,0,
0.3700,-30.9,59.4,-4.5,-99.6,-249.0,-334.5,175.2,-209.4,-3260.4,292.5,-321.9,-78.3,109.8,129.0,-18.9,-368.7,-6.3,-4.5,-207.3,-262.5,-1.5,-51.3,-117.0,117.0,0,666,0,71,0,
0.3733,-30.0,63.6,-3.6,-97.8,-246.0,-331.2,179.1,-205.8,-3260.4,292.5,-320.7,-75.0,118.2,130.2,-9.9,-363.0,-6.3,-4.2,-207.6,-258.3,-1.8,-41.7,-109.2,120.6,0,672,0,72,0,
0.3767,-25.8,80.1,19.8,-77.1,-226.2,-314.7,185.7,-193.5,-3112.2,320.1,-298.2,-51.6,137.4,122.1,-63.0,-391.2,-6.3,-4.2,-184.2,-237.0,-2.1,-26.1,-105.0,138.9,0,678,0,73,0,
0.3800,-26.4,77.1,13.2,-80.1,-230.1,-319.8,177.6,-194.4,-3260.4,315.0,-304.5,-57.6,141.0,122.1,-46.8,-391.8,-6.3,-4.5,-188.4,-242.4,-2.1,-30.3,-117.9,131.7,0,684,0,74,0,
0.3833,-28.2,72.3,9.9,-82.2,-229.5,-316.8,179.7,-195.9,-3186.3,310.2,-304.8,-60.0,132.0,123.3,-50.4,-395.4,-6.0,-4.5,-192.6,-242.1,-1.5,-30.6,-117.0,135.9,0,690,0,75,0,
0.3867,-26.4,71.7,9.6,-81.9,-229.8,-321.3,176.4,-196.8,-3260.4,312.0,-306.6,-60.3,129.9,125.1,-57.9,-387.3,-6.6,-4.8,-194.1,-240.0,-1.8,-29.7,-107.4,132.6,0,696,0,76,0,
0.3900,-24.9,71.1,6.9,-84.3,-233.1,-325.2,177.9,-196.2,-3260.4,307.5,-309.9,-62.1,135.3,129.3,-41.1,-392.7,-6.3,-3.9,-198.3,-243.6,-1.8,-35.7,-111.0,134.4,0,702,0,77,0,
0.3933,-23.4,74.1,15.0,-82.5,-231.9,-324.3,178.8,-197.7,-3112.2,311.4,-302.7,-61.2,133.5,130.2,-29.4,-386.7,-6.3,-4.5,-189.6,-242.7,-2.1,-36.0,-120.3,123.9,0,708,0,78,0,
0.3967,-23.4,71.7,7.5,-84.9,-235.8,-321.9,178.5,-201.3,-3186.3,301.5,-315.9,-74.1,130.5,141.9,-2.1,-382.2,-6.3,-4.2,-200.1,-253.5,-1.5,-35.1,-114.9,126.6,0,714,0,79,0,
0.4000,-27.3,70.2,6.3,-89.4,-238.5,-325.5,176.1,-200.4,-3408.6,303.9,-315.9,-72.6,133.2,134.7,-2.7,-375.0,-6.6,-4.8,-199.5,-256.2,-1.8,-51.9,-122.7,125.1,0,720,0,80,0,
0.4033,-28.2,75.9,18.0,-76.2,-225.9,-318.6,185.4,-190.8,-3112.2,324.9,-299.4,-54.9,145.2,123.3,-43.2,-375.6,-6.3,-4.5,-180.6,-239.1,-1.5,-33.0,-112.8,139.8,0,726,0,81,0,
0.4067,-27.0,76.8,20.4,-69.3,-220.5,-308.7,191.4,-187.2,-3186.3,327.0,-297.0,-52.2,147.3,120.6,-56.1,-387.3,-6.3,-4.5,-181.8,-234.9,-1.8,-22.5,-108.0,144.9,0,732,0,82,0,
0.4100,-26.7,71.7,13.2,-75.9,-223.5,-309.0,188.7,-190.2,-3186.3,319.2,-302.7,-57.6,139.8,119.7,-45.3,-387.6,-6.0,-4.2,-189.0,-236.4,-1.5,-27.3,-114.3,142.5,0,738,0,83,0,
0.4133,-24.3,74.1,16.5,-74.7,-221.1,-308.4,194.7,-187.5,-3186.3,319.8,-298.5,-48.0,138.6,125.1,-55.5,-382.8,-6.0,-4.5,-184.2,-234.9,-1.8,-12.6,-108.0,150.9,0,744,0,84,0,
0.4167,-25.8,73.5,16.2,-76.5,-227.4,-314.1,190.5,-188.1,-3260.4,313.2,-301.2,-55.8,136.2,120.9,-51.9,-387.0,-6.0,-4.5,-185.1,-239.1,-1.8,-14.1,-117.6,147.6,0,750,0,85,0,
0.4200,-25.5,68.4,15.3,-81.3,-231.6,-318.0,185.4,-193.8,-3334.5,312.9,-307.5,-64.8,128.7,127.2,-33.3,-384.6,-6.3,-4.5,-190.2,-246.6,-1.5,-20.1,-118.8,142.8,0,756,0,86,0,
0.4233,-26.7,71.4,16.2,-78.9,-225.3,-316.2,185.7,-194.1,-3186.3,311.1,-301.5,-58.5,134.1,140.7,-25.5,-392.1,-6.3,-4.5,-186.6,-242.1,-1.8,-30.0,-117.0,141.3,0,762,0,87,0,
0.4267,-27.0,70.2,14.1,-81.0,-226.5,-316.8,184.5,-196.2,-3112.2,316.2,-302.4,-59.7,132.6,131.1,-34.5,-384.9,-6.3,-4.2,-186.0,-241.5,-1.8,-33.0,-115.5,140.1,0,768,0,88,0,
0.4300,-26.7,70.8,16.2,-79.8,-228.9,-318.6,181.2,-203.4,-3260.4,311.4,-301.8,-58.8,127.5,127.5,-33.6,-371.4,-6.3,-4.5,-184.8,-242.1,-1.5,-31.2,-108.9,136.8,0,774,0,89,0,
0.4333,-28.2,73.8,17.4,-73.2,-223.5,-311.7,184.2,-197.1,-3186.3,326.1,-293.7,-48.9,126.3,122.1,-33.9,-385.2,-6.0,-4.2,-179.7,-234.0,-1.5,-28.2,-111.9,135.6,0,780,0,90,0,
0.4367,-23.7,71.7,21.3,-72.9,-222.0,-310.8,183.9,-195.6,-3260.4,330.0,-291.3,-51.3,135.6,128.7,-52.5,-394.2,-6.0,-4.5,-174.0,-236.4,-1.5,-21.3,-112.2,145.8,0,786,0,91,0,
0.4400,-23.4,76.8,25.5,-71.4,-222.6,-314.7,184.2,-193.5,-3186.3,338.7,-289.2,-52.5,149.7,134.4,-46.2,-401.7,-6.3,-4.2,-174.0,-236.4,-1.8,-16.5,-116.1,143.1,0,792,0,92,0,
0.4433,-25.8,72.9,16.5,-78.6,-226.8,-321.0,177.0,-201.9,-3112.2,331.2,-296.1,-55.8,144.0,138.3,-40.8,-398.4,-6.0,-4.5,-181.8,-239.1,-1.8,-21.0,-115.2,137.7,0,798,0,93,0,
0.4467,-22.8,69.3,11.7,-84.6,-232.5,-327.6,176.7,-203.4,-3186.3,322.5,-297.9,-60.6,138.9,150.6,-8.4,-385.2,-6.3,-4.5,-186.3,-245.1,-1.5,-33.9,-116.4,133.8,0,804,0,94,0,
0.4500,-25.8,71.7,12.9,-82.8,-231.6,-323.7,183.9,-202.5,-3260.4,331.5,-300.0,-61.8,138.6,147.9,-23.4,-370.8,-6.3,-4.5,-185.7,-241.5,-1.8,-25.8,-112.5,143.1,0,810,0,95,0,
0.4533,-27.6,65.4,2.1,-89.4,-238.5,-328.2,185.7,-204.9,-3260.4,321.6,-309.6,-69.6,131.4,141.3,-13.8,-357.9,-6.3,-4.5,-196.2,-249.0,-1.5,-31.8,-103.5,138.6,0,816,0,96,0,
0.4567,-28.8,62.7,-3.6,-93.0,-239.4,-327.0,183.9,-207.9,-3186.3,324.0,-312.9,-79.5,135.3,140.7,-14.4,-364.8,-6.6,-4.2,-198.3,-249.3,-1.8,-36.9,-102.6,138.3,0,822,0,97,0,
0.4600,-28.8,59.1,-6.6,-100.8,-245.4,-330.0,182.7,-211.5,-3186.3,316.2,-318.6,-87.3,128.7,139.8,-16.2,-356.4,-6.3,-4.5,-204.6,-255.3,-1.5,-26.4,-99.9,135.6,0,828,0,98,0,
0.4633,-33.6,57.3,-7.8,-98.7,-247.8,-327.6,183.6,-211.8,-3186.3,302.1,-319.5,-90.0,114.9,131.1,-21.0,-363.9,-6.3,-4.2,-208.5,-256.2,-1.8,-21.3,-97.2,136.2,0,834,0,99,0,
0.4667,-34.2,57.9,-10.8,-103.2,-251.4,-330.3,184.2,-209.1,-3334.5,304.8,-328.8,-94.5,111.6,132.9,-10.8,-362.7,-6.3,-4.5,-211.5,-258.9,-1.5,-25.2,-93.6,133.5,0,840,0,100,0,
0.4700,-30.6,72.0,9.6,-81.0,-230.1,-315.6,185.1,-197.4,-3186.3,323.1,-304.5,-72.0,137.7,133.5,-57.9,-411.3,-6.3,-4.5,-187.2,-240.0,-2.1,10.8,-98.4,152.4,0,846,0,101,0,
0.4733,-25.5,71.4,9.0,-84.3,-231.0,-316.5,180.0,-199.2,-3334.5,319.5,-307.2,-69.3,139.8,139.5,-41.7,-403.8,-6.3,-4.8,-189.6,-240.3,-2.1,-17.1,-110.1,139.8,0,852,0,102,0,
0.4767,-29.7,74.1,9.9,-81.0,-225.6,-317.4,186.0,-194.1,-3038.1,321.0,-307.2,-70.2,137.7,122.4,-51.9,-393.9,-5.7,-4.5,-191.7,-240.6,-1.8,-25.5,-109.5,135.3,0,858,0,103,0,
0.4800,-25.5,71.1,9.0,-80.4,-227.4,-315.9,186.6,-193.2,-3334.5,318.9,-307.8,-64.5,138.6,129.3,-64.5,-397.8,-6.3,-4.5,-192.3,-237.9,-1.5,-31.5,-111.9,143.7,0,864,0,104,0,
0.4833,-24.0,72.9,12.3,-79.5,-227.1,-316.5,181.8,-193.2,-3260.4,319.5,-306.3,-65.7,144.3,124.5,-51.9,-390.6,-6.3,-4.5,-190.5,-238.5,-1.8,-33.3,-118.2,138.0,0,870,0,105,0,
0.4867,-28.8,69.6,7.2,-83.4,-226.2,-316.2,182.7,-197.1,-3260.4,315.6,-306.9,-65.4,134.1,123.0,-46.5,-392.4,-6.0,-4.5,-191.7,-236.7,-1.5,-34.5,-117.6,129.9,0,876,0,106,0,
0.4900,-27.9,68.7,9.3,-85.2,-228.3,-318.6,184.5,-200.7,-3260.4,313.2,-307.8,-60.9,124.8,132.3,-45.6,-381.6,-6.0,-4.5,-194.1,-237.3,-1.8,-23.7,-109.2,134.1,0,882,0,107,0,
0.4933,-31.2,69.0,8.4,-84.9,-226.2,-318.0,180.6,-199.2,-3260.4,318.9,-308.7,-63.9,130.8,125.1,-59.1,-391.8,-6.0,-4.5,-192.0,-233.4,-1.5,-9.9,-117.6,144.0,0,888,0,108,0,
0.4967,-30.6,69.6,9.3,-86.1,-229.8,-318.0,179.7,-198.0,-3334.5,318.9,-306.3,-65.7,133.5,127.5,-51.0,-399.0,-6.3,-4.5,-192.6,-241.8,-1.8,-4.2,-114.9,149.1,0,894,0,109,0,
0.5000,-35.7,61.8,4.2,-88.5,-229.8,-318.0,178.5,-199.2,-3260.4,309.3,-307.8,-64.8,126.0,117.0,-52.8,-390.6,-6.3,-4.5,-190.8,-240.6,-1.5,-12.3,-102.9,140.7,0,900,0,110,0,
0.5033,-37.2,60.6,3.3,-90.6,-234.0,-318.6,185.1,-202.2,-3408.6,312.6,-312.0,-66.6,128.4,120.9,-45.3,-384.6,-6.6,-4.5,-197.1,-243.3,-2.1,-26.7,-99.9,140.4,0,906,0,111,0,
0.5067,-36.9,56.7,-3.6,-96.6,-239.4,-318.0,189.0,-205.5,-3186.3,306.6,-318.3,-75.6,120.6,127.5,-19.8,-368.7,-6.3,-4.5,-202.8,-249.0,-1.5,-36.0,-104.1,136.2,0,912,0,112,0,
0.5100,-39.0,56.1,-3.3,-97.8,-238.2,-322.8,186.9,-203.7,-3260.4,310.5,-313.2,-73.8,122.7,127.2,-18.9,-364.2,-6.3,-4.5,-204.3,-249.9,-1.8,-37.2,-111.3,129.6,0,918,0,113,0,
0.5133,-37.5,60.6,0.0,-96.3,-238.5,-324.3,185.4,-202.8,-3112.2,317.7,-311.7,-73.8,127.8,125.7,-23.7,-372.6,-6.3,-4.5,-195.0,-251.7,-1.8,-39.9,-109.5,131.4,0,924,0,114,0,
0.5167,-38.4,60.0,3.0,-94.8,-235.2,-322.2,187.2,-200.4,-3260.4,320.4,-312.3,-71.1,127.8,124.5,-42.3,-371.1,-6.3,-4.2,-196.8,-246.0,-1.8,-31.8,-110.1,136.5,0,930,0,115,0,
0.5200,-40.5,59.4,-0.3,-93.3,-236.1,-318.0,186.3,-204.0,-3186.3,318.3,-310.8,-69.0,122.4,120.0,-49.2,-372.3,-6.3,-3.9,-195.9,-245.1,-1.5,-20.1,-110.7,144.3,0,936,0,116,0,
0.5233,-37.5,56.1,-1.2,-92.7,-238.8,-323.1,186.6,-203.7,-3112.2,317.7,-308.4,-69.9,128.4,114.6,-41.1,-363.3,-6.0,-4.2,-195.6,-246.0,-1.8,-27.0,-112.8,141.6,0,942,0,117,0,
0.5267,-39.9,55.5,-3.9,-97.2,-241.8,-326.7,180.0,-204.9,-3112.2,315.0,-314.7,-73.5,131.7,118.5,-45.0,-378.6,-6.3,-4.8,-198.0,-249.9,-1.8,-26.1,-113.4,135.6,0,948,0,118,0,
0.5300,-29.4,59.7,-6.6,-100.5,-247.5,-330.6,178.2,-206.4,-3260.4,312.9,-318.6,-81.0,136.5,141.6,-16.2,-379.2,-6.0,-4.2,-202.2,-259.2,-1.8,-39.9,-126.6,125.1,0,954,0,119,0,
0.5333,-36.3,58.5,-7.5,-101.4,-243.6,-328.5,179.7,-206.1,-3334.5,307.8,-319.8,-81.6,121.8,123.9,-30.9,-379.5,-6.3,-4.5,-202.8,-258.0,-1.8,-39.6,-120.9,123.9,0,960,0,120,0,
0.5367,-36.6,59.1,-2.1,-93.6,-236.4,-316.2,195.3,-204.3,-3260.4,312.9,-312.9,-70.8,118.8,126.6,-35.7,-364.5,-6.3,-4.5,-196.8,-248.4,-1.8,-24.9,-102.6,135.0,0,966,0,121,0,
0.5400,-42.0,53.7,-4.2,-94.8,-239.7,-322.8,195.0,-206.1,-3186.3,311.7,-312.3,-75.3,128.4,115.5,-43.2,-354.3,-6.3,-4.5,-198.6,-250.2,-1.8,-17.7,-91.8,138.0,0,972,0,122,0,
0.5433,-42.3,46.8,-11.1,-99.6,-246.3,-324.6,192.6,-216.0,-3260.4,301.2,-322.5,-80.4,122.4,123.9,-16.8,-351.0,-6.3,-4.2,-204.0,-256.2,-1.2,-26.7,-98.1,138.9,0,978,0,123,0,
0.5467,-42.6,48.6,-8.7,-99.9,-241.5,-323.4,192.6,-213.9,-3186.3,303.3,-320.4,-77.1,117.9,124.8,-9.6,-345.9,-6.0,-4.5,-203.4,-254.1,-2.1,-26.7,-93.3,139.8,0,984,0,124,0,
0.5500,-45.3,51.0,-7.8,-99.6,-242.7,-319.8,196.8,-212.1,-3260.4,305.4,-321.6,-77.7,121.8,120.3,-17.4,-340.2,-6.3,-4.2,-202.8,-255.6,-1.5,-27.3,-89.4,142.8,0,990,0,125,0,
0.5533,-41.4,57.0,2.7,-89.1,-229.5,-312.0,196.2,-205.2,-3260.4,322.5,-308.7,-67.2,136.8,133.5,-44.1,-372.3,-6.3,-4.8,-194.7,-241.8,-1.8,-9.9,-88.8,155.4,0,996,0,126,0,
0.5567,-37.8,53.1,-7.2,-96.9,-241.5,-324.6,189.6,-214.2,-3260.4,311.4,-316.8,-73.8,130.5,154.2,27.3,-357.3,-6.0,-4.2,-205.2,-253.2,-1.5,-34.2,-111.6,132.3,0,1002,0,127,0,
0.5600,-29.7,63.0,12.3,-83.7,-223.2,-312.6,194.7,-200.1,-3112.2,337.5,-298.5,-54.6,145.5,153.3,-9.0,-378.0,-6.3,-4.2,-186.9,-233.1,-1.8,-13.5,-112.8,146.1,0,1008,0,128,0,
0.5633,-30.9,66.0,17.7,-72.9,-213.0,-298.8,200.7,-192.6,-3112.2,337.5,-293.4,-45.6,148.8,138.6,-72.9,-372.3,-6.3,-4.2,-180.0,-223.2,-1.5,-2.7,-92.7,163.2,0,1014,0,129,0,
0.5667,-33.6,61.5,12.0,-75.3,-217.8,-304.8,198.0,-193.2,-3186.3,335.1,-296.4,-47.4,145.2,137.4,-55.8,-366.6,-6.9,-4.5,-183.3,-222.3,-1.8,-7.2,-90.3,156.9,0,1020,0,130,0,
0.5700,-32.4,62.7,7.5,-82.5,-222.3,-309.6,191.4,-198.0,-3334.5,326.1,-300.6,-55.8,141.6,132.0,-51.9,-363.3,-6.3,-4.5,-189.0,-231.6,-1.5,-9.0,-96.9,153.3,0,1026,0,131,0,
0.5733,-32.1,61.5,9.3,-81.0,-218.1,-307.8,192.9,-195.3,-3112.2,331.8,-298.5,-53.7,141.9,133.5,-57.9,-386.4,-6.3,-4.5,-186.6,-230.4,-1.8,1.8,-103.2,155.4,0,1032,0,132,0,
0.5767,-33.6,55.8,-0.9,-90.6,-228.6,-317.7,188.7,-201.3,-3112.2,318.3,-314.1,-66.6,134.1,140.7,-21.3,-375.9,-6.3,-4.2,-202.8,-243.0,-1.5,-17.7,-110.7,147.9,0,1038,0,133,0,
0.5800,-31.8,60.0,3.0,-89.7,-231.0,-318.6,182.7,-200.1,-3186.3,317.7,-307.8,-64.5,142.5,144.6,-4.2,-373.8,-6.0,-4.5,-195.3,-242.7,-1.8,-33.0,-121.8,143.4,0,1044,0,134,0,
0.5833,-30.6,67.2,12.0,-82.2,-221.1,-316.5,186.0,-193.2,-3186.3,323.7,-300.0,-55.8,144.0,141.6,-49.8,-376.5,-6.6,-4.8,-183.0,-232.8,-1.8,-17.1,-112.5,148.2,0,1050,0,135,0,
0.5867,-34.2,63.0,6.6,-80.1,-223.2,-311.7,187.5,-197.4,-3186.3,329.1,-300.0,-54.0,135.6,134.1,-44.1,-382.5,-6.3,-4.5,-183.9,-231.9,-1.5,-11.1,-111.0,150.9,0,1056,0,136,0,
0.5900,-33.6,57.9,2.7,-91.5,-233.1,-318.3,186.0,-203.1,-3112.2,321.9,-308.7,-66.3,132.3,129.3,-27.0,-366.0,-6.0,-4.8,-191.1,-245.7,-1.5,-24.3,-113.4,145.8,0,1062,0,137,0,
0.5933,-33.3,55.5,1.8,-91.2,-231.9,-313.2,191.4,-203.1,-3186.3,310.8,-306.9,-66.6,129.3,128.7,-35.7,-361.2,-6.3,-4.2,-194.4,-240.6,-1.8,-31.5,-110.1,144.0,0,1068,0,138,0,
0.5967,-32.7,57.3,8.4,-84.9,-223.5,-310.5,191.7,-195.6,-3112.2,320.4,-302.1,-56.1,132.9,123.9,-50.4,-382.5,-6.3,-4.5,-189.0,-232.8,-1.8,-15.6,-112.2,144.3,0,1074,0,139,0,
0.6000,-35.7,54.3,5.1,-83.7,-219.9,-309.9,193.5,-196.2,-3260.4,321.9,-303.9,-54.0,133.2,124.5,-50.7,-378.9,-6.3,-4.2,-194.1,-228.0,-2.1,-1.5,-105.3,151.2,0,1080,0,140,0,
0.6033,-33.6,56.1,7.8,-81.6,-220.8,-307.5,196.8,-197.1,-3186.3,323.4,-302.4,-48.9,135.6,121.2,-45.6,-366.6,-6.3,-4.8,-187.2,-224.4,-1.8,6.9,-96.3,158.7,0,1086,0,141,0,
0.6067,-31.5,54.0,4.8,-90.0,-224.4,-312.3,200.7,-200.4,-3038.1,318.6,-303.9,-56.4,134.4,121.8,-35.4,-357.6,-6.3,-4.2,-189.0,-233.1,-1.8,0.6,-98.7,156.3,0,1092,0,142,0,
0.6100,-34.2,49.5,1.8,-91.8,-228.9,-313.2,196.5,-203.1,-3038.1,317.1,-311.7,-59.1,136.2,121.5,-26.1,-364.2,-6.3,-4.2,-197.4,-233.4,-1.5,-0.6,-93.9,158.7,0,1098,0,143,0,
0.6133,-33.0,54.3,0.3,-96.0,-230.7,-315.6,196.2,-202.5,-3186.3,317.7,-312.0,-62.7,135.6,126.9,-21.3,-360.9,-6.3,-4.2,-197.4,-240.6,-1.5,-15.9,-91.2,149.1,0,1104,0,144,0,
0.6167,-35.7,49.2,-7.2,-100.5,-237.3,-321.3,193.2,-206.4,-3334.5,309.3,-316.2,-70.5,126.6,128.7,-3.9,-354.0,-6.3,-4.5,-201.9,-246.3,-1.8,-22.8,-93.9,147.6,0,1110,0,145,0,
0.6200,-37.2,49.2,-12.9,-108.0,-246.3,-329.7,186.9,-213.6,-3260.4,304.5,-323.4,-76.2,126.0,126.0,1.5,-348.6,-6.3,-4.5,-208.2,-255.6,-1.2,-32.1,-100.8,134.1,0,1116,0,146,0,
0.6233,-38.1,54.0,-1.8,-95.7,-229.8,-317.1,195.0,-202.2,-3260.4,322.5,-307.2,-61.2,136.2,118.8,-47.1,-364.2,-6.3,-4.5,-195.9,-240.6,-1.5,-12.6,-87.6,156.6,0,1122,0,147,0,
0.6267,-32.4,61.2,3.3,-95.7,-231.9,-315.9,195.0,-204.3,-3038.1,329.4,-302.1,-55.8,138.3,128.7,-49.8,-376.2,-6.0,-4.2,-186.0,-237.9,-1.2,-13.2,-101.1,146.7,0,1128,0,148,0,
0.6300,-32.4,54.9,-0.3,-96.6,-233.4,-315.6,193.2,-207.3,-3334.5,327.0,-308.4,-59.7,126.9,133.8,-42.6,-378.6,-6.3,-4.5,-189.6,-239.1,-1.8,-15.9,-91.2,150.0,0,1134,0,149,0,
0.6333,-32.1,55.2,-1.8,-99.3,-237.3,-318.9,195.9,-211.8,-3260.4,332.7,-308.4,-61.2,145.5,124.5,-36.6,-364.5,-6.3,-4.5,-192.0,-241.2,-1.8,-10.2,-96.3,147.6,0,1140,0,150,0,
0.6367,-35.7,50.4,-12.6,-108.6,-240.9,-324.6,193.5,-214.8,-3260.4,324.6,-315.0,-68.1,132.3,135.9,-21.3,-344.1,-6.3,-4.5,-202.2,-247.2,-1.8,-12.9,-93.0,149.4,0,1146,0,151,0,
0.6400,-29.4,50.4,-8.4,-103.2,-246.6,-325.8,199.5,-215.7,-3186.3,312.9,-316.2,-71.7,135.6,150.3,-2.7,-347.7,-6.3,-4.5,-202.5,-248.4,-1.8,-16.8,-91.5,144.0,0,1152,0,152,0,
0.6433,-28.8,50.7,-3.6,-101.7,-244.2,-329.4,193.8,-215.4,-3186.3,315.3,-310.5,-72.3,131.4,138.0,-10.8,-353.7,-6.3,-4.5,-204.0,-249.0,-1.8,-21.0,-93.0,145.5,0,1158,0,153,0,
0.6467,-30.0,56.4,-1.5,-97.8,-238.8,-322.2,193.2,-208.8,-3186.3,326.1,-303.3,-64.8,139.5,143.1,-23.4,-363.3,-6.0,-4.5,-195.9,-242.7,-1.5,-13.8,-92.1,152.1,0,1164,0,154,0,
0.6500,-36.0,50.1,-7.5,-101.7,-240.0,-323.7,191.1,-217.8,-3186.3,315.0,-314.1,-71.7,128.4,127.8,-39.0,-356.7,-6.0,-4.5,-205.8,-248.4,-2.1,-28.5,-89.7,144.9,0,1170,0,155,0,
0.6533,-32.7,49.8,-10.8,-100.2,-246.0,-324.9,190.2,-216.9,-3186.3,321.3,-316.2,-74.1,130.5,132.0,-26.7,-343.2,-6.0,-4.5,-206.1,-254.4,-1.8,-30.9,-92.7,137.4,0,1176,0,156,0,
0.6567,-29.7,54.6,-1.2,-96.0,-240.6,-325.2,189.3,-217.2,-3186.3,316.8,-308.1,-68.4,136.2,137.7,-6.6,-360.3,-6.3,-4.5,-198.6,-248.7,-1.8,-17.7,-100.5,139.5,0,1182,0,157,0,
0.6600,-29.4,53.4,-4.8,-99.3,-238.8,-326.1,187.8,-217.8,-3186.3,321.3,-313.5,-70.5,129.0,134.7,-22.2,-358.2,-6.3,-4.5,-201.3,-250.2,-1.5,-17.4,-88.5,140.4,0,1188,0,158,0,
0.6633,-34.5,50.7,-6.3,-100.2,-238.8,-324.3,188.1,-219.6,-3186.3,314.7,-312.6,-69.6,125.4,128.4,-27.9,-357.3,-6.3,-4.5,-204.0,-248.7,-1.8,-33.0,-94.2,141.3,0,1194,0,159,0,
0.6667,-31.8,52.8,-5.4,-101.7,-237.3,-327.0,190.2,-218.4,-3408.6,309.6,-309.9,-69.0,133.5,137.4,-26.4,-353.1,-6.3,-4.5,-202.8,-248.4,-1.5,-32.4,-84.3,141.3,0,1200,0,160,0,
0.6700,-30.9,54.3,-11.1,-105.6,-246.9,-332.7,182.1,-223.8,-3334.5,308.4,-313.5,-78.0,132.0,141.0,-3.3,-368.4,-6.0,-4.5,-203.7,-256.8,-1.5,-25.2,-107.1,128.1,0,1206,0,161,0,
0.6733,-27.6,48.0,-10.8,-107.7,-246.9,-336.6,183.9,-224.7,-3260.4,321.0,-318.0,-81.3,129.3,141.6,1.5,-361.5,-6.0,-4.2,-210.0,-259.5,-1.5,-36.0,-102.0,128.4,0,1212,0,162,0,
0.6767,-28.5,60.6,4.8,-90.9,-228.9,-313.2,195.0,-208.8,-3038.1,333.6,-299.1,-61.5,132.0,119.4,-69.0,-370.8,-6.9,-4.2,-189.0,-238.8,-1.8,-12.0,-89.1,151.2,0,1218,0,163,0,
0.6800,-31.2,62.7,5.1,-89.4,-231.0,-317.4,190.2,-210.0,-3112.2,337.5,-299.1,-56.4,141.9,125.7,-58.2,-382.2,-6.3,-4.5,-190.2,-236.1,-1.8,-11.4,-99.0,149.7,0,1224,0,164,0,
0.6833,-31.5,55.5,-5.1,-89.1,-234.3,-316.2,192.3,-213.9,-3186.3,327.3,-304.2,-58.8,138.6,126.3,-35.4,-374.4,-6.3,-4.2,-194.1,-237.6,-1.5,-12.9,-98.4,148.2,0,1230,0,165,0,
0.6867,-32.1,56.4,-4.2,-90.6,-234.3,-320.4,193.2,-215.4,-3186.3,317.7,-307.2,-66.3,132.0,126.9,-32.7,-365.4,-6.3,-4.5,-197.7,-245.4,-1.5,-23.7,-97.2,143.4,0,1236,0,166,0,
0.6900,-35.4,53.4,-5.1,-88.2,-234.3,-320.1,192.3,-217.2,-3038.1,319.5,-306.6,-63.0,131.1,124.2,-22.2,-358.8,-6.6,-4.5,-198.3,-241.8,-1.8,-17.4,-98.4,143.7,0,1242,0,167,0,
0.6933,-33.6,51.6,-9.9,-94.5,-240.3,-324.0,189.9,-223.2,-3186.3,312.6,-312.6,-71.4,132.6,134.4,-5.1,-363.9,-6.0,-4.2,-207.0,-248.7,-1.8,-27.0,-104.1,138.9,0,1248,0,168,0,
0.6967,-39.9,55.2,-10.5,-93.0,-239.4,-321.9,189.6,-218.1,-3186.3,311.4,-311.1,-72.6,128.1,120.9,-30.3,-365.7,-6.3,-4.5,-204.0,-249.0,-2.1,-35.7,-108.0,137.1,0,1254,0,169,0,
0.7000,-33.9,58.5,-5.7,-86.7,-231.9,-313.8,193.2,-210.9,-3186.3,318.9,-301.8,-62.7,128.7,114.9,-60.3,-381.9,-6.6,-4.2,-195.9,-237.3,-1.8,-15.3,-101.1,147.3,0,1260,0,170,0,
0.7033,-39.3,52.8,-10.2,-92.7,-235.2,-312.6,195.3,-216.9,-3112.2,310.5,-307.5,-64.8,120.3,107.7,-42.9,-364.8,-5.7,-4.5,-204.0,-240.0,-1.5,-16.5,-102.9,148.5,0,1266,0,171,0,
0.7067,-36.3,62.1,-1.5,-87.3,-227.4,-314.7,193.8,-211.2,-3112.2,321.0,-299.1,-56.4,126.0,109.8,-50.7,-381.6,-6.3,-4.2,-189.0,-230.7,-1.5,-18.0,-100.5,150.0,0,1272,0,172,0,
0.7100,-39.9,55.2,-7.5,-95.1,-234.3,-318.0,189.6,-214.5,-3186.3,306.3,-304.8,-62.4,119.1,119.7,-20.4,-376.2,-6.3,-4.8,-199.2,-239.4,-1.8,-17.4,-98.7,144.6,0,1278,0,173,0,
0.7133,-39.6,49.8,-13.8,-97.5,-240.6,-324.6,182.4,-221.7,-3334.5,304.8,-313.8,-70.2,112.2,126.0,-10.8,-378.6,-6.3,-4.5,-204.0,-243.3,-1.5,-27.6,-110.1,137.4,0,1284,0,174,0,
0.7167,-38.1,50.4,-11.4,-100.5,-240.0,-325.2,183.9,-223.2,-3260.4,308.7,-312.9,-67.8,115.2,138.6,10.8,-366.9,-6.3,-4.5,-201.3,-247.8,-1.8,-34.8,-118.8,132.3,0,1290,0,175,0,
0.7200,-35.1,53.4,-1.5,-89.7,-229.8,-315.6,190.8,-215.4,-3260.4,324.6,-298.5,-55.2,131.7,128.1,-30.6,-363.3,-6.3,-4.5,-188.4,-235.5,-1.8,-23.1,-106.5,136.5,0,1296,0,176,0,
0.7233,-35.1,58.5,0.9,-85.5,-228.0,-316.2,195.6,-216.3,-3038.1,331.8,-292.8,-49.8,137.7,128.4,-44.1,-359.1,-6.0,-4.8,-186.0,-230.1,-1.8,-15.9,-96.0,144.9,0,1302,0,177,0,
0.7267,-35.1,57.0,-4.2,-92.1,-236.4,-320.7,189.0,-221.1,-3112.2,322.8,-300.6,-58.8,135.3,134.1,-11.7,-361.8,-6.0,-4.8,-190.2,-240.0,-1.5,-19.2,-100.2,137.4,0,1308,0,178,0,
0.7300,-35.4,56.1,-4.5,-88.2,-232.5,-317.4,195.3,-219.9,-3038.1,313.8,-302.7,-57.9,124.8,138.3,-9.0,-352.5,-6.0,-4.2,-197.4,-235.2,-1.5,-3.0,-88.2,146.4,0,1314,0,179,0,
0.7333,-38.1,55.8,1.5,-80.7,-222.6,-309.6,197.7,-213.6,-3260.4,323.1,-293.4,-47.4,125.1,122.4,-52.8,-368.4,-6.3,-4.2,-188.1,-227.1,-1.5,10.2,-74.7,160.8,0,1320,0,180,0,
0.7367,-34.5,60.9,2.1,-81.3,-222.9,-312.0,198.3,-212.1,-3112.2,325.8,-294.3,-48.9,133.2,129.6,-37.8,-375.3,-5.7,-4.5,-189.0,-228.3,-1.8,-6.0,-78.6,155.4,0,1326,0,181,0,
0.7400,-33.9,62.7,-2.7,-85.2,-227.4,-313.8,199.8,-212.1,-3112.2,325.5,-297.0,-52.8,136.5,127.5,-41.1,-378.3,-6.0,-4.5,-187.2,-232.8,-1.8,-6.3,-79.8,155.7,0,1332,0,182,0,
0.7433,-33.3,60.3,-0.6,-84.0,-229.2,-315.3,198.0,-214.2,-3112.2,325.5,-299.1,-55.2,135.6,126.9,-30.6,-378.3,-6.6,-4.2,-189.3,-235.8,-1.5,-10.8,-92.1,146.4,0,1338,0,183,0,
0.7467,-31.5,62.4,-3.3,-88.5,-233.7,-317.1,198.3,-213.3,-3260.4,312.6,-304.5,-62.7,135.6,133.8,-15.0,-365.1,-6.3,-4.2,-194.4,-240.0,-2.1,-17.1,-89.7,143.7,0,1344,0,184,0,
0.7500,-29.4,61.5,3.0,-83.4,-232.5,-316.2,197.4,-212.4,-3260.4,323.7,-299.7,-61.8,137.7,130.2,-30.9,-362.7,-6.0,-3.9,-187.5,-236.1,-1.5,-16.5,-78.6,144.9,0,1350,0,185,0,
0.7533,-30.6,60.3,-1.2,-86.1,-232.8,-315.3,194.1,-211.8,-3260.4,326.7,-298.5,-60.9,139.8,133.5,-34.2,-375.3,-6.6,-4.5,-187.5,-238.8,-1.8,-21.0,-90.0,141.9,0,1356,0,186,0,
0.7567,-35.4,58.2,-10.5,-96.0,-242.7,-327.0,188.7,-219.3,-3186.3,320.4,-314.4,-72.0,133.5,136.8,-12.9,-377.1,-6.3,-4.5,-197.4,-250.2,-1.5,-40.2,-98.7,132.9,0,1362,0,187,0,
0.7600,-36.3,52.5,-17.1,-101.7,-246.3,-329.4,187.5,-224.7,-3186.3,305.1,-318.3,-74.7,128.7,133.8,3.3,-366.0,-6.3,-4.2,-207.6,-254.4,-1.2,-31.5,-93.6,133.2,0,1368,0,188,0,
0.7633,-31.5,67.2,5.7,-87.0,-234.0,-321.0,191.7,-212.1,-3260.4,330.0,-298.5,-58.2,138.9,142.5,-39.0,-395.4,-6.0,-4.8,-183.0,-240.6,-1.8,-16.5,-95.4,142.5,0,1374,0,189,0,
0.7667,-28.2,61.2,-1.8,-88.8,-236.7,-321.3,193.5,-216.0,-3260.4,324.9,-305.1,-63.9,140.4,137.1,-48.0,-388.2,-6.3,-4.5,-194.1,-241.8,-1.8,-23.1,-96.6,140.4,0,1380,0,190,0,
0.7700,-35.4,51.0,-17.4,-105.0,-250.8,-333.0,188.7,-225.9,-3186.3,300.6,-324.6,-82.8,126.0,138.6,-12.0,-359.7,-6.0,-4.8,-209.7,-260.1,-1.5,-38.7,-102.0,125.4,0,1386,0,191,0,
0.7733,-38.7,51.0,-21.0,-102.0,-252.3,-329.1,189.6,-229.8,-3112.2,308.4,-324.3,-82.2,124.8,124.2,-24.6,-355.5,-6.0,-4.5,-210.0,-260.1,-2.1,-39.3,-99.6,129.0,0,1392,0,192,0,
0.7767,-36.3,51.9,-18.3,-104.1,-251.7,-328.2,192.3,-224.7,-3260.4,301.5,-325.5,-84.6,126.3,133.8,-29.4,-374.1,-6.0,-4.5,-213.3,-258.6,-1.5,-37.8,-96.0,133.8,0,1398,0,193,0,
0.7800,-36.9,51.3,-16.5,-101.1,-247.8,-328.2,191.1,-228.0,-3186.3,300.3,-321.6,-83.4,124.5,129.3,-28.2,-367.2,-6.0,-4.5,-210.0,-258.0,-1.8,-32.7,-92.1,134.1,0,1404,0,194,0,
0.7833,-36.9,57.9,-10.2,-94.8,-238.8,-320.7,197.4,-221.1,-3260.4,309.9,-312.0,-70.5,124.8,117.3,-51.0,-363.3,-6.3,-4.5,-203.1,-249.6,-1.8,-24.9,-80.4,146.7,0,1410,0,195,0,
0.7867,-38.1,49.5,-17.4,-99.6,-246.6,-327.6,190.5,-227.7,-3260.4,305.1,-321.3,-78.3,111.6,113.7,-33.6,-362.1,-6.6,-4.5,-214.8,-253.8,-1.8,-26.4,-90.6,142.8,0,1416,0,196,0,
0.7900,-36.3,53.1,-13.8,-98.7,-244.2,-324.0,195.0,-223.8,-3260.4,305.7,-317.4,-75.3,124.2,123.3,-36.6,-369.9,-6.3,-4.5,-210.6,-252.0,-1.8,-24.6,-88.5,146.1,0,1422,0,197,0,
0.7933,-41.4,45.9,-18.9,-101.7,-247.2,-329.4,192.3,-227.7,-3112.2,297.9,-323.7,-80.7,116.1,116.1,-47.1,-380.4,-6.3,-4.8,-215.1,-256.2,-1.5,-29.4,-97.2,138.9,0,1428,0,198,0,
0.7967,-40.8,48.9,-17.7,-98.7,-243.3,-323.4,198.3,-220.2,-3186.3,302.1,-319.5,-76.2,119.4,108.9,-39.9,-369.9,-6.6,-4.8,-210.3,-252.9,-2.1,-36.3,-98.1,135.0,0,1434,0,199,0,
0.8000,-42.6,44.7,-16.8,-98.1,-239.4,-319.8,198.6,-219.6,-3334.5,302.4,-321.6,-77.7,115.5,111.0,-39.0,-373.5,-6.0,-4.8,-215.7,-251.7,-1.5,-24.3,-91.8,141.3,0,1440,0,200,0,
0.8033,-41.4,53.4,-10.8,-90.3,-234.0,-312.6,201.9,-213.0,-3334.5,299.7,-313.8,-65.1,115.2,119.7,-23.7,-366.3,-5.7,-4.2,-210.3,-241.8,-1.8,-26.1,-89.7,145.5,0,1446,0,201,0,
0.8067,-38.7,55.8,-8.4,-91.5,-236.7,-319.2,199.5,-216.3,-3112.2,297.3,-315.0,-73.2,122.7,125.4,-9.9,-369.0,-6.0,-4.5,-210.0,-249.0,-1.8,-39.6,-93.3,146.7,0,1452,0,202,0,
0.8100,-37.5,59.1,-5.7,-85.2,-233.1,-314.1,205.2,-207.9,-3186.3,314.1,-305.4,-63.0,124.8,127.2,-28.2,-357.6,-6.3,-4.5,-199.2,-240.6,-1.5,-17.4,-81.0,149.1,0,1458,0,203,0,
0.8133,-36.6,56.7,-7.2,-91.5,-231.9,-312.0,203.1,-208.8,-3186.3,311.4,-307.8,-63.9,122.1,125.1,-27.9,-354.3,-6.0,-4.5,-203.1,-240.3,-1.8,-20.1,-79.5,152.1,0,1464,0,204,0,
0.8167,-39.9,59.1,-1.5,-82.5,-227.4,-305.1,209.1,-202.2,-3334.5,314.7,-299.7,-53.7,129.9,119.1,-60.6,-372.0,-6.6,-4.5,-193.5,-230.1,-1.5,-4.2,-65.7,166.5,0,1470,0,205,0,
0.8200,-37.8,61.8,-2.4,-80.4,-223.5,-307.5,205.2,-204.6,-3186.3,318.3,-297.6,-50.4,131.7,114.6,-49.5,-384.3,-6.3,-4.5,-193.5,-228.0,-1.8,-1.8,-84.9,154.8,0,1476,0,206,0,
0.8233,-38.7,62.4,5.1,-75.3,-220.5,-304.5,201.9,-204.3,-3186.3,324.3,-292.2,-48.6,140.7,115.5,-52.2,-384.3,-6.6,-4.2,-187.2,-225.3,-1.8,-16.2,-88.2,153.6,0,1482,0,207,0,
0.8267,-43.8,54.6,-7.5,-87.6,-230.1,-315.3,195.6,-214.2,-3260.4,300.3,-305.1,-56.7,129.9,112.8,-26.7,-366.6,-6.6,-4.5,-202.5,-234.3,-1.8,-36.3,-95.4,141.6,0,1488,0,208,0,
0.8300,-40.8,51.6,-15.6,-96.3,-238.2,-324.6,189.3,-222.3,-3186.3,293.7,-310.5,-65.4,117.0,120.3,19.2,-360.9,-6.3,-4.5,-206.7,-246.9,-1.5,-59.1,-106.2,126.0,0,1494,0,209,0,
0.8333,-41.7,58.2,-3.6,-85.2,-224.1,-307.8,198.0,-210.6,-3260.4,301.8,-296.7,-54.0,116.7,108.9,-36.6,-372.9,-6.0,-4.8,-196.8,-230.1,-1.5,-29.1,-86.7,146.1,0,1500,0,210,0,
0.8367,-35.7,61.5,0.9,-86.4,-224.4,-306.6,200.4,-210.9,-3112.2,315.3,-291.6,-46.8,130.8,105.3,-56.7,-372.0,-5.7,-4.2,-189.9,-228.9,-1.8,-17.4,-89.7,139.5,0,1506,0,211,0,
0.8400,-40.8,59.7,-2.1,-84.0,-224.4,-311.1,200.7,-209.7,-3186.3,318.9,-290.4,-47.4,116.4,100.8,-54.6,-370.8,-6.3,-4.5,-192.9,-227.4,-2.1,-16.2,-91.2,146.1,0,1512,0,212,0,
0.8433,-35.1,60.6,3.3,-83.1,-225.3,-312.3,198.9,-207.6,-3112.2,322.5,-292.2,-44.7,127.8,114.6,-35.7,-397.2,-6.0,-4.2,-192.3,-224.4,-1.5,-5.7,-90.6,153.6,0,1518,0,213,0,
0.8467,-38.7,56.1,-4.2,-87.3,-228.9,-312.6,199.5,-207.6,-3112.2,313.8,-297.9,-53.1,136.5,108.6,-44.4,-364.8,-6.3,-4.5,-195.6,-231.9,-1.8,-11.4,-81.0,153.3,0,1524,0,214,0,
0.8500,-36.9,53.7,-4.8,-88.5,-231.0,-315.0,192.3,-211.2,-3112.2,312.3,-303.0,-56.7,132.6,114.9,-35.7,-367.5,-6.3,-4.8,-201.6,-236.1,-1.8,-23.4,-87.9,149.4,0,1530,0,215,0,
0.8533,-34.2,62.7,5.1,-79.8,-224.4,-309.3,197.7,-204.6,-3186.3,330.6,-287.1,-47.1,138.9,121.8,-34.5,-377.1,-6.3,-4.8,-184.2,-228.6,-1.8,-30.0,-97.2,146.4,0,1536,0,216,0,
0.8567,-34.8,60.3,5.7,-79.8,-224.4,-304.8,196.5,-207.9,-3112.2,325.8,-287.1,-43.2,134.7,120.0,-34.2,-380.7,-6.3,-4.5,-186.0,-223.5,-1.8,-11.7,-95.1,148.2,0,1542,0,217,0,
0.8600,-35.1,60.6,1.5,-84.6,-225.6,-310.2,197.1,-207.6,-3038.1,321.3,-292.5,-48.0,137.4,128.7,-14.4,-364.2,-6.3,-4.5,-190.2,-227.7,-1.5,-21.6,-93.9,147.6,0,1548,0,218,0,
0.8633,-34.8,63.0,9.3,-81.9,-221.4,-305.7,197.4,-205.2,-3112.2,330.0,-288.0,-44.4,143.4,131.4,-29.4,-375.0,-6.9,-4.8,-185.1,-223.2,-1.5,-12.3,-83.7,159.9,0,1554,0,219,0,
0.8667,-36.9,60.6,3.6,-78.3,-217.2,-303.6,198.3,-206.1,-3186.3,326.4,-286.2,-39.9,139.8,130.5,-40.2,-383.7,-5.7,-4.5,-186.9,-219.3,-1.8,-9.6,-84.3,161.7,0,1560,0,220,0,
0.8700,-36.3,67.2,12.9,-69.0,-211.5,-301.5,203.1,-201.3,-3186.3,331.5,-283.2,-33.9,141.0,129.9,-27.6,-374.7,-6.0,-4.8,-177.6,-214.5,-1.5,6.3,-85.8,165.6,0,1566,0,221,0,
0.8733,-34.8,69.0,12.0,-70.8,-210.0,-296.1,206.7,-197.1,-3186.3,333.6,-280.8,-35.7,151.2,136.8,-24.6,-370.5,-6.3,-4.2,-177.3,-213.9,-1.8,9.0,-77.4,165.9,0,1572,0,222,0,
0.8767,-37.2,68.1,7.2,-73.5,-213.3,-299.1,204.3,-201.0,-3112.2,337.8,-284.4,-38.7,147.0,131.7,-33.6,-359.4,-6.3,-4.5,-182.4,-218.7,-1.8,-6.3,-71.4,162.6,0,1578,0,223,0,
0.8800,-36.0,64.2,4.5,-73.5,-215.1,-304.2,202.8,-203.4,-3186.3,327.3,-283.2,-42.0,140.1,139.2,-27.3,-365.7,-6.3,-4.5,-181.2,-220.2,-1.8,-12.3,-81.3,155.1,0,1584,0,224,0,
0.8833,-43.2,60.0,0.9,-80.1,-222.9,-310.8,196.8,-211.2,-3260.4,325.2,-292.8,-50.4,139.5,136.5,-15.0,-364.5,-6.0,-4.5,-186.9,-231.9,-2.1,-26.4,-88.8,152.7,0,1590,0,225,0,
0.8867,-40.8,63.6,0.6,-81.3,-224.7,-311.7,198.0,-210.3,-3186.3,324.0,-295.5,-53.7,139.8,134.7,-33.9,-360.3,-6.3,-4.8,-191.7,-233.1,-1.8,-27.6,-87.0,155.1,0,1596,0,226,0,
0.8900,-42.9,62.4,-0.3,-79.8,-221.4,-310.5,201.6,-210.9,-3112.2,330.6,-294.6,-49.5,130.2,125.4,-36.9,-355.8,-6.0,-4.5,-191.1,-229.5,-1.8,-11.4,-75.9,157.2,0,1602,0,227,0,
0.8933,-38.1,61.8,0.6,-81.3,-222.9,-308.1,202.5,-207.6,-3186.3,313.8,-296.1,-47.7,123.9,134.4,-18.3,-354.0,-6.6,-4.5,-195.3,-227.1,-1.8,-15.0,-70.8,155.7,0,1608,0,228,0,
0.8967,-38.4,61.8,3.6,-81.9,-226.2,-310.2,196.5,-208.2,-3186.3,313.8,-304.2,-56.4,128.1,130.8,-8.1,-365.1,-6.6,-4.5,-202.5,-232.2,-1.8,-9.3,-83.1,150.3,0,1614,0,229,0,
0.9000,-34.5,63.3,0.6,-80.4,-224.4,-310.8,197.7,-207.6,-3186.3,310.8,-306.6,-60.9,129.9,133.2,-10.8,-376.5,-6.3,-4.5,-204.9,-235.8,-1.5,-20.4,-88.2,151.5,0,1620,0,230,0,
0.9033,-36.3,68.4,9.9,-74.1,-215.1,-303.9,198.9,-202.5,-3186.3,327.9,-292.5,-43.5,146.1,129.9,-39.0,-374.7,-6.3,-4.5,-188.4,-222.3,-1.5,-11.7,-82.5,158.4,0,1626,0,231,0,
0.9067,-32.1,76.2,17.7,-71.1,-212.7,-305.7,199.5,-203.4,-3186.3,335.1,-285.9,-43.2,151.8,135.0,-29.4,-372.3,-6.3,-4.2,-180.6,-221.4,-1.5,-12.6,-90.3,158.4,0,1632,0,232,0,
0.9100,-33.6,74.1,18.0,-72.6,-214.5,-307.8,191.4,-206.4,-3186.3,327.3,-282.9,-43.2,148.2,138.9,-19.5,-375.9,-6.3,-4.5,-177.0,-223.8,-1.5,-12.9,-89.7,150.3,0,1638,0,233,0,
0.9133,-26.4,74.1,18.0,-71.4,-220.2,-317.1,192.3,-208.8,-3260.4,323.1,-281.4,-42.6,152.4,154.2,17.7,-358.2,-6.3,-4.2,-176.4,-227.1,-1.8,-21.6,-90.6,147.3,0,1644,0,234,0,
0.9167,-29.4,66.6,6.0,-79.8,-223.8,-322.8,188.4,-213.6,-3260.4,310.8,-290.4,-52.8,147.3,151.8,32.1,-372.6,-6.6,-4.8,-185.7,-237.9,-1.8,-24.3,-96.3,142.5,0,1650,0,235,0,
0.9200,-27.0,76.8,20.1,-66.9,-210.6,-303.9,198.9,-197.4,-3186.3,329.1,-277.2,-36.0,154.5,141.6,-24.9,-380.7,-6.3,-4.5,-172.8,-218.1,-2.4,-3.3,-88.5,162.3,0,1656,0,236,0,
0.9233,-32.7,78.6,27.0,-57.6,-198.3,-294.0,205.2,-191.7,-3112.2,341.1,-263.4,-22.2,152.1,114.0,-77.1,-368.4,-6.6,-4.5,-163.2,-206.7,-1.8,-5.4,-75.3,173.7,0,1662,0,237,0,
0.9267,-31.2,75.3,25.2,-63.3,-209.7,-303.6,198.0,-194.4,-3186.3,332.7,-270.6,-29.1,147.0,126.6,-49.2,-371.1,-6.6,-4.5,-170.7,-215.4,-1.5,-9.0,-86.4,159.3,0,1668,0,238,0,
0.9300,-31.2,75.3,22.8,-62.4,-201.9,-297.6,195.0,-194.4,-3112.2,327.6,-268.8,-26.1,145.2,119.7,-41.7,-362.1,-6.0,-4.8,-165.0,-210.9,-1.8,-14.4,-81.0,158.1,0,1674,0,239,0,
0.9333,-25.2,86.4,36.6,-48.0,-188.7,-282.6,199.8,-184.8,-3260.4,346.8,-250.8,-6.6,163.5,125.4,-69.3,-389.4,-6.3,-4.5,-150.3,-196.5,-1.5,5.7,-85.8,169.8,0,1680,0,240,0,
0.9367,-27.3,89.4,39.0,-44.1,-187.8,-283.2,202.5,-181.8,-3260.4,335.4,-249.9,-7.8,151.8,121.2,-64.8,-401.7,-6.3,-5.1,-147.0,-194.1,-1.5,4.2,-90.9,165.0,0,1686,0,241,0,
0.9400,-33.3,76.2,24.3,-59.7,-205.2,-301.8,201.6,-191.1,-3112.2,329.4,-267.3,-27.3,143.1,111.6,-36.0,-380.1,-6.0,-4.2,-166.8,-213.0,-1.8,-9.3,-98.4,151.2,0,1692,0,242,0,
0.9433,-39.0,69.3,14.1,-69.6,-211.8,-309.6,195.6,-195.0,-3186.3,326.4,-276.0,-32.4,136.2,119.4,-20.4,-374.7,-6.6,-4.5,-176.4,-222.0,-1.8,-28.2,-105.6,146.1,0,1698,0,243,0,
0.9467,-36.3,74.4,17.7,-62.4,-210.9,-306.3,198.0,-194.1,-3186.3,321.0,-270.3,-28.5,147.6,115.8,-43.2,-380.7,-6.0,-4.2,-170.7,-218.7,-1.5,-12.9,-95.4,157.8,0,1704,0,244,0,
0.9500,-35.1,72.3,15.6,-63.6,-210.3,-308.7,199.5,-194.1,-3260.4,329.1,-274.5,-30.9,138.9,120.0,-38.4,-373.8,-6.3,-4.2,-176.1,-217.8,-1.5,-9.0,-86.7,151.5,0,1710,0,245,0,
0.9533,-31.2,72.0,14.1,-65.4,-213.6,-309.6,198.0,-194.1,-3186.3,328.8,-272.1,-30.3,144.0,124.8,-35.4,-386.1,-6.3,-3.9,-176.4,-219.6,-1.8,-2.4,-96.0,152.4,0,1716,0,246,0,
0.9567,-38.4,68.7,3.0,-75.9,-222.3,-315.3,194.7,-201.6,-3112.2,317.1,-282.0,-39.6,135.9,122.4,-27.0,-369.0,-6.0,-4.5,-186.0,-228.6,-1.8,-14.7,-87.3,149.1,0,1722,0,247,0,
0.9600,-33.9,73.8,10.5,-76.2,-216.0,-310.5,198.0,-199.2,-3186.3,328.8,-280.2,-33.9,142.8,121.8,-41.1,-365.7,-6.6,-4.5,-182.1,-221.4,-1.8,13.8,-73.5,160.2,0,1728,0,248,0,
0.9633,-33.6,68.1,5.7,-78.3,-218.4,-315.0,198.6,-200.7,-3260.4,316.2,-283.5,-36.6,135.3,128.4,-17.7,-371.7,-6.3,-4.2,-186.3,-224.7,-2.1,-17.4,-86.7,153.3,0,1734,0,249,0,
0.9667,-28.5,69.3,5.1,-82.2,-221.1,-315.9,198.6,-201.3,-3260.4,318.3,-284.1,-45.3,135.0,129.6,-10.8,-367.5,-6.0,-4.5,-184.5,-229.2,-1.8,-15.6,-92.1,149.4,0,1740,0,250,0,
0.9700,-31.5,65.1,-2.1,-87.6,-230.7,-316.8,197.1,-207.6,-3186.3,318.3,-288.6,-49.8,139.5,130.5,-15.6,-368.4,-6.0,-4.5,-188.1,-236.1,-2.1,-34.5,-97.5,151.2,0,1746,0,251,0,
0.9733,-32.7,62.1,-7.5,-98.1,-237.3,-321.9,195.0,-216.9,-3186.3,309.9,-297.3,-58.2,135.6,126.3,-7.8,-353.7,-6.0,-4.5,-195.9,-246.0,-1.5,-39.9,-102.0,139.8,0,1752,0,252,0,
0.9767,-30.9,61.2,-4.8,-94.8,-237.3,-321.3,195.3,-213.6,-3186.3,306.3,-294.9,-59.4,129.9,141.3,-7.8,-366.6,-6.6,-4.2,-194.7,-246.3,-1.5,-34.8,-99.3,142.5,0,1758,0,253,0,
0.9800,-30.9,58.8,-11.1,-100.8,-242.4,-326.4,191.7,-217.5,-3186.3,320.7,-302.7,-66.0,137.7,147.6,9.0,-354.0,-6.3,-4.2,-200.1,-250.5,-1.5,-27.0,-91.5,143.4,0,1764,0,254,0,
0.9833,-29.4,71.4,3.9,-85.2,-225.3,-314.1,198.9,-208.2,-3186.3,330.3,-277.8,-43.5,152.4,145.5,-17.7,-367.8,-6.0,-4.5,-177.0,-233.1,-1.5,-16.5,-85.8,150.9,0,1770,0,255,0,
0.9867,-25.5,73.2,8.7,-76.2,-214.8,-304.2,200.7,-200.4,-3112.2,341.1,-273.0,-33.6,159.9,141.6,-42.3,-366.6,-6.3,-4.5,-174.3,-223.2,-1.5,1.2,-80.7,164.4,0,1776,0,0,0,
0.9900,-30.0,72.6,6.9,-76.2,-216.6,-304.2,208.2,-202.2,-3112.2,332.7,-277.2,-36.9,153.0,138.9,-41.7,-357.6,-6.3,-4.5,-174.6,-224.7,-1.8,-2.1,-70.2,165.6,0,1782,0,1,0,
0.9933,-33.9,67.5,0.6,-88.2,-225.6,-305.7,205.5,-209.1,-3038.1,323.1,-285.0,-43.5,147.9,134.1,-26.1,-348.0,-6.0,-4.5,-185.7,-229.8,-1.8,-0.9,-66.3,159.0,0,1788,0,2,0,
0.9967,-35.7,62.4,-2.4,-90.6,-225.0,-310.5,204.6,-211.8,-3186.3,316.2,-288.6,-45.0,142.2,130.5,-10.5,-342.9,-6.3,-4.5,-187.8,-231.0,-1.5,-8.4,-71.7,160.8,0,1794,0,3,0,
1.0000,-35.1,68.1,3.6,-83.7,-220.2,-307.5,205.5,-208.5,-3260.4,326.1,-283.8,-38.4,146.4,132.3,-23.1,-343.2,-6.3,-4.5,-185.1,-224.7,-1.5,1.8,-66.9,161.7,0,1800,0,4,0,
1.0033,-28.5,77.4,12.9,-75.9,-209.4,-300.0,208.2,-197.1,-3186.3,334.5,-275.7,-32.4,156.3,142.2,-30.0,-371.1,-6.0,-4.5,-175.5,-219.0,-1.8,9.9,-81.0,161.1,0,1806,0,5,0,
1.0067,-30.3,70.2,3.0,-85.8,-224.4,-309.0,200.4,-209.4,-3112.2,324.6,-288.6,-45.6,152.1,154.8,6.0,-367.2,-6.0,-4.2,-188.1,-231.9,-1.5,-13.5,-92.7,151.2,0,1812,0,6,0,
1.0100,-32.4,70.8,2.4,-84.0,-222.6,-310.5,200.7,-208.5,-2964.0,321.9,-288.6,-45.9,152.1,153.0,2.7,-365.1,-6.3,-4.5,-186.6,-231.0,-1.2,-24.9,-93.6,145.5,0,1818,0,7,0,
1.0133,-32.7,78.9,9.6,-77.7,-215.4,-303.3,199.8,-202.5,-3186.3,333.3,-284.4,-40.5,158.4,145.2,-16.8,-374.1,-6.6,-4.5,-180.0,-225.3,-1.8,-4.2,-87.0,157.2,0,1824,0,8,0,
1.0167,-31.8,78.0,15.0,-74.1,-210.3,-292.8,210.3,-197.7,-3186.3,338.4,-275.7,-28.5,160.8,134.7,-38.4,-363.6,-6.0,-4.5,-174.9,-217.8,-1.5,11.4,-76.5,167.4,0,1830,0,9,0,
1.0200,-37.8,73.8,10.2,-78.3,-210.9,-295.8,207.0,-201.0,-3186.3,332.4,-281.4,-37.8,145.2,129.0,-56.4,-364.5,-6.6,-4.2,-177.3,-221.4,-1.8,1.2,-90.9,156.9,0,1836,0,10,0,
1.0233,-36.9,69.9,3.6,-83.7,-216.6,-301.5,200.4,-207.3,-3112.2,327.3,-290.4,-43.8,139.5,139.8,-28.8,-360.0,-6.3,-4.2,-189.3,-227.7,-1.8,-17.7,-102.6,141.9,0,1842,0,11,0,
1.0267,-38.4,67.8,0.6,-84.9,-223.2,-309.9,197.4,-208.8,-3112.2,320.1,-291.0,-50.1,140.7,144.0,-29.1,-363.3,-6.0,-4.2,-191.1,-235.2,-1.5,-22.2,-102.0,141.6,0,1848,0,12,0,
1.0300,-35.1,61.8,-2.1,-91.2,-228.6,-313.5,196.8,-210.9,-3112.2,309.9,-296.4,-53.4,139.8,142.2,-3.3,-346.2,-6.3,-4.2,-198.6,-240.9,-1.5,-24.0,-102.9,133.8,0,1854,0,13,0,
1.0333,-34.2,69.3,2.1,-83.7,-222.3,-306.0,195.9,-205.5,-3334.5,327.6,-288.9,-45.9,133.2,136.2,-26.4,-360.6,-6.6,-4.5,-186.9,-234.3,-1.8,-23.7,-104.7,142.5,0,1860,0,14,0,
1.0367,-34.5,67.8,9.3,-85.5,-223.5,-310.2,191.1,-206.1,-3186.3,327.6,-289.2,-45.9,140.4,142.5,-29.1,-374.7,-6.3,-4.5,-185.4,-234.3,-1.5,-35.1,-113.7,139.5,0,1866,0,15,0,
1.0400,-35.7,69.0,4.2,-87.6,-221.1,-311.4,191.1,-207.9,-3260.4,320.4,-288.6,-44.1,146.4,149.4,-15.3,-379.2,-6.3,-4.8,-189.9,-231.9,-1.8,-28.5,-115.8,141.3,0,1872,0,16,0,
1.0433,-35.1,65.7,0.6,-90.3,-220.2,-312.0,192.3,-210.6,-3112.2,331.8,-291.3,-48.9,140.7,147.3,-10.2,-372.0,-6.6,-4.2,-190.2,-236.7,-1.8,-29.4,-114.6,140.4,0,1878,0,17,0,
1.0467,-32.4,69.0,6.9,-78.9,-215.4,-303.9,196.5,-208.5,-3186.3,330.9,-286.8,-41.4,143.7,144.0,-26.4,-366.0,-6.6,-4.8,-187.2,-225.3,-1.5,-11.1,-105.3,148.2,0,1884,0,18,0,
1.0500,-39.0,69.0,10.5,-75.0,-210.3,-298.5,198.9,-203.1,-3260.4,328.8,-281.7,-36.0,146.7,121.2,-54.6,-360.6,-6.3,-4.2,-182.7,-222.6,-1.5,1.8,-94.8,154.8,0,1890,0,19,0,
1.0533,-38.1,68.4,8.7,-81.6,-214.8,-302.4,202.2,-207.0,-3038.1,309.6,-285.9,-39.0,143.1,123.9,-36.0,-357.3,-6.6,-4.2,-188.7,-222.0,-1.5,-3.3,-93.9,159.6,0,1896,0,20,0,
1.0567,-39.6,63.9,2.4,-86.4,-222.3,-312.6,195.0,-209.7,-3038.1,307.8,-290.4,-42.0,139.8,123.0,-13.2,-353.1,-6.6,-4.5,-191.1,-231.0,-1.5,-9.9,-97.2,150.9,0,1902,0,21,0,
1.0600,-36.0,62.1,-0.3,-91.5,-227.4,-316.5,190.5,-216.0,-3186.3,303.9,-296.7,-51.6,134.7,125.1,1.2,-355.5,-6.0,-4.5,-195.0,-236.1,-2.1,-15.6,-100.8,148.5,0,1908,0,22,0,
1.0633,-40.8,63.3,-1.2,-90.3,-228.0,-313.5,188.1,-216.0,-3260.4,298.2,-294.9,-50.1,129.3,120.0,-12.3,-357.9,-6.3,-4.5,-194.7,-236.7,-1.5,-26.1,-99.3,148.8,0,1914,0,23,0,
1.0667,-38.1,71.7,15.6,-77.7,-213.0,-299.4,200.1,-205.5,-3186.3,319.5,-279.3,-35.1,142.2,113.1,-49.8,-361.2,-6.3,-4.5,-178.5,-219.6,-1.8,-0.9,-87.3,166.8,0,1920,0,24,0,
1.0700,-39.6,67.5,9.3,-81.3,-216.9,-297.0,210.9,-205.5,-3186.3,310.5,-284.7,-38.1,139.5,95.1,-59.1,-340.8,-6.3,-4.2,-180.3,-219.6,-1.5,14.4,-67.8,171.9,0,1926,0,25,0,
1.0733,-36.6,66.3,8.1,-84.6,-219.9,-302.4,206.4,-206.4,-3112.2,314.4,-287.7,-40.8,134.7,111.9,-39.9,-341.4,-6.0,-4.5,-183.9,-223.2,-1.8,10.5,-73.5,170.1,0,1932,0,26,0,
1.0767,-43.2,63.3,3.0,-86.4,-221.7,-306.6,203.7,-209.1,-3112.2,304.5,-290.7,-43.2,129.3,105.3,-40.5,-365.1,-6.0,-4.5,-189.0,-224.4,-1.5,1.2,-89.4,165.0,0,1938,0,27,0,
1.0800,-36.0,65.7,13.8,-79.5,-216.3,-305.1,199.8,-202.8,-3186.3,327.0,-284.1,-36.9,138.6,117.3,-35.7,-371.4,-6.3,-4.8,-184.2,-222.0,-2.1,-6.6,-106.8,155.7,0,1944,0,28,0,
1.0833,-36.3,62.1,4.8,-84.6,-219.0,-306.6,202.8,-205.8,-3186.3,315.9,-288.0,-40.5,137.4,118.5,-32.1,-356.1,-6.3,-4.2,-187.5,-228.6,-1.8,-4.2,-93.3,158.7,0,1950,0,29,0,
1.0867,-36.6,67.2,5.1,-86.4,-222.0,-311.7,200.4,-204.3,-3186.3,326.4,-289.8,-43.2,142.2,134.1,-19.5,-363.9,-6.3,-4.5,-186.6,-230.1,-1.8,-25.2,-108.6,146.7,0,1956,0,30,0,
1.0900,-39.9,60.6,-6.6,-89.7,-227.7,-312.6,197.7,-212.4,-3112.2,307.2,-294.0,-48.3,135.0,132.3,-17.7,-350.4,-6.0,-4.2,-192.3,-233.7,-1.8,-25.5,-103.5,144.3,0,1962,0,31,0,
1.0933,-40.5,59.4,-6.0,-96.6,-231.0,-319.8,193.5,-213.6,-3186.3,313.5,-299.1,-55.2,138.3,121.2,-26.1,-351.0,-6.3,-4.2,-197.1,-238.2,-1.5,-36.3,-108.3,138.0,0,1968,0,32,0,
1.0967,-37.2,62.4,-6.9,-87.9,-225.9,-315.3,197.4,-211.5,-3112.2,315.3,-289.8,-47.1,144.6,126.6,-18.9,-363.3,-6.3,-4.5,-187.8,-231.9,-1.8,-25.2,-106.2,145.8,0,1974,0,33,0,
1.1000,-30.0,69.9,3.9,-84.0,-224.7,-313.8,198.6,-203.7,-3186.3,335.4,-281.4,-42.0,143.4,133.8,-35.4,-370.2,-6.3,-4.5,-179.1,-228.6,-1.5,-20.4,-111.6,148.5,0,1980,0,34,0,
1.1033,-31.8,64.2,-1.2,-92.1,-231.0,-316.5,193.2,-210.6,-3112.2,318.0,-294.3,-52.8,143.7,143.1,-3.9,-348.6,-6.0,-4.5,-189.3,-237.3,-2.1,-33.3,-106.8,145.2,0,1986,0,35,0,
1.1067,-36.3,63.0,-6.9,-96.0,-228.9,-321.9,191.1,-211.5,-3112.2,318.0,-298.2,-53.1,140.1,136.5,-3.6,-348.0,-6.3,-4.2,-194.4,-236.7,-1.8,-30.0,-108.6,142.8,0,1992,0,36,0,
1.1100,-28.8,69.9,2.4,-86.7,-226.2,-315.3,198.0,-207.9,-3186.3,319.5,-289.5,-46.8,147.3,149.7,-4.8,-347.1,-6.3,-4.2,-184.2,-230.4,-1.5,-22.8,-102.0,153.0,0,1998,0,37,0,
1.1133,-33.0,65.7,-0.9,-93.0,-228.6,-320.4,193.8,-208.8,-3260.4,325.5,-292.8,-54.3,142.8,143.1,0.9,-337.2,-6.3,-4.2,-189.6,-234.0,-2.1,-24.3,-100.2,147.9,0,2004,0,38,0,
1.1167,-30.9,75.3,6.9,-85.2,-220.8,-306.3,197.1,-203.7,-3260.4,327.6,-289.8,-47.4,150.3,140.7,-26.7,-375.9,-6.6,-4.5,-180.3,-227.4,-1.2,-19.2,-105.6,151.5,0,2010,0,39,0,
1.1200,-29.7,75.0,10.8,-81.3,-221.7,-308.7,196.5,-201.3,-3260.4,326.1,-286.2,-42.6,148.5,139.5,-23.7,-370.2,-6.3,-4.5,-179.7,-225.9,-1.5,-19.2,-111.3,150.0,0,2016,0,40,0,
1.1233,-31.2,69.0,1.2,-88.2,-226.2,-306.0,196.8,-204.0,-3112.2,314.7,-295.8,-48.3,143.4,135.0,-19.8,-363.3,-6.3,-4.5,-190.5,-227.4,-1.5,-19.8,-106.8,151.2,0,2022,0,41,0,
1.1267,-34.5,62.1,-7.8,-93.6,-229.8,-313.5,193.8,-208.2,-3186.3,310.5,-298.5,-56.4,141.9,135.9,-16.2,-360.6,-6.3,-4.5,-196.8,-234.3,-1.5,-19.5,-110.1,150.3,0,2028,0,42,0,
1.1300,-33.9,62.7,-0.6,-92.1,-228.0,-314.1,191.1,-208.8,-3112.2,313.5,-298.5,-54.0,140.1,141.3,-10.8,-364.8,-6.3,-4.5,-193.8,-230.4,-1.5,-19.8,-104.4,151.8,0,2034,0,43,0,
1.1333,-26.4,69.6,3.3,-89.1,-227.7,-313.5,190.8,-209.1,-3334.5,316.5,-292.8,-51.9,145.2,151.2,-3.0,-363.6,-6.0,-4.5,-189.6,-229.2,-1.8,-6.0,-95.4,154.8,0,2040,0,44,0,
1.1367,-31.5,64.5,-4.5,-95.4,-233.4,-317.7,187.2,-214.2,-3334.5,320.7,-300.3,-59.7,141.3,154.2,-0.9,-353.1,-6.3,-4.8,-196.2,-237.0,-1.8,-17.7,-103.2,148.2,0,2046,0,45,0,
1.1400,-30.0,65.7,-2.4,-100.2,-238.8,-321.6,186.6,-212.7,-3186.3,319.5,-304.5,-76.8,140.1,152.1,-6.9,-340.5,-6.3,-4.5,-198.9,-251.4,-1.8,-34.2,-104.7,141.9,0,2052,0,46,0,
1.1433,-36.6,68.1,-3.3,-91.8,-234.3,-324.0,189.9,-207.9,-3260.4,323.1,-309.0,-76.5,147.6,151.5,-25.5,-353.4,-6.0,-4.2,-201.3,-249.0,-1.2,-27.9,-103.2,140.1,0,2058,0,47,0,
1.1467,-32.7,63.0,-7.2,-96.3,-236.7,-324.0,190.8,-214.2,-3334.5,320.7,-305.7,-64.5,151.8,157.5,1.5,-348.0,-6.3,-4.5,-197.7,-243.0,-1.8,-27.3,-101.4,138.3,0,2064,0,48,0,
1.1500,-30.6,65.1,-7.2,-96.3,-238.2,-325.8,184.2,-219.9,-3186.3,316.8,-296.4,-53.7,147.3,162.9,20.1,-365.4,-6.3,-4.2,-193.5,-237.0,-1.8,-22.5,-107.4,142.2,0,2070,0,49,0,
1.1533,-32.1,66.3,-3.0,-91.2,-230.1,-317.1,193.2,-215.1,-3186.3,318.0,-291.3,-51.3,147.9,156.6,0.6,-355.5,-6.3,-4.5,-193.5,-230.1,-1.8,3.9,-95.4,149.7,0,2076,0,50,0,
1.1567,-32.7,66.6,1.2,-88.8,-225.9,-312.6,192.3,-209.1,-3112.2,324.0,-289.5,-44.7,144.3,143.4,-17.1,-351.0,-6.3,-4.2,-192.0,-225.0,-1.8,-1.2,-93.6,153.3,0,2082,0,51,0,
1.1600,-30.0,70.2,14.4,-78.6,-219.3,-308.7,197.1,-205.2,-3186.3,327.3,-278.4,-33.3,146.1,145.5,-24.3,-359.1,-6.3,-4.5,-179.7,-216.3,-1.8,7.2,-90.6,154.5,0,2088,0,52,0,
1.1633,-34.2,67.2,3.0,-82.5,-222.9,-311.7,192.3,-206.1,-3260.4,327.6,-283.5,-33.3,140.7,142.5,-25.8,-348.9,-6.3,-4.5,-189.6,-220.2,-2.1,-7.8,-96.0,149.7,0,2094,0,53,0,
1.1667,-37.8,59.4,-5.1,-87.0,-226.2,-314.7,194.4,-210.3,-3334.5,310.8,-292.5,-47.7,133.8,135.3,-15.9,-341.1,-6.0,-4.5,-202.2,-227.7,-1.5,-10.2,-86.1,154.5,0,2100,0,54,0,
1.1700,-38.4,62.4,-0.3,-84.3,-216.6,-313.5,197.4,-213.6,-3186.3,316.5,-280.8,-34.8,139.5,135.3,-28.2,-348.9,-6.0,-4.5,-194.1,-212.4,-1.5,-3.6,-86.1,159.0,0,2106,0,55,0,
1.1733,-38.1,62.7,5.4,-79.5,-213.6,-308.4,195.0,-213.0,-3186.3,333.6,-270.0,-25.5,148.5,136.2,-39.9,-362.7,-6.3,-4.5,-183.9,-208.8,-1.8,1.5,-88.5,156.9,0,2112,0,56,0,
1.1767,-38.7,62.1,4.2,-85.8,-220.8,-315.6,195.0,-213.6,-3038.1,322.8,-276.3,-30.9,145.8,140.7,-11.1,-348.6,-6.3,-4.8,-189.3,-215.4,-1.8,-17.1,-96.6,150.6,0,2118,0,57,0,
1.1800,-37.8,66.9,4.2,-83.4,-217.2,-312.3,199.2,-213.3,-3186.3,329.4,-273.0,-24.6,146.1,141.9,-17.7,-349.8,-6.3,-4.8,-185.1,-210.3,-1.8,-19.2,-91.5,156.0,0,2124,0,58,0,
1.1833,-37.8,66.3,6.0,-82.2,-212.7,-305.1,200.7,-205.5,-3260.4,332.7,-271.5,-25.8,151.8,129.6,-36.3,-346.8,-6.3,-4.2,-183.3,-207.9,-1.2,-2.7,-79.5,166.8,0,2130,0,59,0,
1.1867,-36.3,66.9,9.0,-79.2,-212.4,-300.3,202.5,-203.4,-3186.3,332.1,-275.1,-28.8,155.1,125.7,-51.6,-352.2,-6.6,-4.2,-187.2,-210.3,-1.8,5.1,-76.2,165.6,0,2136,0,60,0,
1.1900,-38.1,66.0,12.6,-74.7,-208.5,-299.1,206.7,-201.3,-3112.2,329.4,-269.4,-19.5,150.3,123.9,-51.6,-354.3,-6.3,-4.5,-181.2,-201.9,-1.5,18.0,-68.7,168.6,0,2142,0,61,0,
1.1933,-32.7,67.8,12.3,-74.7,-214.2,-302.7,201.3,-201.9,-3186.3,338.1,-269.1,-25.2,156.3,134.1,-36.9,-369.9,-6.3,-4.2,-179.1,-205.2,-1.8,10.2,-82.2,167.4,0,2148,0,62,0,
1.1967,-37.5,62.4,3.9,-85.8,-225.3,-311.4,195.3,-210.3,-3186.3,317.1,-282.3,-38.7,149.4,135.3,-10.2,-357.6,-6.3,-4.5,-190.8,-219.3,-1.8,-10.5,-90.0,155.7,0,2154,0,63,0,
1.2000,-40.5,58.5,2.4,-88.2,-227.7,-314.1,196.2,-216.0,-3334.5,323.7,-280.8,-38.1,145.5,130.5,-19.2,-356.4,-6.0,-4.5,-191.1,-220.2,-1.8,-22.5,-97.8,145.5,0,2160,0,64,0,
1.2033,-39.9,60.9,4.8,-84.0,-224.7,-312.0,197.4,-211.2,-3112.2,324.3,-282.0,-36.3,147.3,129.6,-26.7,-358.5,-6.3,-4.8,-188.4,-219.0,-1.8,-18.6,-99.9,151.2,0,2166,0,65,0,
1.2067,-40.2,62.1,5.1,-85.5,-221.4,-311.4,198.3,-208.8,-3112.2,327.0,-276.9,-34.8,148.8,122.1,-35.1,-355.5,-5.7,-4.5,-188.7,-215.4,-1.8,-10.8,-93.6,150.9,0,2172,0,66,0,
1.2100,-44.1,53.1,-9.0,-99.9,-234.9,-320.4,191.1,-219.0,-3038.1,312.3,-298.5,-50.1,139.8,126.0,-20.7,-342.3,-6.3,-4.5,-201.9,-230.4,-1.8,-26.7,-99.6,139.2,0,2178,0,67,0,
1.2133,-37.5,56.4,-5.1,-97.2,-232.2,-316.8,196.5,-216.9,-3186.3,306.3,-291.9,-46.5,132.6,128.4,-24.6,-342.0,-6.3,-4.2,-203.7,-227.4,-1.8,-23.4,-97.2,142.8,0,2184,0,68,0,
1.2167,-35.4,63.3,0.3,-89.4,-222.6,-309.6,194.4,-213.3,-3334.5,325.5,-285.0,-36.0,145.8,125.7,-42.3,-381.9,-6.6,-4.8,-193.5,-214.5,-1.8,-2.4,-100.2,155.4,0,2190,0,69,0,
1.2200,-39.0,61.5,2.1,-91.2,-221.1,-308.7,192.9,-216.3,-3112.2,321.9,-281.4,-31.5,147.6,125.7,-48.6,-373.2,-6.3,-4.5,-190.2,-212.7,-1.5,-1.2,-108.9,149.7,0,2196,0,70,0,
1.2233,-35.1,59.1,-4.2,-91.2,-222.9,-314.7,196.5,-215.4,-3112.2,327.6,-282.0,-30.9,147.3,128.1,-29.1,-357.6,-6.3,-4.5,-196.8,-216.0,-1.5,-14.4,-110.1,145.2,0,2202,0,71,0,
1.2267,-34.8,57.3,-2.1,-93.6,-225.0,-319.5,192.0,-218.7,-3038.1,324.9,-283.2,-33.3,146.7,132.3,-26.4,-363.6,-6.3,-4.5,-195.6,-215.4,-2.1,-16.2,-109.2,141.6,0,2208,0,72,0,
1.2300,-41.4,46.8,-10.8,-101.1,-237.3,-326.4,190.5,-226.2,-3260.4,315.9,-294.6,-48.9,130.8,129.9,-3.6,-346.2,-6.3,-4.5,-204.0,-228.9,-1.8,-36.3,-106.5,139.5,0,2214,0,73,0,
1.2333,-42.6,43.5,-9.6,-99.6,-231.3,-317.4,191.7,-225.9,-3186.3,306.0,-291.6,-44.1,131.4,121.5,-8.4,-348.6,-6.0,-4.2,-202.5,-222.9,-1.8,-20.4,-102.0,140.7,0,2220,0,74,0,
1.2367,-41.4,48.3,-8.7,-91.8,-224.1,-314.4,196.2,-220.2,-3186.3,308.4,-288.6,-38.1,133.2,128.1,-24.9,-364.8,-6.3,-4.2,-200.4,-214.5,-1.5,-1.2,-106.5,150.6,0,2226,0,75,0,
1.2400,-42.9,46.8,-6.9,-96.6,-225.6,-315.6,193.5,-220.8,-3112.2,318.0,-288.9,-37.2,134.4,127.5,-16.2,-345.9,-6.0,-4.5,-200.4,-216.3,-1.8,-14.4,-110.1,145.5,0,2232,0,76,0,
1.2433,-45.6,41.1,-15.0,-106.5,-237.0,-325.8,190.5,-231.6,-3186.3,300.0,-301.5,-51.9,123.0,131.1,18.9,-336.9,-6.3,-4.2,-212.4,-228.0,-1.8,-23.4,-106.8,135.9,0,2238,0,77,0,
1.2467,-45.6,44.7,-12.3,-101.1,-234.9,-322.8,187.5,-226.5,-3112.2,313.2,-294.0,-45.3,123.9,127.5,-4.5,-353.4,-6.3,-4.5,-204.9,-225.3,-1.8,-19.5,-112.2,140.4,0,2244,0,78,0,
1.2500,-46.8,49.8,-3.9,-94.8,-227.4,-314.4,192.9,-219.6,-3186.3,325.8,-287.1,-37.2,132.9,128.1,-39.0,-352.2,-6.6,-4.5,-197.1,-215.1,-1.8,-9.3,-101.4,151.2,0,2250,0,79,0,
1.2533,-42.6,54.0,-3.6,-92.4,-223.5,-310.5,192.6,-215.1,-3186.3,314.1,-285.9,-34.8,140.4,128.7,-46.8,-360.3,-6.3,-4.2,-196.5,-211.8,-1.5,3.6,-98.4,154.8,0,2256,0,80,0,
1.2567,-43.8,52.5,-6.9,-94.2,-226.2,-317.1,191.7,-218.1,-3186.3,316.8,-290.4,-38.7,133.5,130.2,-37.5,-363.9,-6.3,-4.5,-199.5,-217.8,-1.5,-7.2,-107.1,149.4,0,2262,0,81,0,
1.2600,-41.4,53.4,-2.4,-98.7,-231.3,-317.4,192.6,-220.8,-3112.2,316.2,-285.6,-39.9,138.9,120.9,-33.0,-342.6,-6.3,-4.5,-196.8,-220.5,-1.5,-12.6,-105.3,141.6,0,2268,0,82,0,
1.2633,-45.0,44.7,-9.9,-106.2,-238.5,-319.2,189.0,-227.1,-3260.4,309.6,-296.4,-44.4,133.2,123.9,-28.2,-341.1,-6.3,-4.5,-209.1,-227.7,-1.8,-7.2,-103.5,141.6,0,2274,0,83,0,
1.2667,-42.6,46.8,-8.4,-104.7,-234.9,-321.3,189.6,-224.7,-3260.4,306.6,-295.2,-44.4,135.0,130.2,-6.3,-349.5,-6.0,-4.5,-200.4,-226.5,-1.8,-1.2,-106.8,143.4,0,2280,0,84,0,
1.2700,-42.3,50.1,-6.0,-104.1,-237.0,-321.6,187.8,-221.1,-3260.4,312.6,-291.9,-45.6,131.7,130.8,-21.3,-346.8,-6.3,-4.2,-204.3,-228.3,-1.8,-9.6,-107.7,144.6,0,2286,0,85,0,
1.2733,-39.9,52.2,-3.0,-101.1,-235.2,-317.1,192.0,-219.6,-3038.1,309.0,-296.4,-48.3,130.2,129.0,-30.3,-348.0,-6.3,-4.2,-203.1,-228.3,-1.5,-19.8,-106.5,143.4,0,2292,0,86,0,
1.2767,-40.2,51.6,-2.1,-99.3,-233.1,-316.2,187.8,-219.9,-3112.2,329.1,-290.4,-41.1,144.6,131.4,-40.5,-366.6,-6.3,-4.5,-202.2,-222.3,-1.8,-7.5,-112.5,138.0,0,2298,0,87,0,
1.2800,-40.5,53.1,1.2,-97.2,-230.4,-316.2,190.5,-218.7,-3112.2,313.8,-285.9,-38.7,142.2,127.2,-35.1,-345.6,-6.3,-4.5,-197.1,-219.0,-1.8,-5.4,-99.6,144.6,0,2304,0,88,0,
1.2833,-39.6,57.3,-1.2,-98.4,-230.7,-315.9,189.0,-213.6,-3260.4,323.1,-288.0,-41.4,149.7,139.5,-9.6,-352.2,-6.3,-4.5,-199.5,-222.9,-2.1,-15.9,-102.9,142.5,0,2310,0,89,0,
1.2867,-38.1,53.7,-3.9,-98.4,-230.7,-320.4,190.2,-217.5,-2964.0,323.1,-290.7,-42.9,149.4,141.0,-5.1,-344.1,-6.0,-4.5,-199.8,-226.2,-1.8,-13.2,-99.6,140.1,0,2316,0,90,0,
1.2900,-37.8,56.1,-1.2,-98.1,-231.6,-317.4,190.2,-215.7,-3038.1,328.5,-283.2,-39.3,154.8,145.5,-9.0,-342.0,-6.0,-4.5,-194.7,-222.9,-1.8,-15.9,-105.0,138.6,0,2322,0,91,0,
1.2933,-38.4,63.3,3.3,-89.1,-223.8,-310.5,194.4,-212.7,-3186.3,333.6,-274.5,-30.6,154.2,143.1,-30.3,-355.2,-6.3,-4.5,-181.8,-213.3,-1.5,2.1,-105.9,152.1,0,2328,0,92,0,
1.2967,-36.6,65.7,8.4,-87.9,-222.3,-306.0,193.5,-213.0,-3186.3,347.1,-270.9,-29.7,158.7,147.3,-34.8,-361.2,-6.0,-4.5,-182.1,-213.6,-2.1,-7.5,-106.8,149.4,0,2334,0,93,0,
1.3000,-36.6,64.2,7.8,-90.0,-221.7,-304.2,190.2,-213.9,-3260.4,330.3,-274.8,-31.8,161.1,140.1,-33.9,-361.5,-6.6,-4.5,-184.2,-212.1,-1.5,-5.1,-105.0,148.2,0,2340,0,94,0,
1.3033,-42.9,52.8,-7.8,-105.6,-239.7,-320.1,186.9,-224.1,-3112.2,312.9,-294.6,-50.4,146.1,139.2,7.8,-330.3,-6.0,-4.2,-202.5,-229.5,-1.5,-24.6,-106.2,134.4,0,2346,0,95,0,
1.3067,-42.9,60.0,-1.8,-99.3,-233.7,-318.3,185.4,-222.0,-3186.3,321.6,-284.7,-42.9,150.0,139.8,-21.9,-354.6,-6.3,-4.2,-194.7,-222.6,-2.1,-13.5,-102.6,149.1,0,2352,0,96,0,
1.3100,-39.6,58.8,3.0,-93.9,-229.2,-316.5,186.9,-217.8,-3186.3,329.7,-279.9,-33.6,154.2,144.3,-24.3,-362.7,-6.3,-4.5,-188.1,-215.1,-1.5,-6.3,-110.7,146.7,0,2358,0,97,0,
1.3133,-34.5,64.8,8.4,-91.5,-229.8,-318.6,186.6,-216.3,-3260.4,327.6,-275.7,-33.3,161.1,152.4,-15.0,-368.1,-6.3,-4.5,-182.7,-216.9,-1.5,-9.3,-111.9,147.3,0,2364,0,98,0,
1.3167,-39.6,57.9,6.3,-90.0,-226.5,-311.7,190.5,-214.8,-3260.4,328.5,-275.4,-30.6,152.1,131.1,-55.8,-368.7,-6.6,-4.5,-184.5,-213.3,-1.8,-9.3,-103.5,151.2,0,2370,0,99,0,
1.3200,-39.6,61.5,5.7,-84.9,-224.7,-309.6,191.4,-213.9,-3186.3,325.5,-276.6,-30.6,150.0,126.3,-59.1,-356.7,-6.3,-4.5,-187.5,-208.8,-1.8,-3.3,-99.6,156.0,0,2376,0,100,0,
1.3233,-36.6,64.5,9.9,-83.1,-223.2,-306.0,196.5,-210.6,-3038.1,322.2,-272.1,-27.9,148.2,130.2,-36.0,-354.6,-6.3,-4.5,-182.1,-206.4,-1.8,6.6,-100.2,158.4,0,2382,0,101,0,
1.3267,-39.3,61.8,5.7,-84.9,-225.3,-305.4,194.4,-215.4,-3186.3,319.2,-274.8,-30.6,148.5,129.9,-24.0,-361.8,-6.3,-4.5,-186.9,-209.4,-1.5,14.4,-100.2,161.7,0,2388,0,102,0,
1.3300,-40.5,55.8,-0.9,-95.1,-237.6,-317.1,189.9,-224.4,-2964.0,311.4,-286.5,-44.7,144.6,136.5,-9.6,-351.9,-6.3,-4.5,-196.2,-225.0,-1.8,-29.7,-116.1,141.6,0,2394,0,103,0,
1.3333,-36.9,62.1,12.0,-83.1,-222.9,-307.8,192.3,-214.5,-3260.4,327.3,-271.5,-32.4,145.2,126.9,-41.1,-352.2,-6.3,-4.5,-182.4,-211.8,-1.5,-24.6,-106.5,152.4,0,2400,0,104,0,
1.3367,-39.6,60.6,3.6,-84.3,-222.6,-303.9,201.6,-213.9,-3186.3,326.4,-274.8,-30.3,146.4,121.5,-41.4,-338.1,-6.3,-4.2,-186.0,-208.5,-1.8,-3.6,-93.0,159.3,0,2406,0,105,0,
1.3400,-36.3,61.2,6.6,-83.1,-221.4,-306.6,196.5,-213.3,-3112.2,324.0,-271.2,-32.4,149.1,122.7,-42.3,-352.8,-6.0,-4.5,-182.1,-209.4,-1.5,0.0,-99.6,160.2,0,2412,0,106,0,
1.3433,-37.5,59.1,5.1,-86.7,-221.7,-307.8,192.3,-215.1,-3038.1,329.4,-274.8,-30.3,150.6,128.7,-29.4,-355.5,-6.6,-4.5,-188.7,-209.7,-1.8,-0.3,-97.2,156.6,0,2418,0,107,0,
1.3467,-38.1,49.5,-5.7,-99.9,-232.2,-316.8,183.9,-222.3,-3260.4,312.6,-291.9,-45.3,139.8,136.5,10.2,-332.1,-6.6,-4.5,-200.1,-226.2,-1.8,-22.2,-114.3,140.4,0,2424,0,108,0,
1.3500,-37.5,58.2,-1.5,-91.2,-225.9,-307.5,189.3,-216.6,-3186.3,316.8,-282.3,-37.5,149.4,138.0,-4.2,-337.2,-6.0,-4.2,-189.9,-215.4,-1.8,-15.3,-105.9,147.3,0,2430,0,109,0,
1.3533,-41.7,54.6,-0.6,-92.4,-226.8,-308.7,191.4,-222.6,-3112.2,322.2,-283.2,-36.6,144.3,132.9,-17.7,-340.8,-6.3,-4.5,-189.6,-216.6,-1.2,-11.4,-106.5,147.6,0,2436,0,110,0,
1.3567,-38.4,60.3,2.1,-85.2,-219.0,-305.1,193.2,-219.6,-3038.1,323.1,-273.9,-27.9,155.1,126.6,-30.9,-347.7,-6.6,-4.2,-179.7,-209.4,-2.1,2.4,-100.2,154.2,0,2442,0,111,0,
1.3600,-40.2,60.0,4.5,-88.2,-219.3,-304.5,195.6,-218.4,-3112.2,332.1,-273.6,-29.7,150.6,122.7,-48.0,-347.1,-6.6,-4.2,-178.5,-212.4,-1.5,-1.2,-95.7,163.5,0,2448,0,112,0,
1.3633,-34.8,58.2,1.8,-92.4,-222.9,-303.0,195.3,-217.8,-3186.3,325.5,-276.6,-32.7,147.6,131.4,-22.5,-347.1,-6.3,-4.5,-183.0,-212.4,-1.8,-0.3,-93.3,155.4,0,2454,0,113,0,
1.3667,-40.2,50.4,-9.0,-99.3,-234.0,-312.0,194.1,-227.1,-3260.4,306.6,-291.0,-47.4,147.0,136.2,23.4,-328.2,-6.0,-4.5,-195.9,-226.2,-1.5,-16.8,-100.2,153.6,0,2460,0,114,0,
1.3700,-38.7,54.6,-1.8,-96.6,-228.9,-307.8,196.2,-223.5,-3186.3,326.7,-282.9,-36.9,150.0,139.2,-3.6,-331.2,-6.0,-4.2,-187.5,-216.9,-2.1,-15.6,-99.6,157.2,0,2466,0,115,0,
1.3733,-38.1,57.0,0.6,-91.5,-226.5,-310.2,195.3,-221.1,-3186.3,323.4,-283.2,-36.3,156.9,141.6,-6.3,-354.0,-6.6,-4.8,-186.6,-218.4,-1.8,-14.1,-111.9,144.6,0,2472,0,116,0,
1.3767,-36.3,61.2,7.2,-91.2,-223.5,-305.4,196.5,-216.0,-3186.3,337.5,-277.8,-33.0,163.5,141.9,-23.4,-355.8,-6.0,-4.5,-181.5,-215.7,-1.5,-13.2,-107.7,152.4,0,2478,0,117,0,
1.3800,-36.3,62.4,10.5,-90.0,-223.2,-303.3,198.6,-218.4,-3186.3,345.3,-273.0,-29.7,162.6,139.5,-37.2,-359.4,-6.3,-4.2,-180.0,-213.6,-1.5,-1.8,-103.8,152.1,0,2484,0,118,0,
1.3833,-33.6,63.9,9.3,-88.5,-222.3,-304.8,199.2,-218.1,-3112.2,343.5,-272.4,-29.4,162.9,141.0,-30.0,-345.6,-6.3,-4.2,-178.8,-211.5,-1.5,2.1,-100.5,159.6,0,2490,0,119,0,
1.3867,-37.2,56.7,3.6,-96.9,-229.5,-312.9,189.9,-226.5,-3260.4,333.0,-280.2,-37.8,158.4,143.7,-20.4,-342.3,-6.3,-4.5,-185.1,-217.8,-1.8,-2.7,-101.1,150.0,0,2496,0,120,0,
1.3900,-38.7,52.2,-3.3,-97.5,-231.6,-310.5,192.6,-228.0,-3186.3,328.2,-284.1,-42.0,151.8,141.9,-3.6,-330.0,-6.0,-4.5,-190.5,-220.2,-1.8,2.1,-92.4,155.1,0,2502,0,121,0,
1.3933,-41.4,52.5,-4.5,-97.2,-229.5,-308.1,190.2,-229.2,-3112.2,325.8,-283.5,-38.1,156.9,147.3,-1.5,-355.2,-6.3,-4.5,-192.0,-220.2,-1.5,8.1,-102.3,149.4,0,2508,0,122,0,
1.3967,-42.6,53.1,0.6,-93.9,-223.8,-306.6,196.2,-225.0,-3186.3,329.4,-278.7,-33.3,159.3,135.0,-14.1,-348.9,-6.3,-4.2,-190.2,-213.3,-1.8,13.8,-85.8,165.6,0,2514,0,123,0,
1.4000,-39.6,54.3,2.4,-93.9,-222.6,-304.2,196.8,-225.9,-3186.3,341.4,-276.3,-27.0,162.9,131.1,-33.9,-345.3,-6.3,-4.2,-183.0,-208.5,-1.5,12.0,-86.4,164.1,0,2520,0,124,0,
1.4033,-37.5,55.8,6.6,-89.7,-217.5,-300.0,204.9,-222.3,-3112.2,336.0,-275.7,-24.0,158.7,129.9,-26.7,-336.0,-6.3,-4.5,-183.0,-205.2,-1.5,18.9,-84.6,175.2,0,2526,0,125,0,
1.4067,-37.8,53.4,4.8,-93.0,-217.2,-298.2,204.3,-223.5,-3038.1,336.3,-273.6,-24.0,159.6,132.3,-29.7,-345.9,-6.0,-4.5,-182.4,-201.3,-1.5,21.6,-84.0,169.2,0,2532,0,126,0,
1.4100,-43.2,48.0,-3.0,-99.9,-226.2,-307.2,198.3,-228.3,-3112.2,323.1,-283.2,-34.8,154.8,136.2,-10.2,-325.5,-6.3,-4.5,-189.0,-214.8,-1.8,13.5,-82.2,168.3,0,2538,0,127,0,
1.4133,-36.3,53.7,0.0,-96.3,-224.1,-305.4,197.4,-226.8,-3112.2,332.7,-279.3,-33.3,162.9,149.1,8.7,-333.9,-6.6,-4.5,-184.5,-210.6,-1.8,6.6,-90.0,167.4,0,2544,0,128,0,
1.4167,-33.6,57.9,6.6,-91.8,-221.1,-304.5,198.9,-224.1,-3260.4,349.5,-273.3,-27.9,166.2,151.5,-12.3,-353.4,-6.3,-4.2,-177.0,-205.8,-1.5,13.2,-87.9,166.2,0,2550,0,129,0,
1.4200,-39.6,52.8,-4.2,-99.6,-223.2,-304.8,195.0,-225.9,-3186.3,331.2,-279.6,-31.8,159.3,147.3,-4.2,-342.0,-6.3,-4.2,-187.5,-209.7,-1.5,4.2,-84.3,161.7,0,2556,0,130,0,
1.4233,-40.2,55.5,5.7,-93.3,-221.4,-302.1,201.3,-223.2,-2964.0,344.1,-272.4,-25.8,162.3,139.5,-29.1,-340.2,-6.0,-4.5,-177.3,-204.0,-1.8,11.4,-80.1,166.8,0,2562,0,131,0,
1.4267,-37.5,56.4,4.8,-90.0,-218.7,-300.6,196.5,-224.1,-3038.1,341.1,-269.1,-25.5,167.7,153.9,-1.8,-343.2,-6.3,-4.2,-177.3,-204.9,-1.8,5.7,-89.1,169.2,0,2568,0,132,0,
1.4300,-38.7,59.4,5.1,-91.5,-223.5,-304.5,194.1,-223.2,-3260.4,340.2,-270.9,-28.2,161.1,149.7,-4.8,-331.8,-6.6,-4.5,-175.5,-206.4,-2.1,16.2,-94.2,161.1,0,2574,0,133,0,
1.4333,-40.8,54.0,1.8,-94.5,-224.4,-306.3,194.1,-225.3,-3112.2,337.5,-279.6,-34.2,155.1,150.9,-12.0,-336.6,-6.3,-4.2,-183.9,-212.1,-1.5,3.6,-88.5,155.7,0,2580,0,134,0,
1.4367,-37.5,53.4,0.3,-95.1,-219.0,-301.8,197.4,-220.8,-3112.2,326.1,-277.2,-31.2,152.7,146.7,3.3,-334.2,-6.0,-4.8,-181.8,-204.9,-2.1,26.7,-80.7,176.7,0,2586,0,135,0,
1.4400,-38.7,60.0,8.7,-87.6,-216.3,-297.9,197.7,-217.8,-3112.2,342.9,-270.6,-28.2,159.0,147.3,-9.0,-343.5,-6.3,-4.2,-177.3,-199.8,-1.8,5.1,-81.3,172.2,0,2592,0,136,0,
1.4433,-35.7,65.1,10.8,-85.2,-217.5,-296.7,194.4,-215.4,-3186.3,347.1,-267.6,-25.2,162.6,152.4,-15.3,-352.2,-6.3,-4.5,-171.0,-203.7,-1.5,4.2,-90.6,164.4,0,2598,0,137,0,
1.4467,-30.9,73.5,21.3,-73.5,-203.1,-290.4,194.7,-206.1,-3260.4,362.1,-250.5,-10.2,175.8,152.4,-30.6,-366.0,-6.6,-4.2,-156.6,-191.7,-1.5,14.7,-114.3,163.8,0,2604,0,138,0,
1.4500,-36.3,64.2,6.0,-90.3,-218.4,-304.5,195.0,-214.8,-3186.3,339.0,-270.6,-27.6,161.1,156.6,2.1,-336.0,-6.3,-5.1,-176.7,-205.8,-1.5,-17.4,-110.4,152.1,0,2610,0,139,0,
1.4533,-39.9,53.7,-5.1,-98.7,-231.9,-312.3,189.6,-222.6,-3112.2,330.0,-283.5,-43.5,151.8,154.2,11.1,-324.0,-6.3,-4.2,-190.5,-223.5,-1.5,-38.1,-113.7,137.4,0,2616,0,140,0,
1.4567,-39.0,59.4,8.1,-90.9,-223.2,-305.7,192.3,-216.9,-3038.1,332.4,-271.2,-32.7,153.9,153.9,11.4,-347.4,-6.3,-4.5,-180.0,-210.3,-1.5,-12.3,-113.4,149.4,0,2622,0,141,0,
1.4600,-36.3,67.8,19.2,-78.9,-213.3,-297.6,194.7,-207.0,-3038.1,354.0,-258.6,-17.4,166.5,144.3,-21.6,-357.0,-6.3,-4.5,-168.9,-201.9,-1.8,-0.9,-112.2,159.0,0,2628,0,142,0,
1.4633,-39.0,63.9,5.1,-85.8,-219.9,-301.5,199.2,-210.9,-3112.2,336.0,-270.9,-25.8,159.3,149.4,-8.7,-344.1,-6.3,-4.5,-180.3,-208.8,-1.5,-5.1,-108.0,158.1,0,2634,0,143,0,
1.4667,-36.6,69.6,9.0,-84.9,-218.1,-299.7,198.9,-206.4,-3186.3,348.6,-265.5,-26.4,150.3,145.2,-29.7,-347.4,-6.0,-4.5,-176.7,-208.5,-1.8,-2.1,-108.3,157.5,0,2640,0,144,0,
1.4700,-41.1,63.6,7.8,-90.0,-220.8,-302.4,197.1,-212.4,-3112.2,337.5,-269.1,-26.1,151.5,146.1,-22.2,-350.4,-6.3,-4.2,-182.1,-208.2,-1.8,-10.5,-105.9,153.9,0,2646,0,145,0,
1.4733,-39.6,63.6,8.4,-88.2,-217.5,-300.3,195.3,-210.3,-3112.2,338.1,-268.2,-26.4,159.3,136.5,-30.6,-355.8,-6.0,-4.5,-178.2,-207.9,-1.8,2.1,-105.0,154.5,0,2652,0,146,0,
1.4767,-39.6,59.1,3.6,-90.3,-220.2,-305.7,194.7,-210.6,-3112.2,330.6,-272.1,-33.3,147.6,144.6,-26.4,-360.6,-6.0,-4.5,-183.0,-216.0,-1.5,-9.6,-106.5,153.0,0,2658,0,147,0,
1.4800,-39.3,56.7,0.9,-91.5,-225.6,-309.3,191.4,-217.8,-3186.3,332.7,-280.2,-35.7,143.1,149.1,-8.1,-344.7,-6.6,-4.5,-189.6,-221.4,-2.1,-18.3,-113.4,147.9,0,2664,0,148,0,
1.4833,-35.1,62.1,5.7,-88.5,-222.3,-306.0,192.3,-214.5,-3260.4,332.4,-271.5,-31.8,155.4,163.8,18.9,-350.4,-6.3,-4.2,-180.0,-213.6,-1.5,-15.6,-116.7,145.8,0,2670,0,149,0,
1.4867,-33.3,62.7,4.5,-88.5,-219.9,-308.4,193.8,-214.8,-3186.3,341.4,-274.2,-34.2,156.6,162.0,3.9,-349.2,-6.3,-4.5,-182.7,-213.9,-1.5,-16.2,-112.8,138.6,0,2676,0,150,0,
1.4900,-29.7,68.4,6.6,-83.7,-216.6,-300.9,198.9,-209.4,-3038.1,341.4,-271.5,-28.8,160.8,158.4,-25.8,-349.5,-6.3,-4.5,-183.3,-209.1,-1.5,-5.1,-99.3,151.5,0,2682,0,151,0,
1.4933,-33.9,59.7,-0.9,-100.5,-228.9,-309.9,193.5,-216.0,-3186.3,329.1,-286.8,-44.1,146.7,168.3,27.6,-336.9,-6.6,-4.5,-197.7,-224.7,-1.5,-19.5,-109.8,144.3,0,2688,0,152,0,
1.4967,-38.7,61.5,0.3,-94.8,-225.3,-306.6,199.8,-213.9,-3186.3,323.4,-280.8,-40.2,147.9,149.7,-8.7,-346.8,-6.0,-4.5,-195.0,-218.4,-2.1,-11.7,-100.2,150.9,0,2694,0,153,0,
1.5000,-38.1,73.2,18.3,-72.9,-201.0,-285.9,207.9,-197.7,-3186.3,339.9,-261.6,-13.2,161.4,120.9,-75.9,-374.7,-6.0,-4.5,-174.3,-192.0,-1.8,24.3,-92.1,176.1,0,2700,0,154,0,
1.5033,-38.1,66.0,8.1,-84.0,-210.3,-289.5,210.3,-203.1,-3112.2,327.9,-268.5,-23.4,147.3,123.6,-43.8,-349.8,-6.6,-4.5,-181.8,-201.9,-1.5,15.9,-84.6,168.6,0,2706,0,155,0,
1.5067,-38.4,64.5,8.7,-84.6,-216.3,-292.5,202.8,-207.6,-3038.1,332.1,-268.2,-24.3,146.1,129.9,-33.9,-345.0,-6.0,-4.5,-180.9,-202.5,-1.5,8.7,-98.4,159.0,0,2712,0,156,0,
1.5100,-42.3,59.1,-3.0,-90.3,-221.4,-300.9,196.8,-212.4,-3186.3,321.3,-279.0,-34.2,135.6,132.9,-13.2,-345.9,-6.6,-4.5,-188.1,-216.6,-1.8,-4.8,-104.7,146.4,0,2718,0,157,0,
1.5133,-38.4,55.2,-1.5,-93.0,-224.1,-300.9,195.6,-213.0,-3186.3,317.7,-282.0,-35.7,140.1,141.9,3.3,-352.5,-6.0,-4.2,-192.0,-216.6,-1.8,-8.7,-108.3,143.7,0,2724,0,158,0,
1.5167,-37.8,51.3,-8.7,-98.4,-230.1,-310.5,193.8,-217.5,-3260.4,316.8,-284.7,-42.9,133.2,145.2,9.9,-351.9,-6.6,-4.2,-195.0,-224.4,-2.1,-17.4,-112.8,139.2,0,2730,0,159,0,
1.5200,-36.9,60.6,-2.1,-94.8,-228.3,-306.0,196.2,-216.3,-3112.2,322.8,-280.5,-39.9,134.4,147.0,10.8,-342.3,-6.0,-4.2,-190.8,-222.6,-1.2,-21.6,-111.0,142.2,0,2736,0,160,0,
1.5233,-37.2,63.3,8.4,-84.0,-219.6,-299.1,198.0,-207.6,-3186.3,325.5,-274.8,-28.8,139.2,140.1,-23.1,-345.9,-6.3,-4.2,-184.8,-210.0,-1.8,-1.5,-101.1,152.7,0,2742,0,161,0,
1.5267,-36.6,65.1,8.1,-83.1,-211.8,-289.2,205.2,-203.4,-2964.0,335.7,-269.1,-18.6,147.6,132.3,-58.5,-343.8,-6.0,-4.5,-183.0,-201.3,-1.5,30.9,-88.2,170.7,0,2748,0,162,0,
1.5300,-33.3,61.8,0.9,-87.0,-213.3,-296.1,204.9,-205.2,-3186.3,327.6,-278.1,-24.3,145.5,145.2,-36.3,-357.3,-6.0,-4.2,-187.8,-202.8,-1.8,26.1,-96.0,168.6,0,2754,0,163,0,
1.5333,-36.0,62.4,-5.4,-96.6,-222.3,-303.9,201.0,-208.8,-3186.3,320.4,-283.5,-39.0,136.2,153.3,-12.6,-356.1,-6.3,-4.2,-195.3,-216.9,-1.8,5.4,-105.0,158.4,0,2760,0,164,0,
1.5367,-32.1,64.8,0.3,-88.2,-217.5,-305.4,200.1,-205.8,-3186.3,328.5,-275.4,-31.5,140.4,143.7,-25.8,-356.4,-6.3,-4.2,-186.6,-213.6,-1.5,-10.8,-113.4,152.7,0,2766,0,165,0,
1.5400,-33.6,65.4,3.0,-86.7,-214.5,-300.6,198.0,-202.5,-3186.3,330.9,-272.7,-27.6,149.4,137.7,-35.4,-351.3,-6.0,-4.5,-184.8,-208.8,-1.5,-5.7,-110.4,156.0,0,2772,0,166,0,
1.5433,-32.1,61.5,-6.9,-90.6,-224.4,-307.5,196.5,-208.8,-3112.2,318.3,-283.8,-38.1,137.1,143.7,0.9,-355.2,-6.6,-4.5,-192.6,-220.2,-1.5,-28.5,-117.6,147.0,0,2778,0,167,0,
1.5467,-29.7,67.8,8.4,-78.3,-209.4,-293.7,197.7,-194.7,-3112.2,343.2,-265.2,-21.3,146.4,145.2,-33.3,-372.3,-6.3,-4.2,-176.1,-201.9,-1.5,-0.9,-114.3,157.2,0,2784,0,168,0,
1.5500,-29.1,65.7,0.6,-84.6,-214.2,-298.5,202.8,-201.9,-3186.3,325.5,-272.1,-26.4,142.5,138.6,-27.3,-345.0,-6.3,-4.2,-188.1,-206.1,-1.5,-4.5,-103.2,155.4,0,2790,0,169,0,
1.5533,-35.4,60.3,-4.8,-85.5,-215.4,-303.3,198.9,-207.9,-3186.3,324.3,-276.6,-31.2,136.8,141.6,-21.3,-345.3,-6.0,-4.2,-190.2,-213.9,-1.5,-9.0,-109.8,150.9,0,2796,0,170,0,
1.5567,-27.0,68.4,4.5,-81.6,-210.6,-300.6,200.4,-201.3,-3112.2,332.4,-264.9,-23.7,142.2,134.7,-34.8,-353.7,-6.3,-4.5,-182.7,-208.5,-1.5,-13.2,-113.4,149.4,0,2802,0,171,0,
1.5600,-30.0,65.7,-4.2,-92.1,-221.1,-305.7,198.0,-210.0,-3038.1,328.5,-272.7,-31.2,137.7,150.3,9.0,-336.0,-6.3,-4.5,-186.9,-215.4,-1.5,-18.3,-115.5,145.5,0,2808,0,172,0,
1.5633,-27.6,67.5,-4.5,-93.3,-224.1,-312.3,196.8,-210.0,-3112.2,332.1,-276.0,-34.2,138.3,156.9,14.4,-348.6,-6.3,-4.5,-188.7,-219.3,-1.5,-12.3,-126.3,138.0,0,2814,0,173,0,
1.5667,-30.9,68.1,0.3,-89.4,-217.8,-301.5,199.5,-207.3,-3334.5,333.3,-270.0,-28.5,143.4,149.1,-13.2,-361.8,-6.3,-4.2,-181.2,-213.6,-1.5,-4.2,-111.9,150.3,0,2820,0,174,0,
1.5700,-28.2,69.3,1.2,-90.0,-221.4,-303.9,200.7,-210.3,-3038.1,330.0,-272.7,-30.6,137.1,148.2,-4.8,-351.9,-6.3,-4.2,-185.7,-211.5,-1.8,-7.2,-113.7,149.1,0,2826,0,175,0,
1.5733,-31.2,69.3,-1.5,-89.1,-219.9,-305.7,197.1,-206.7,-3112.2,327.6,-274.5,-32.4,127.5,151.5,-11.1,-354.9,-6.0,-4.5,-188.1,-214.8,-1.5,0.0,-114.9,149.1,0,2832,0,176,0,
1.5767,-31.2,71.7,4.8,-80.1,-210.0,-295.8,204.3,-201.6,-3186.3,342.9,-263.7,-21.9,141.0,139.8,-51.3,-358.5,-6.0,-4.2,-179.1,-201.6,-1.8,6.3,-102.3,157.2,0,2838,0,177,0,
1.5800,-28.2,70.2,3.9,-85.8,-213.6,-301.8,201.9,-202.5,-3112.2,331.5,-268.8,-26.4,144.9,150.0,-10.2,-345.0,-6.0,-4.5,-186.6,-212.1,-1.5,0.6,-105.6,155.4,0,2844,0,178,0,
1.5833,-24.6,69.3,2.4,-86.1,-210.6,-297.6,202.5,-201.0,-3186.3,345.6,-269.4,-29.4,154.5,154.5,-13.2,-348.0,-6.3,-4.5,-182.4,-211.2,-2.1,-7.5,-100.5,154.8,0,2850,0,179,0,
1.5867,-27.3,69.3,1.5,-85.5,-208.2,-298.2,207.6,-201.3,-3260.4,341.4,-269.4,-24.9,150.0,145.2,-30.0,-345.9,-6.6,-4.2,-183.9,-207.3,-1.5,3.6,-92.1,157.8,0,2856,0,180,0,
1.5900,-30.0,69.6,3.0,-90.9,-215.4,-297.9,206.4,-205.5,-3112.2,338.4,-268.8,-26.4,144.0,144.0,-32.4,-339.0,-6.0,-4.5,-183.6,-209.1,-1.8,-1.2,-97.5,159.9,0,2862,0,181,0,
1.5933,-30.0,72.0,2.1,-90.3,-217.5,-298.5,210.0,-206.1,-3112.2,338.4,-270.6,-28.5,146.4,142.8,-23.7,-344.7,-6.3,-4.2,-184.8,-210.3,-1.5,10.5,-97.8,158.1,0,2868,0,182,0,
1.5967,-30.9,70.8,-0.6,-93.6,-220.8,-302.1,204.0,-206.7,-3186.3,326.4,-274.8,-34.2,149.4,140.7,-19.8,-360.0,-6.3,-4.5,-185.4,-215.1,-1.8,6.3,-102.6,152.4,0,2874,0,183,0,
1.6000,-31.5,60.9,-10.2,-103.5,-226.2,-311.1,200.1,-214.8,-3186.3,318.6,-288.6,-45.9,136.8,145.2,0.6,-333.3,-6.3,-4.5,-200.4,-228.6,-1.8,-6.3,-102.3,147.3,0,2880,0,184,0,
1.6033,-33.0,62.1,-5.1,-100.8,-225.6,-306.6,202.2,-214.2,-3260.4,312.9,-283.5,-42.0,135.9,144.6,-11.1,-339.9,-6.3,-4.5,-194.4,-226.2,-1.8,-12.0,-102.3,148.5,0,2886,0,185,0,
1.6067,-31.8,67.5,-0.3,-93.9,-218.4,-301.8,201.3,-213.3,-3112.2,323.4,-274.8,-33.9,137.7,138.9,-8.1,-352.8,-6.3,-4.5,-189.9,-218.1,-1.5,-1.2,-99.6,155.4,0,2892,0,186,0,
1.6100,-29.1,70.2,0.0,-94.8,-219.9,-306.9,200.1,-211.5,-3186.3,331.2,-276.9,-35.4,141.9,149.4,7.2,-347.1,-6.3,-4.5,-192.3,-218.4,-1.8,-15.0,-105.3,148.5,0,2898,0,187,0,
1.6133,-30.6,69.6,-1.8,-94.2,-219.3,-307.2,201.9,-210.6,-3260.4,320.1,-277.5,-37.5,140.1,145.2,-14.4,-345.0,-6.0,-4.2,-191.1,-219.0,-1.8,-15.3,-87.0,150.0,0,2904,0,188,0,
1.6167,-30.6,70.2,-0.3,-86.4,-214.5,-300.6,204.9,-207.0,-3186.3,329.4,-274.2,-29.4,138.3,141.6,-21.9,-354.6,-6.3,-4.5,-187.2,-211.2,-2.1,10.2,-87.0,163.8,0,2910,0,189,0,
1.6200,-30.0,69.6,2.4,-87.3,-216.9,-300.9,201.0,-208.8,-3186.3,326.7,-273.3,-29.7,136.5,142.2,-18.6,-357.0,-6.0,-4.2,-187.5,-211.5,-2.1,5.7,-92.1,156.3,0,2916,0,190,0,
1.6233,-33.9,66.0,2.4,-89.4,-218.1,-307.2,199.2,-211.2,-3260.4,319.5,-275.7,-33.9,138.9,142.5,-11.4,-345.3,-6.6,-4.5,-188.7,-215.1,-1.8,6.6,-102.3,148.5,0,2922,0,191,0,
1.6267,-28.5,72.9,9.3,-80.4,-209.1,-302.7,201.6,-204.6,-3112.2,331.8,-267.0,-28.2,148.2,138.6,-21.9,-364.2,-6.0,-4.5,-180.9,-206.1,-1.8,0.6,-101.4,155.7,0,2928,0,192,0,
1.6300,-33.9,62.1,-7.8,-95.4,-223.5,-315.6,192.6,-216.0,-3112.2,315.6,-281.1,-39.9,132.9,152.1,18.6,-351.3,-6.6,-4.5,-198.6,-222.6,-1.8,-24.3,-122.1,135.9,0,2934,0,193,0,
1.6333,-30.9,70.5,2.7,-80.7,-206.4,-298.8,200.7,-203.4,-3186.3,330.0,-270.3,-26.4,143.7,151.8,-5.1,-366.9,-6.3,-4.2,-188.4,-207.9,-1.5,-11.4,-107.4,150.6,0,2940,0,194,0,
1.6367,-31.5,79.2,15.3,-71.1,-197.1,-294.6,205.2,-197.4,-3112.2,348.0,-259.8,-16.8,149.4,138.3,-52.8,-375.6,-6.3,-4.5,-174.6,-199.2,-1.5,1.2,-104.4,158.7,0,2946,0,195,0,
1.6400,-33.9,74.7,12.0,-74.7,-202.2,-299.1,203.4,-200.1,-3186.3,342.3,-263.7,-18.6,147.3,138.3,-36.3,-367.2,-6.0,-4.2,-181.8,-202.8,-1.8,-2.1,-101.1,161.4,0,2952,0,196,0,
1.6433,-34.5,69.9,4.2,-78.9,-208.8,-306.6,197.4,-202.5,-3038.1,330.3,-276.3,-27.6,142.5,146.7,-12.6,-369.6,-6.3,-4.5,-190.8,-210.3,-1.8,-18.6,-112.5,146.7,0,2958,0,197,0,
1.6467,-38.4,73.5,12.6,-74.1,-197.4,-298.5,203.1,-196.2,-3260.4,334.5,-267.3,-18.6,143.4,126.6,-58.2,-361.2,-6.3,-4.2,-186.9,-201.0,-1.5,3.3,-93.9,160.5,0,2964,0,198,0,
1.6500,-34.8,75.3,15.3,-71.1,-195.0,-289.2,208.5,-191.1,-3112.2,330.0,-260.1,-14.1,145.2,134.7,-52.5,-361.2,-6.0,-4.5,-181.8,-193.5,-1.8,15.9,-86.7,171.6,0,2970,0,199,0,
1.6533,-32.4,74.1,18.9,-64.8,-189.0,-286.2,205.5,-188.4,-3186.3,337.8,-257.1,-9.6,149.1,137.4,-43.5,-374.4,-6.0,-4.2,-179.1,-191.4,-1.8,14.4,-97.8,165.3,0,2976,0,200,0,
1.6567,-31.8,72.0,7.8,-76.5,-201.3,-297.3,203.7,-195.0,-3112.2,324.9,-272.7,-27.0,146.1,144.9,-7.8,-355.5,-6.6,-4.5,-186.6,-205.5,-1.5,-10.5,-99.0,152.1,0,2982,0,201,0,
1.6600,-36.9,63.3,0.9,-85.5,-212.4,-308.1,198.3,-202.8,-3186.3,315.9,-277.2,-35.1,136.5,145.8,15.6,-360.9,-6.3,-4.5,-195.3,-217.5,-2.1,-24.9,-106.8,139.5,0,2988,0,202,0,
1.6633,-34.5,72.0,11.1,-75.6,-201.0,-297.0,203.7,-195.6,-3112.2,332.4,-264.0,-21.6,147.6,134.7,-33.6,-367.5,-6.6,-4.2,-180.3,-202.5,-1.8,5.1,-95.1,156.9,0,2994,0,203,0,
1.6667,-35.4,73.8,13.2,-72.0,-202.8,-295.8,203.4,-193.8,-3112.2,336.3,-262.2,-19.8,150.6,138.6,-41.7,-359.7,-6.3,-4.5,-180.0,-204.0,-2.1,-16.8,-104.1,152.4,0,3000,0,204,0,
1.6700,-36.9,67.8,5.4,-79.5,-214.2,-302.1,195.3,-200.1,-3186.3,333.0,-271.5,-28.8,143.7,139.5,-16.8,-342.9,-6.3,-4.2,-186.0,-213.6,-1.8,-25.5,-107.7,145.2,0,3006,0,205,0,
1.6733,-33.0,67.5,5.7,-77.7,-209.4,-301.5,199.8,-199.8,-2964.0,326.7,-270.3,-28.5,143.4,144.9,-14.7,-360.6,-6.0,-4.2,-185.7,-210.6,-2.1,-11.4,-106.5,150.3,0,3012,0,206,0,
1.6767,-33.6,63.9,0.9,-81.3,-210.0,-300.3,200.7,-200.4,-3260.4,319.8,-272.7,-30.0,141.6,140.4,-9.3,-364.5,-6.0,-4.2,-192.6,-212.1,-1.8,-11.1,-105.9,146.4,0,3018,0,207,0,
1.6800,-33.9,69.9,9.6,-74.1,-204.3,-295.5,204.0,-195.9,-3260.4,336.3,-268.8,-22.2,150.6,139.5,-42.6,-382.2,-6.3,-4.2,-184.8,-202.2,-1.8,3.6,-104.4,155.4,0,3024,0,208,0,
1.6833,-32.1,69.0,2.4,-80.4,-210.0,-301.2,198.9,-201.3,-3186.3,334.2,-273.6,-30.3,147.9,137.7,-30.0,-370.8,-6.3,-4.2,-193.5,-211.2,-1.5,-15.3,-108.0,146.1,0,3030,0,209,0,
1.6867,-29.1,72.3,9.3,-79.2,-204.0,-301.2,206.1,-198.6,-3186.3,332.1,-267.6,-24.3,150.0,147.3,-17.4,-361.8,-6.3,-4.5,-185.7,-206.1,-1.8,-9.0,-95.4,152.4,0,3036,0,210,0,
1.6900,-32.7,64.2,3.3,-83.4,-211.8,-303.0,205.2,-203.4,-3038.1,316.8,-276.6,-37.5,137.1,135.6,-24.3,-361.2,-6.3,-4.2,-193.8,-218.7,-1.5,-6.6,-89.1,150.9,0,3042,0,211,0,
1.6933,-35.4,65.4,-3.9,-84.3,-218.1,-306.9,201.6,-206.7,-3186.3,321.3,-284.7,-57.6,134.1,143.1,-18.9,-369.0,-6.0,-4.2,-201.3,-229.8,-1.8,-15.0,-102.9,144.3,0,3048,0,212,0,
1.6967,-33.9,63.0,-5.7,-88.8,-216.3,-306.6,200.7,-208.5,-3112.2,324.0,-282.9,-49.8,137.4,149.7,0.9,-366.9,-6.3,-4.8,-200.1,-224.4,-1.8,-14.4,-104.1,147.3,0,3054,0,213,0,
1.7000,-34.5,66.6,1.8,-87.9,-214.5,-305.1,202.2,-207.3,-3186.3,329.4,-272.7,-33.3,144.9,148.5,-5.1,-346.5,-6.3,-4.2,-192.6,-210.9,-2.4,-5.4,-99.0,153.9,0,3060,0,214,0,
1.7033,-33.3,67.5,0.0,-85.8,-214.2,-303.6,198.9,-206.7,-3186.3,329.1,-275.7,-38.1,147.9,151.5,-14.7,-356.4,-6.3,-4.5,-195.9,-214.2,-1.8,-18.3,-105.9,150.6,0,3066,0,215,0,
1.7067,-31.8,70.8,6.3,-82.8,-211.5,-301.2,201.6,-204.0,-3112.2,335.1,-267.3,-24.9,149.7,152.4,-6.0,-358.5,-6.3,-4.2,-191.1,-204.9,-2.1,-3.3,-102.6,156.9,0,3072,0,216,0,
1.7100,-38.4,61.2,-4.2,-93.6,-222.0,-302.4,200.7,-212.4,-3112.2,324.0,-273.0,-28.5,132.0,140.7,-5.1,-342.0,-6.3,-4.5,-200.1,-208.5,-1.5,-2.7,-90.6,161.4,0,3078,0,217,0,
1.7133,-42.3,54.3,-14.1,-102.3,-228.3,-303.6,204.0,-217.2,-3038.1,310.2,-290.7,-42.9,116.4,133.2,-3.6,-307.2,-6.0,-4.2,-215.7,-219.0,-1.5,-1.8,-76.8,154.8,0,3084,0,218,0,
1.7167,-40.5,58.8,-2.4,-95.1,-220.8,-295.2,206.7,-212.4,-3260.4,330.0,-276.0,-35.7,131.4,134.4,-15.3,-331.8,-6.3,-4.5,-205.2,-206.7,-1.8,10.5,-84.0,164.4,0,3090,0,219,0,
1.7200,-33.3,68.7,12.9,-78.9,-209.4,-286.8,208.2,-200.7,-3186.3,337.8,-257.7,-14.1,149.1,135.9,-44.7,-359.7,-6.0,-3.9,-187.2,-187.2,-1.8,26.7,-78.9,175.2,0,3096,0,220,0,
1.7233,-32.4,64.8,6.0,-84.3,-210.9,-295.5,203.4,-201.3,-3112.2,324.9,-265.8,-19.2,140.1,148.2,-4.5,-358.8,-6.0,-4.2,-198.9,-195.9,-1.8,-2.4,-98.1,163.8,0,3102,0,221,0,
1.7267,-29.1,62.7,2.1,-88.2,-212.7,-298.2,202.2,-204.3,-3038.1,315.6,-267.9,-18.9,137.1,152.1,11.1,-353.7,-6.3,-4.5,-201.3,-197.7,-1.5,-12.6,-108.9,150.6,0,3108,0,222,0,
1.7300,-33.3,61.8,4.8,-88.5,-214.5,-299.4,200.4,-204.0,-3186.3,318.9,-267.0,-24.3,137.7,140.1,-8.7,-364.8,-6.6,-4.8,-199.8,-201.3,-1.8,-7.5,-110.4,152.1,0,3114,0,223,0,
1.7333,-26.4,77.1,24.6,-69.3,-195.3,-283.2,210.3,-186.0,-3112.2,350.7,-246.9,-6.0,153.3,138.0,-48.3,-374.7,-6.3,-4.2,-177.6,-183.6,-1.5,10.8,-96.0,171.9,0,3120,0,224,0,
1.7367,-30.9,73.5,21.6,-70.5,-197.1,-284.7,214.5,-187.2,-3112.2,347.4,-246.0,-4.5,151.8,134.4,-54.9,-348.6,-6.3,-4.8,-180.3,-180.3,-2.1,10.5,-86.1,173.7,0,3126,0,225,0,
1.7400,-29.4,73.2,17.7,-72.3,-198.0,-285.6,207.3,-190.8,-3186.3,331.5,-251.7,-8.4,144.9,143.1,-15.3,-367.2,-6.0,-4.2,-184.2,-186.6,-1.8,3.0,-97.8,168.0,0,3132,0,226,0,
1.7433,-33.3,69.9,11.7,-81.3,-207.9,-296.1,204.0,-196.8,-3186.3,324.3,-258.9,-20.1,141.6,138.3,-16.5,-360.0,-6.3,-4.5,-191.1,-195.0,-1.8,-19.5,-108.6,154.2,0,3138,0,227,0,
1.7467,-29.1,82.2,26.4,-71.1,-192.6,-282.6,209.4,-186.6,-3186.3,349.5,-241.2,2.1,151.5,134.4,-62.4,-378.6,-6.3,-4.2,-174.6,-177.6,-1.8,10.2,-102.9,167.4,0,3144,0,228,0,
1.7500,-29.1,71.1,16.2,-79.8,-204.6,-289.8,207.0,-195.9,-3186.3,330.3,-254.4,-10.2,143.4,130.2,-52.8,-352.8,-6.6,-4.5,-188.4,-188.7,-1.5,1.5,-97.2,166.5,0,3150,0,229,0,
1.7533,-28.8,75.9,17.7,-77.1,-205.5,-290.4,204.3,-195.6,-3112.2,333.6,-257.4,-15.0,144.3,138.9,-41.7,-380.7,-6.0,-3.9,-188.7,-191.1,-1.8,5.7,-111.0,165.0,0,3156,0,230,0,
1.7567,-26.7,77.7,20.1,-74.1,-201.9,-293.7,198.3,-192.9,-3038.1,332.4,-252.9,-12.0,147.6,150.3,-27.6,-372.6,-6.3,-4.5,-183.0,-189.3,-1.5,-4.8,-118.2,160.8,0,3162,0,231,0,
1.7600,-27.6,69.0,8.7,-88.5,-214.2,-300.0,202.5,-201.9,-3038.1,324.0,-264.3,-22.5,140.4,153.9,6.6,-346.5,-6.3,-4.5,-196.5,-200.4,-1.8,-9.9,-116.4,150.3,0,3168,0,232,0,
1.7633,-24.0,76.8,17.7,-74.4,-201.6,-289.2,201.3,-194.1,-3112.2,339.0,-255.3,-12.6,152.7,159.9,-7.8,-373.2,-6.3,-4.5,-188.7,-184.5,-1.5,5.4,-115.2,159.6,0,3174,0,233,0,
1.7667,-24.0,86.4,26.1,-65.4,-192.9,-278.4,208.8,-186.6,-3260.4,341.7,-244.5,-1.8,159.3,147.9,-31.8,-368.1,-6.3,-4.2,-177.0,-176.1,-1.5,20.7,-106.5,170.4,0,3180,0,234,0,
1.7700,-28.5,85.2,27.3,-64.2,-192.0,-280.2,210.9,-187.8,-3186.3,347.1,-249.3,-5.1,159.9,150.3,-46.8,-364.8,-6.3,-4.5,-178.8,-180.9,-1.8,11.1,-97.5,168.0,0,3186,0,235,0,
1.7733,-34.8,76.5,17.7,-72.9,-198.0,-280.5,209.4,-192.3,-3038.1,329.4,-257.7,-11.7,149.7,130.5,-45.3,-356.4,-6.6,-4.2,-192.3,-184.2,-1.5,4.5,-92.1,162.9,0,3192,0,236,0,
1.7767,-33.9,70.8,12.6,-84.0,-206.4,-294.0,204.6,-195.6,-3112.2,318.3,-262.5,-22.8,143.7,143.1,-19.8,-353.7,-6.3,-4.2,-197.1,-195.6,-1.8,-18.6,-104.1,150.6,0,3198,0,237,0,
1.7800,-36.9,70.8,9.0,-84.0,-208.5,-294.6,203.4,-197.7,-3112.2,326.4,-262.8,-18.3,143.1,146.7,-12.3,-358.8,-6.3,-4.5,-198.0,-194.1,-1.8,-6.6,-99.9,159.0,0,3204,0,238,0,
1.7833,-35.1,67.2,10.8,-82.5,-210.3,-298.8,201.3,-196.5,-3186.3,320.7,-264.3,-18.0,142.5,143.1,-25.2,-359.1,-6.0,-4.2,-198.0,-194.4,-1.8,1.2,-94.5,156.9,0,3210,0,239,0,
1.7867,-35.1,66.0,7.5,-83.4,-210.6,-298.5,199.2,-200.1,-3186.3,316.2,-267.3,-23.4,139.2,142.8,-34.8,-362.1,-6.6,-4.5,-198.6,-197.1,-1.5,-3.0,-93.3,159.3,0,3216,0,240,0,
1.7900,-37.8,62.4,0.6,-94.2,-216.6,-308.4,199.5,-205.2,-3186.3,305.4,-277.2,-30.3,134.1,143.7,-16.2,-351.3,-6.3,-4.5,-208.8,-206.4,-1.8,-20.4,-99.3,152.4,0,3222,0,241,0,
1.7933,-36.0,65.7,10.5,-81.6,-205.8,-301.2,201.6,-200.1,-3186.3,319.2,-264.9,-20.1,139.2,135.3,-44.4,-351.3,-6.6,-4.5,-199.8,-191.4,-1.5,-11.7,-104.1,154.8,0,3228,0,242,0,
1.7967,-33.6,66.0,11.1,-83.1,-205.5,-298.8,203.4,-198.6,-3186.3,316.8,-264.3,-21.3,137.1,139.2,-21.3,-340.8,-6.0,-4.5,-198.9,-199.2,-1.8,-11.7,-99.9,154.5,0,3234,0,243,0,
1.8000,-27.9,68.1,9.6,-81.9,-201.9,-296.4,199.5,-198.3,-3260.4,318.3,-267.9,-22.5,140.7,150.9,2.1,-360.0,-6.3,-4.8,-198.0,-195.6,-1.8,-6.0,-106.8,157.5,0,3240,0,244,0,
1.8033,-30.9,67.5,2.7,-86.1,-211.8,-300.0,194.4,-200.7,-3038.1,325.2,-268.5,-27.6,136.5,151.2,-0.9,-363.3,-6.3,-4.2,-200.1,-204.0,-1.5,-19.2,-107.7,147.6,0,3246,0,245,0,
1.8067,-33.0,69.6,13.2,-75.9,-201.6,-291.6,199.8,-195.6,-3186.3,342.6,-257.4,-15.6,142.2,135.9,-42.9,-372.6,-6.3,-4.5,-189.6,-192.0,-1.5,-9.3,-110.7,158.4,0,3252,0,246,0,
1.8100,-32.7,65.4,7.5,-83.7,-204.0,-293.7,197.1,-199.8,-3112.2,333.3,-264.0,-15.9,135.6,144.0,-21.9,-355.8,-6.0,-4.5,-196.5,-196.5,-1.8,-2.1,-102.9,156.0,0,3258,0,247,0,
1.8133,-33.9,67.8,9.3,-78.3,-203.4,-294.0,198.6,-198.3,-3186.3,329.1,-261.0,-17.1,136.5,143.7,-24.0,-357.3,-6.3,-4.2,-196.8,-191.1,-1.5,-11.1,-103.8,157.2,0,3264,0,248,0,
1.8167,-34.5,66.0,5.1,-84.9,-210.0,-300.9,202.8,-199.2,-3260.4,326.1,-264.9,-24.3,138.0,139.8,-14.1,-349.2,-6.3,-4.5,-198.9,-198.9,-1.8,-7.8,-106.5,154.8,0,3270,0,249,0,
1.8200,-33.3,71.4,8.7,-78.6,-205.5,-294.9,204.6,-193.8,-3334.5,336.3,-258.3,-15.0,144.3,135.3,-58.5,-357.6,-6.3,-4.5,-191.7,-189.6,-1.5,8.1,-100.5,164.7,0,3276,0,250,0,
1.8233,-39.9,60.9,-0.9,-88.5,-215.1,-300.9,201.0,-199.8,-3112.2,322.5,-268.8,-24.3,133.8,129.6,-41.7,-352.2,-6.0,-4.5,-201.0,-199.8,-1.5,4.8,-101.4,163.2,0,3282,0,251,0,
1.8267,-41.4,54.6,-8.7,-93.6,-218.4,-301.5,205.2,-204.0,-3112.2,298.2,-279.3,-33.3,121.2,125.4,-32.4,-344.1,-6.3,-4.8,-213.3,-207.3,-1.8,-5.1,-89.7,167.7,0,3288,0,252,0,
1.8300,-40.2,50.1,-14.1,-95.1,-221.4,-304.5,202.5,-209.7,-3260.4,309.6,-278.7,-39.6,119.7,129.3,-18.6,-350.4,-6.3,-4.5,-213.3,-208.8,-1.8,-12.3,-91.2,154.8,0,3294,0,253,0,
1.8333,-39.6,58.5,-4.8,-91.5,-214.2,-300.6,200.1,-206.7,-3186.3,310.5,-272.4,-30.6,125.4,126.9,-27.6,-353.1,-6.3,-4.2,-202.5,-202.5,-1.8,-16.5,-102.3,147.6,0,3300,0,254,0,
1.8367,-39.6,62.7,0.9,-87.9,-208.8,-298.2,201.9,-200.4,-3260.4,315.6,-270.0,-25.8,129.6,123.3,-39.6,-361.8,-6.3,-4.5,-201.6,-196.5,-1.8,1.2,-101.1,156.9,0,3306,0,255,0,
1.8400,-39.0,63.3,3.0,-84.3,-206.4,-297.0,200.7,-199.8,-3186.3,312.6,-269.1,-26.1,127.2,125.7,-45.3,-365.7,-6.3,-4.5,-201.0,-200.7,-1.8,1.5,-100.2,156.9,0,3312,0,0,0,
1.8433,-40.8,53.7,-10.2,-92.4,-216.0,-304.5,202.5,-207.3,-3186.3,305.4,-283.2,-36.9,125.4,126.9,-7.8,-343.2,-6.3,-4.5,-214.8,-211.2,-1.8,-33.9,-102.0,146.1,0,3318,0,1,0,
1.8467,-36.9,61.8,-0.3,-83.1,-203.7,-297.3,203.7,-199.8,-3260.4,310.8,-272.7,-29.4,130.8,120.9,-45.3,-360.9,-6.3,-4.2,-206.7,-201.0,-1.8,-17.7,-99.0,154.5,0,3324,0,2,0,
1.8500,-33.6,64.5,0.3,-85.5,-208.5,-300.9,201.9,-199.8,-3186.3,311.1,-272.4,-32.1,123.3,125.1,-43.2,-361.8,-6.6,-4.2,-204.3,-205.5,-1.8,-17.7,-103.5,147.9,0,3330,0,3,0,
1.8533,-36.3,64.5,5.1,-81.6,-206.4,-295.2,204.6,-198.6,-3260.4,321.0,-269.1,-25.5,122.1,123.3,-48.3,-364.5,-6.3,-4.5,-201.3,-201.3,-1.8,-12.9,-99.9,154.5,0,3336,0,4,0,
1.8567,-34.2,66.9,5.1,-84.6,-210.6,-298.2,204.3,-199.8,-3186.3,314.7,-272.7,-30.3,137.4,130.2,-38.7,-359.1,-6.3,-4.2,-204.3,-205.8,-1.5,-21.6,-100.8,149.4,0,3342,0,5,0,
1.8600,-32.4,67.2,2.7,-83.7,-205.8,-296.7,205.5,-199.2,-2964.0,319.2,-267.9,-27.3,144.9,129.9,-31.2,-349.2,-6.3,-4.5,-201.3,-201.3,-1.8,-18.0,-103.2,149.7,0,3348,0,6,0,
1.8633,-40.2,54.3,-9.9,-94.5,-221.1,-306.6,199.5,-205.8,-3186.3,293.7,-289.5,-45.9,119.7,120.6,-18.0,-350.1,-6.6,-4.5,-221.1,-219.6,-1.5,-25.2,-104.4,144.6,0,3354,0,7,0,
1.8667,-39.3,59.7,-1.5,-89.4,-216.0,-304.2,202.2,-198.3,-3260.4,300.0,-282.6,-38.1,125.1,123.9,-19.5,-360.0,-6.0,-4.8,-215.7,-213.6,-1.8,-21.3,-111.0,143.4,0,3360,0,8,0,
1.8700,-39.0,66.3,8.4,-79.5,-207.9,-296.4,201.6,-192.3,-3186.3,307.2,-269.1,-26.7,130.8,117.6,-59.7,-366.3,-6.6,-4.5,-204.6,-201.0,-1.5,-8.7,-100.2,155.4,0,3366,0,9,0,
1.8733,-34.2,65.1,3.9,-84.0,-212.7,-300.3,207.6,-196.2,-3186.3,308.1,-276.3,-33.6,136.8,126.6,-60.3,-356.1,-6.3,-4.5,-204.9,-208.5,-1.8,-17.1,-101.4,154.2,0,3372,0,10,0,
1.8767,-39.3,61.8,-5.4,-96.3,-220.2,-306.9,204.9,-202.8,-3186.3,293.7,-287.4,-42.0,127.5,123.9,-31.5,-340.2,-6.3,-4.2,-218.4,-215.4,-1.8,-22.2,-107.1,141.9,0,3378,0,11,0,
1.8800,-38.1,56.4,-9.0,-101.4,-223.2,-307.5,203.4,-206.7,-3186.3,289.5,-291.0,-45.6,116.7,127.5,-15.3,-337.2,-6.0,-4.5,-224.1,-219.3,-1.5,-26.7,-102.3,136.2,0,3384,0,12,0,
1.8833,-37.5,57.9,-9.6,-99.6,-225.3,-308.1,201.3,-208.2,-3186.3,294.6,-291.3,-50.1,122.1,128.1,-30.0,-347.4,-6.3,-4.5,-219.6,-225.6,-1.8,-35.7,-102.6,134.1,0,3390,0,13,0,
1.8867,-41.7,57.6,-8.4,-95.7,-218.1,-300.6,206.1,-204.9,-3186.3,295.5,-285.9,-44.4,119.7,110.4,-61.2,-362.4,-6.0,-4.8,-219.6,-216.6,-2.1,-17.1,-91.5,150.3,0,3396,0,14,0,
1.8900,-39.0,59.7,-9.3,-97.8,-220.5,-303.6,199.2,-202.2,-3186.3,298.8,-288.3,-45.6,118.2,112.5,-52.5,-373.8,-6.0,-4.5,-219.0,-220.2,-1.8,-15.6,-115.2,135.3,0,3402,0,15,0,
1.8933,-39.0,54.0,-13.2,-102.3,-225.9,-305.7,204.0,-202.5,-3186.3,289.5,-293.1,-50.4,117.9,113.1,-33.6,-368.1,-6.3,-4.5,-227.4,-222.9,-1.5,-17.4,-102.3,142.8,0,3408,0,16,0,
1.8967,-33.6,61.2,-8.1,-97.2,-222.3,-309.0,201.6,-204.0,-3186.3,293.1,-288.6,-47.1,126.0,122.4,-29.1,-374.4,-6.3,-4.5,-218.7,-223.5,-2.1,-42.3,-110.4,136.2,0,3414,0,17,0,
1.9000,-39.9,56.1,-12.3,-100.5,-225.3,-313.2,198.6,-211.2,-3186.3,296.1,-285.9,-47.7,119.7,115.5,-48.9,-368.7,-6.3,-4.8,-218.7,-222.3,-1.8,-40.5,-113.7,132.6,0,3420,0,18,0,
1.9033,-39.0,56.4,-15.9,-103.8,-230.4,-315.9,198.0,-215.1,-3260.4,293.1,-293.7,-53.7,115.2,132.3,-14.4,-356.4,-6.3,-4.5,-223.5,-230.1,-1.5,-54.0,-120.0,126.0,0,3426,0,19,0,
1.9067,-37.8,58.8,-10.2,-101.4,-225.9,-311.7,197.1,-212.1,-3186.3,293.1,-285.0,-45.6,118.8,121.8,-34.8,-358.5,-6.0,-4.5,-217.5,-222.6,-1.8,-27.6,-112.5,139.2,0,3432,0,20,0,
1.9100,-35.4,56.7,-15.0,-107.1,-228.0,-315.9,197.4,-215.1,-3186.3,289.8,-290.4,-46.5,114.3,120.0,-35.7,-362.1,-6.0,-4.2,-221.7,-223.2,-1.8,-27.9,-109.2,139.5,0,3438,0,21,0,
1.9133,-43.5,48.3,-21.0,-109.8,-231.6,-317.1,200.1,-218.1,-3186.3,285.0,-296.1,-54.0,109.5,108.0,-40.8,-353.4,-6.3,-4.8,-228.9,-225.6,-1.5,-21.0,-102.0,139.2,0,3444,0,22,0,
1.9167,-34.5,57.9,-9.9,-99.9,-225.6,-310.8,200.7,-212.4,-3186.3,302.4,-283.5,-43.2,120.3,119.1,-40.8,-349.8,-6.0,-5.1,-215.7,-218.1,-1.5,-24.9,-100.5,138.6,0,3450,0,23,0,
1.9200,-39.0,54.6,-10.5,-103.5,-228.6,-313.5,194.4,-215.1,-3186.3,289.5,-285.6,-49.5,119.7,124.2,-31.5,-363.0,-6.6,-4.2,-219.6,-221.7,-2.1,-29.1,-100.2,135.3,0,3456,0,24,0,
1.9233,-36.9,57.6,-10.5,-98.4,-224.7,-310.2,198.0,-215.1,-3260.4,295.5,-284.1,-45.9,120.3,126.6,-30.0,-365.4,-6.0,-4.2,-219.0,-218.4,-1.5,-24.0,-103.2,136.5,0,3462,0,25,0,
1.9267,-38.7,57.6,-8.1,-94.2,-218.7,-303.0,208.5,-212.1,-3186.3,309.3,-277.5,-33.9,123.9,118.2,-54.3,-353.1,-6.6,-4.5,-208.2,-207.3,-2.1,-24.3,-91.8,146.7,0,3468,0,26,0,
1.9300,-35.7,62.4,-10.8,-93.9,-211.8,-298.5,208.2,-210.9,-3260.4,323.4,-274.8,-33.6,131.1,124.8,-42.0,-345.9,-6.0,-4.5,-210.0,-206.7,-1.5,-13.2,-92.7,149.7,0,3474,0,27,0,
1.9333,-34.2,57.6,-16.8,-105.9,-226.5,-308.1,202.2,-217.8,-3186.3,302.7,-290.7,-51.0,126.3,131.1,-10.2,-340.5,-6.6,-4.5,-218.7,-221.4,-1.5,-31.8,-104.4,134.7,0,3480,0,28,0,
1.9367,-28.2,55.2,-12.9,-102.9,-222.0,-304.2,208.2,-213.9,-3260.4,303.6,-283.2,-41.1,138.0,134.1,-17.7,-337.5,-6.6,-4.2,-211.5,-215.7,-1.5,-15.3,-92.4,141.0,0,3486,0,29,0,
1.9400,-35.7,54.3,-14.1,-101.4,-227.1,-313.2,204.6,-220.8,-3038.1,299.1,-283.2,-41.1,127.8,133.8,-7.5,-336.0,-6.6,-4.2,-214.2,-217.2,-2.1,-18.3,-101.4,136.8,0,3492,0,30,0,
1.9433,-30.9,66.3,2.4,-89.1,-210.6,-300.6,207.3,-209.7,-3186.3,310.8,-270.3,-27.6,126.9,128.4,-43.2,-358.2,-6.3,-4.2,-199.5,-202.2,-1.8,-5.1,-105.3,147.6,0,3498,0,31,0,
1.9467,-31.5,71.1,9.6,-81.9,-205.2,-296.7,208.8,-203.1,-3112.2,333.9,-255.6,-17.1,138.9,127.8,-70.2,-367.8,-6.6,-4.5,-186.9,-193.2,-1.5,-5.7,-99.3,152.4,0,3504,0,32,0,
1.9500,-28.5,67.2,3.3,-87.6,-212.4,-303.3,206.7,-211.8,-3186.3,316.8,-264.6,-27.6,142.5,139.2,-35.1,-359.4,-6.0,-4.5,-195.0,-202.5,-1.8,-11.1,-105.9,146.1,0,3510,0,33,0,
1.9533,-29.1,63.3,-5.1,-94.2,-215.4,-307.8,203.7,-214.5,-3186.3,319.2,-276.0,-33.9,139.5,135.9,-36.0,-358.2,-6.3,-4.5,-205.8,-207.3,-1.5,-25.5,-108.0,145.2,0,3516,0,34,0,
1.9567,-30.6,63.6,-3.0,-93.0,-213.0,-306.3,200.4,-213.3,-3112.2,317.1,-271.8,-34.8,134.1,130.8,-43.8,-358.5,-6.0,-4.5,-204.6,-205.2,-1.8,-24.0,-103.5,147.0,0,3522,0,35,0,
1.9600,-33.0,60.6,-10.5,-102.9,-225.6,-318.9,190.8,-222.3,-3112.2,305.4,-284.4,-45.6,130.2,139.2,-4.8,-347.7,-6.3,-4.2,-218.4,-217.8,-1.8,-39.6,-117.0,133.2,0,3528,0,36,0,
1.9633,-32.7,61.2,-11.4,-105.9,-226.8,-316.5,192.9,-223.2,-3186.3,297.9,-292.5,-51.6,134.4,145.5,3.3,-350.1,-6.6,-4.5,-219.3,-219.6,-1.5,-45.6,-119.7,131.1,0,3534,0,37,0,
1.9667,-29.7,69.9,0.9,-89.1,-211.8,-301.5,198.6,-207.6,-3186.3,325.8,-276.3,-34.2,139.5,131.1,-67.5,-361.5,-6.3,-4.2,-209.4,-205.8,-1.5,-21.9,-105.0,143.1,0,3540,0,38,0,
1.9700,-32.1,65.4,0.3,-91.8,-213.6,-299.1,199.8,-209.4,-3186.3,321.0,-276.6,-30.6,135.0,134.1,-63.0,-360.3,-6.0,-4.8,-212.7,-204.6,-1.5,-24.6,-102.0,142.8,0,3546,0,39,0,
1.9733,-32.1,66.0,0.9,-90.9,-212.4,-299.7,199.5,-208.8,-3186.3,315.0,-275.1,-33.0,132.6,130.5,-41.4,-352.5,-6.3,-4.5,-207.9,-205.2,-2.1,-18.6,-101.4,149.1,0,3552,0,40,0,
1.9767,-34.5,59.1,-12.6,-105.9,-223.8,-310.8,194.1,-218.7,-3112.2,297.3,-288.9,-51.0,127.2,130.5,-9.6,-353.4,-6.6,-4.8,-222.3,-221.1,-1.8,-30.6,-113.1,139.2,0,3558,0,41,0,
1.9800,-42.9,46.2,-20.1,-111.6,-231.6,-318.0,191.1,-223.8,-3260.4,284.1,-296.4,-55.5,117.9,124.5,-10.2,-345.9,-6.0,-4.5,-230.7,-225.6,-1.5,-32.7,-106.8,137.1,0,3564,0,42,0,
1.9833,-39.6,53.1,-9.3,-98.4,-219.9,-303.3,204.0,-211.8,-3186.3,298.5,-283.8,-39.6,132.6,114.6,-38.4,-332.7,-6.0,-4.5,-218.1,-210.9,-1.5,-14.4,-90.9,156.9,0,3570,0,43,0,
1.9867,-39.3,57.9,-1.5,-92.7,-217.2,-300.6,207.6,-209.1,-3260.4,300.3,-279.9,-34.5,131.7,113.1,-56.7,-353.4,-6.3,-4.2,-209.1,-207.0,-1.2,-11.4,-95.1,158.1,0,3576,0,44,0,
1.9900,-38.7,60.6,1.5,-92.1,-213.6,-296.7,209.1,-205.2,-3186.3,308.1,-277.2,-35.1,131.1,125.1,-41.4,-357.6,-6.0,-4.8,-208.8,-209.1,-1.8,-8.4,-95.7,158.4,0,3582,0,45,0,
1.9933,-36.9,55.2,-4.8,-97.5,-217.5,-306.3,199.8,-210.6,-3186.3,303.9,-279.9,-34.8,123.3,126.0,-23.4,-356.4,-6.3,-4.8,-211.5,-209.4,-1.5,-2.4,-108.6,148.8,0,3588,0,46,0,
1.9967,-40.5,57.6,-5.1,-100.5,-219.9,-303.6,200.7,-212.4,-3186.3,304.2,-280.8,-36.9,130.8,115.8,-25.5,-359.4,-6.6,-4.5,-213.0,-211.2,-1.8,-18.9,-100.2,148.5,0,3594,0,47,0,
2.0000,-42.6,57.6,-4.2,-103.2,-219.6,-303.9,201.3,-212.4,-3260.4,302.7,-282.3,-41.7,133.5,118.5,-39.9,-344.1,-6.3,-4.2,-212.1,-212.7,-1.8,-14.1,-93.3,155.7,0,3600,0,48,0,
2.0033,-40.8,49.2,-17.1,-114.6,-231.6,-307.8,203.1,-216.6,-3186.3,289.5,-293.7,-54.9,125.7,123.3,-18.0,-324.3,-6.6,-4.2,-224.7,-226.5,-1.5,-25.5,-85.8,145.5,0,3606,0,49,0,
2.0067,-39.6,62.4,0.9,-99.0,-219.3,-298.2,204.6,-204.0,-3038.1,312.3,-274.5,-36.6,137.4,117.6,-65.4,-350.4,-6.0,-4.5,-205.5,-209.4,-1.2,-3.3,-83.1,161.4,0,3612,0,50,0,
2.0100,-41.1,52.8,-13.2,-111.9,-230.1,-309.0,199.5,-216.0,-3112.2,287.4,-293.1,-53.7,125.1,124.8,-33.9,-338.1,-6.9,-4.8,-224.1,-225.0,-1.8,-8.1,-86.4,156.3,0,3618,0,51,0,
2.0133,-41.1,49.8,-16.2,-111.3,-232.8,-309.3,199.8,-217.2,-3186.3,288.6,-295.2,-52.5,126.0,126.0,-31.2,-348.0,-6.0,-4.8,-226.2,-222.9,-1.8,2.4,-86.1,158.1,0,3624,0,52,0,
2.0167,-40.2,48.0,-20.7,-117.6,-238.2,-318.0,192.0,-222.0,-3186.3,291.9,-299.1,-60.6,128.7,126.0,-15.0,-342.3,-6.6,-4.5,-231.6,-231.3,-1.8,-30.3,-112.2,137.1,0,3630,0,53,0,
2.0200,-36.6,58.8,-11.7,-105.0,-228.6,-308.7,197.1,-215.4,-3260.4,305.1,-285.3,-45.6,133.5,128.7,-30.3,-361.8,-6.0,-4.5,-215.7,-220.2,-1.8,-26.4,-108.3,143.7,0,3636,0,54,0,
2.0233,-33.9,65.4,-5.7,-103.5,-225.0,-308.4,197.7,-212.7,-3112.2,305.4,-282.0,-45.9,135.0,130.8,-43.2,-366.6,-6.3,-4.5,-213.9,-219.3,-1.8,-17.1,-102.0,142.2,0,3642,0,55,0,
2.0267,-34.5,61.5,-15.9,-108.6,-228.9,-310.5,198.9,-215.7,-3112.2,291.6,-289.8,-52.8,127.2,129.0,-14.4,-336.0,-6.0,-4.2,-220.2,-225.3,-1.5,-41.4,-97.5,138.0,0,3648,0,56,0,
2.0300,-30.0,66.6,-4.5,-98.7,-224.4,-304.2,203.4,-206.4,-3112.2,313.5,-280.5,-37.2,143.4,134.1,-36.9,-357.6,-6.3,-4.2,-209.7,-216.0,-2.1,-29.7,-97.2,148.8,0,3654,0,57,0,
2.0333,-32.7,64.2,-6.9,-98.4,-224.7,-306.0,199.2,-209.1,-3186.3,305.7,-282.0,-44.7,149.1,126.0,-42.6,-363.6,-6.3,-4.5,-207.6,-216.6,-1.5,-25.5,-99.3,148.8,0,3660,0,58,0,
2.0367,-30.3,70.2,-3.3,-98.4,-222.6,-306.0,200.4,-209.1,-3112.2,314.7,-276.6,-41.7,146.7,138.0,-30.9,-363.0,-6.3,-4.5,-202.2,-215.4,-1.5,-25.2,-101.7,146.4,0,3666,0,59,0,
2.0400,-33.6,73.5,9.6,-87.9,-210.0,-297.3,205.2,-204.9,-3186.3,325.5,-265.2,-27.3,147.3,126.0,-72.0,-366.3,-6.3,-4.5,-192.0,-201.3,-1.2,-7.2,-89.1,159.9,0,3672,0,60,0,
2.0433,-32.1,69.6,3.3,-90.3,-210.6,-299.1,206.4,-207.6,-3112.2,324.3,-267.6,-27.9,154.2,135.9,-52.2,-352.8,-6.3,-4.2,-197.4,-200.7,-1.8,-3.6,-93.0,161.4,0,3678,0,61,0,
2.0467,-31.2,71.1,6.6,-89.1,-213.6,-301.5,206.7,-204.9,-3186.3,323.1,-268.8,-33.0,159.3,137.1,-48.3,-363.3,-6.3,-4.2,-196.5,-206.7,-1.8,-8.7,-93.3,159.9,0,3684,0,62,0,
2.0500,-34.8,60.0,-2.7,-98.4,-227.4,-315.3,194.7,-214.5,-3112.2,313.8,-277.2,-42.9,150.9,139.8,-17.1,-366.3,-6.3,-4.8,-205.2,-219.0,-1.8,-27.0,-110.1,142.5,0,3690,0,63,0,
2.0533,-37.2,55.8,-8.1,-103.8,-231.9,-318.6,197.7,-216.6,-3186.3,312.6,-290.4,-46.2,146.7,132.0,-7.2,-365.1,-6.3,-4.5,-213.3,-221.7,-1.8,-36.9,-106.5,138.3,0,3696,0,64,0,
2.0567,-33.0,61.5,-1.8,-96.9,-221.7,-311.7,203.4,-210.9,-3038.1,317.1,-291.9,-48.0,147.3,130.2,-54.3,-363.9,-6.0,-4.5,-217.8,-215.7,-1.8,-36.6,-95.1,147.0,0,3702,0,65,0,
2.0600,-30.3,61.5,-4.8,-98.1,-222.0,-306.6,203.1,-210.3,-3186.3,305.7,-293.1,-45.3,141.9,135.0,-45.3,-355.2,-6.3,-4.2,-220.8,-212.7,-1.8,-24.3,-104.4,148.8,0,3708,0,66,0,
2.0633,-32.1,67.2,-1.2,-102.9,-225.0,-310.2,200.1,-214.8,-3112.2,311.7,-284.7,-48.6,149.4,140.7,-46.8,-360.0,-6.3,-4.2,-208.2,-214.8,-2.1,-26.7,-98.7,145.2,0,3714,0,67,0,
2.0667,-32.7,61.5,-1.8,-105.9,-227.7,-312.6,200.4,-214.8,-3260.4,308.4,-282.3,-51.0,146.7,139.2,-26.7,-356.7,-6.9,-4.5,-206.1,-221.1,-1.5,-22.8,-102.0,144.6,0,3720,0,68,0,
2.0700,-34.2,66.6,1.5,-101.7,-225.6,-314.4,198.3,-216.3,-3260.4,315.9,-278.1,-48.0,150.6,135.0,-33.6,-354.6,-6.3,-4.5,-195.0,-219.6,-1.8,-26.1,-99.6,145.5,0,3726,0,69,0,
2.0733,-30.3,70.5,7.2,-97.8,-221.7,-304.2,203.7,-210.6,-3038.1,326.4,-267.3,-36.3,151.5,136.5,-25.8,-346.2,-6.3,-4.5,-189.9,-212.1,-1.5,-14.4,-90.9,155.7,0,3732,0,70,0,
2.0767,-37.5,64.8,0.3,-106.5,-235.2,-316.2,196.8,-223.5,-3038.1,315.0,-269.4,-44.4,146.4,139.5,-8.1,-339.0,-6.3,-4.5,-186.3,-226.8,-1.8,-22.8,-97.2,141.0,0,3738,0,71,0,
2.0800,-34.2,67.2,1.8,-108.0,-228.9,-315.0,201.0,-218.7,-3112.2,314.4,-270.0,-44.4,154.8,147.0,-1.5,-346.8,-6.3,-4.5,-186.9,-225.6,-1.8,-27.9,-96.6,142.2,0,3744,0,72,0,
2.0833,-32.7,79.2,12.3,-93.3,-218.4,-305.1,203.7,-208.2,-3112.2,333.3,-253.2,-32.7,166.8,141.3,-54.6,-369.6,-6.3,-4.2,-167.4,-215.1,-1.5,-8.7,-88.2,149.1,0,3750,0,73,0,
2.0867,-35.1,75.9,13.5,-94.2,-219.0,-303.9,206.1,-208.5,-3260.4,327.3,-249.9,-29.4,162.6,134.1,-42.6,-365.4,-6.0,-4.8,-167.1,-216.9,-1.8,-7.5,-90.0,146.1,0,3756,0,74,0,
2.0900,-39.0,64.8,-5.4,-106.2,-229.2,-315.6,198.6,-220.2,-3038.1,309.6,-264.9,-44.7,150.3,142.5,-7.5,-339.6,-5.7,-4.5,-179.7,-232.8,-1.5,-28.5,-89.1,135.6,0,3762,0,75,0,
2.0933,-34.8,67.8,1.2,-103.5,-227.1,-315.0,203.1,-215.4,-3112.2,313.2,-260.7,-37.8,147.9,146.4,-10.2,-333.0,-6.0,-4.5,-176.4,-225.3,-1.8,-21.9,-85.5,141.6,0,3768,0,76,0,
2.0967,-39.3,71.1,7.2,-96.6,-220.2,-309.6,198.6,-210.9,-3112.2,319.8,-249.0,-24.9,154.5,117.6,-52.5,-339.3,-6.6,-4.5,-163.2,-215.7,-1.8,-12.0,-85.8,141.0,0,3774,0,77,0,
2.1000,-39.0,66.9,6.6,-99.3,-219.3,-309.9,201.9,-212.7,-3186.3,313.5,-254.7,-30.3,149.7,129.9,-35.1,-337.2,-6.0,-4.5,-166.8,-218.7,-1.8,-9.3,-79.5,148.2,0,3780,0,78,0,
2.1033,-40.2,63.0,1.2,-103.2,-225.6,-318.0,197.7,-218.4,-3186.3,306.9,-260.7,-35.1,143.1,131.1,-17.4,-337.8,-6.3,-4.5,-175.5,-227.7,-1.5,-17.7,-84.3,149.1,0,3786,0,79,0,
2.1067,-36.9,68.4,11.1,-99.9,-219.0,-314.7,201.6,-213.6,-3112.2,318.3,-251.4,-25.8,155.1,136.8,-29.4,-354.0,-6.0,-4.5,-167.4,-217.8,-1.8,-8.7,-90.6,150.3,0,3792,0,80,0,
2.1100,-34.2,69.6,4.8,-97.2,-218.7,-315.9,200.1,-216.9,-3112.2,322.2,-257.4,-30.0,165.0,137.1,-11.1,-345.0,-6.3,-4.5,-172.8,-219.3,-1.5,-20.4,-97.8,150.9,0,3798,0,81,0,
2.1133,-32.7,68.4,4.5,-99.3,-221.4,-318.6,193.2,-215.1,-3112.2,326.7,-255.9,-30.0,164.4,146.4,-19.5,-368.4,-6.6,-4.5,-172.5,-222.6,-1.5,-36.6,-108.0,132.9,0,3804,0,82,0,
2.1167,-31.5,75.9,17.7,-87.0,-211.8,-309.9,194.1,-206.4,-3112.2,333.6,-244.8,-18.9,168.9,137.1,-56.4,-384.3,-6.3,-4.2,-161.1,-211.5,-1.8,-22.2,-102.6,141.0,0,3810,0,83,0,
2.1200,-29.1,75.0,17.7,-87.6,-215.7,-313.5,194.7,-207.0,-3186.3,343.8,-244.2,-21.3,171.3,143.1,-48.0,-363.9,-6.3,-4.5,-158.1,-210.9,-1.8,-17.1,-112.2,136.8,0,3816,0,84,0,
2.1233,-34.8,69.9,4.5,-99.6,-227.1,-320.7,189.6,-217.8,-3186.3,318.9,-259.2,-37.8,165.6,137.7,-12.9,-327.9,-6.0,-4.5,-176.1,-226.5,-1.5,-28.8,-113.7,128.4,0,3822,0,85,0,
2.1267,-31.5,72.0,12.0,-91.5,-219.6,-316.8,190.5,-211.8,-3038.1,318.0,-254.7,-30.0,167.7,146.1,-3.3,-352.2,-6.6,-4.2,-174.6,-221.1,-1.8,-21.0,-111.0,137.1,0,3828,0,86,0,
2.1300,-34.2,74.4,14.7,-89.1,-215.7,-311.4,192.3,-204.9,-3112.2,327.3,-251.7,-24.9,167.4,147.3,-24.6,-370.5,-6.0,-4.2,-169.2,-216.3,-1.5,-30.0,-111.6,138.0,0,3834,0,87,0,
2.1333,-28.5,81.6,26.7,-78.9,-204.9,-305.1,198.6,-201.0,-3260.4,340.5,-240.6,-16.5,176.4,145.8,-46.2,-374.7,-6.0,-4.2,-158.4,-209.7,-1.5,-16.5,-109.5,142.2,0,3840,0,88,0,
2.1367,-34.5,78.3,20.7,-84.0,-209.4,-309.9,198.6,-206.7,-3038.1,340.8,-249.0,-23.4,172.5,132.0,-53.1,-356.7,-6.3,-4.5,-162.9,-213.0,-2.1,-17.1,-106.8,138.3,0,3846,0,89,0,
2.1400,-29.1,78.6,27.6,-81.3,-208.5,-303.3,204.6,-204.0,-3038.1,345.6,-240.9,-15.0,179.1,132.6,-54.9,-350.7,-6.3,-4.2,-154.2,-206.1,-1.8,-19.8,-106.5,144.6,0,3852,0,90,0,
2.1433,-38.4,64.8,11.7,-95.1,-221.7,-315.9,198.0,-213.0,-3112.2,317.1,-257.7,-34.5,162.0,138.3,-26.1,-342.0,-6.6,-4.5,-172.2,-224.4,-1.8,-35.7,-116.1,130.2,0,3858,0,91,0,
2.1467,-34.2,71.1,17.4,-91.5,-216.3,-309.3,201.6,-209.1,-3112.2,327.3,-254.1,-32.1,160.5,132.0,-44.7,-350.4,-6.3,-4.5,-168.0,-219.3,-1.5,-10.5,-107.4,145.2,0,3864,0,92,0,
2.1500,-32.1,68.7,16.5,-90.6,-213.0,-307.8,205.8,-211.5,-3260.4,327.9,-249.9,-27.3,160.8,134.1,-42.0,-348.3,-6.3,-4.8,-165.6,-217.2,-1.5,-6.6,-94.5,146.7,0,3870,0,93,0,
2.1533,-36.3,62.4,7.8,-102.3,-230.4,-317.1,196.5,-220.5,-3186.3,312.6,-264.6,-42.6,159.3,142.8,-5.7,-349.8,-6.3,-4.5,-176.7,-230.4,-1.8,-15.9,-100.5,142.2,0,3876,0,94,0,
2.1567,-29.4,71.1,16.5,-93.0,-218.1,-310.5,198.0,-212.1,-3186.3,340.5,-252.0,-32.1,176.7,144.3,-30.6,-368.1,-6.3,-4.2,-167.7,-219.0,-1.8,-18.6,-112.8,142.2,0,3882,0,95,0,
2.1600,-34.2,67.5,12.0,-101.7,-222.6,-318.3,193.5,-219.3,-3112.2,338.4,-258.3,-37.5,170.4,138.3,-27.9,-345.3,-6.0,-4.5,-168.3,-226.2,-1.5,-41.1,-114.0,132.9,0,3888,0,96,0,
2.1633,-26.1,66.3,13.8,-101.7,-220.2,-317.1,193.8,-216.6,-3112.2,331.8,-255.9,-35.7,170.7,150.0,-31.5,-359.7,-6.3,-4.2,-167.7,-224.1,-1.5,-31.5,-127.8,130.2,0,3894,0,97,0,
2.1667,-27.6,66.9,12.0,-99.9,-222.0,-316.2,197.4,-218.1,-3260.4,336.6,-253.2,-34.2,171.0,145.8,-36.3,-347.7,-6.0,-4.5,-169.2,-221.7,-1.8,-18.9,-128.1,133.2,0,3900,0,98,0,
2.1700,-31.8,61.2,7.2,-105.0,-228.0,-319.5,196.2,-223.2,-3186.3,322.5,-263.4,-42.0,161.7,141.9,-19.2,-336.6,-6.3,-4.2,-175.2,-226.8,-1.5,-21.6,-114.6,129.9,0,3906,0,99,0,
2.1733,-30.3,59.7,4.8,-105.9,-226.2,-320.7,196.5,-223.2,-2964.0,318.3,-262.5,-38.1,158.1,144.3,6.0,-336.3,-6.3,-4.2,-176.7,-227.4,-1.5,-30.3,-110.7,128.4,0,3912,0,100,0,
2.1767,-27.6,64.8,17.1,-95.4,-215.4,-313.8,194.7,-216.0,-3038.1,343.8,-248.4,-24.6,161.4,141.0,-36.0,-360.6,-6.3,-4.5,-164.4,-213.9,-1.8,-6.0,-106.5,139.8,0,3918,0,101,0,
2.1800,-34.5,57.6,9.0,-101.4,-222.3,-321.0,198.6,-222.3,-3038.1,323.4,-257.7,-35.7,145.8,125.4,-34.5,-338.4,-6.3,-4.5,-172.8,-222.6,-1.8,-11.1,-104.4,136.5,0,3924,0,102,0,
2.1833,-35.4,52.5,3.3,-108.6,-225.0,-322.8,196.2,-224.7,-3186.3,313.5,-267.0,-40.8,153.9,144.0,-15.9,-336.9,-6.3,-4.8,-180.9,-228.3,-1.5,-16.8,-108.0,133.5,0,3930,0,103,0,
2.1867,-35.1,49.5,-3.3,-116.4,-232.8,-327.9,196.8,-228.0,-3112.2,300.0,-274.2,-47.7,150.9,148.2,2.1,-342.0,-6.0,-4.2,-190.2,-235.2,-1.8,-27.9,-106.8,127.2,0,3936,0,104,0,
2.1900,-36.0,56.7,1.2,-110.4,-228.6,-327.3,197.4,-220.8,-2964.0,315.0,-265.8,-43.5,160.2,140.7,-5.4,-337.5,-6.3,-4.5,-179.4,-230.1,-1.5,-29.1,-113.7,130.5,0,3942,0,105,0,
2.1933,-36.3,58.5,3.9,-106.2,-225.0,-318.0,204.3,-218.1,-3038.1,315.0,-259.5,-41.1,153.6,132.0,-12.6,-333.3,-6.0,-4.8,-175.8,-228.3,-1.8,-29.7,-110.4,126.0,0,3948,0,106,0,
2.1967,-33.3,62.7,11.1,-100.8,-215.7,-307.8,206.4,-212.4,-3112.2,323.1,-253.2,-33.0,161.7,132.3,-24.3,-334.2,-6.3,-4.5,-168.3,-218.7,-1.8,-13.5,-105.3,137.7,0,3954,0,107,0,
2.2000,-28.8,66.6,17.4,-98.7,-211.8,-304.2,205.5,-212.7,-3112.2,327.9,-250.8,-32.7,163.2,144.0,-13.5,-330.3,-6.3,-4.5,-162.9,-217.5,-1.8,-10.5,-103.5,141.0,0,3960,0,108,0,
2.2033,-30.0,72.6,22.2,-95.7,-211.5,-307.2,204.6,-212.4,-3112.2,337.2,-246.0,-29.4,172.2,154.2,-21.0,-330.6,-6.3,-4.5,-160.8,-216.3,-2.1,-12.9,-99.9,143.7,0,3966,0,109,0,
2.2067,-26.7,79.5,31.8,-84.6,-201.6,-300.0,205.2,-204.3,-3038.1,351.3,-232.2,-12.3,178.8,141.0,-45.3,-352.5,-6.3,-4.2,-145.2,-202.5,-1.5,-4.5,-100.2,153.6,0,3972,0,110,0,
2.2100,-28.8,76.8,31.2,-84.9,-202.8,-302.1,210.6,-202.2,-3038.1,353.1,-236.1,-13.2,177.0,136.2,-57.0,-343.5,-6.3,-4.5,-145.2,-202.8,-1.8,21.0,-83.1,162.9,0,3978,0,111,0,
2.2133,-33.3,67.5,18.0,-93.6,-211.8,-306.9,205.2,-212.1,-3112.2,336.6,-245.1,-20.7,171.3,139.2,-31.2,-325.8,-6.0,-4.5,-157.5,-209.7,-1.8,3.9,-84.3,154.8,0,3984,0,112,0,
2.2167,-28.2,74.1,20.4,-94.2,-208.5,-303.9,207.9,-207.9,-3260.4,337.2,-240.9,-21.3,171.6,152.4,-12.0,-327.3,-6.3,-4.5,-156.9,-208.5,-1.8,1.2,-88.2,154.2,0,3990,0,113,0,
2.2200,-26.4,76.8,26.7,-89.7,-203.1,-301.5,207.0,-204.9,-3186.3,354.9,-234.3,-17.7,187.5,147.3,-37.5,-332.7,-6.3,-4.5,-146.1,-202.2,-1.8,2.1,-92.1,154.5,0,3996,0,114,0,
2.2233,-27.0,75.9,26.7,-92.1,-207.0,-300.0,209.7,-204.3,-3112.2,350.7,-237.3,-19.8,186.9,135.0,-56.7,-341.7,-6.3,-4.2,-150.0,-205.2,-1.5,12.9,-92.1,154.8,0,4002,0,115,0,
2.2267,-27.3,73.2,22.8,-96.0,-212.7,-308.7,202.5,-207.9,-3038.1,336.0,-242.7,-25.2,178.2,144.0,-30.6,-356.1,-6.0,-4.2,-156.6,-211.5,-1.5,-8.4,-106.8,144.3,0,4008,0,116,0,
2.2300,-30.6,66.3,15.0,-98.4,-216.6,-309.6,206.1,-208.5,-3038.1,331.2,-249.9,-31.8,167.1,140.4,-20.4,-339.6,-6.3,-4.5,-165.9,-215.4,-2.1,-21.3,-99.3,148.2,0,4014,0,117,0,
2.2333,-35.1,68.4,18.6,-100.8,-218.1,-311.1,201.3,-207.3,-3186.3,340.8,-251.1,-34.5,177.9,123.0,-40.5,-336.6,-6.3,-4.2,-164.1,-218.7,-1.5,-12.3,-100.8,144.0,0,4020,0,118,0,
2.2367,-31.5,70.8,19.2,-93.9,-208.8,-302.7,202.2,-202.8,-3038.1,343.8,-249.0,-28.8,181.2,134.4,-44.1,-350.7,-6.0,-4.8,-161.7,-212.1,-1.8,-15.0,-107.4,146.1,0,4026,0,119,0,
2.2400,-31.5,72.3,23.4,-93.0,-207.6,-307.2,202.2,-204.0,-3038.1,343.8,-241.2,-25.8,178.5,144.3,-49.2,-367.2,-6.3,-4.2,-157.8,-209.1,-1.2,-6.6,-118.8,139.8,0,4032,0,120,0,
2.2433,-29.7,68.4,15.9,-99.9,-212.4,-309.3,204.0,-210.3,-3112.2,342.0,-248.4,-31.8,169.5,144.9,-16.8,-344.1,-6.3,-4.5,-168.0,-214.8,-1.8,-15.3,-120.0,147.9,0,4038,0,121,0,
2.2467,-29.1,60.9,12.6,-105.9,-222.3,-314.1,201.9,-213.6,-3038.1,322.8,-258.0,-42.0,167.7,146.4,6.0,-337.8,-6.0,-4.5,-176.4,-223.2,-2.1,-21.0,-126.6,136.5,0,4044,0,122,0,
2.2500,-31.8,62.4,15.0,-101.1,-222.0,-309.3,201.6,-213.0,-3186.3,335.4,-256.8,-40.2,172.5,143.7,-26.4,-342.3,-6.3,-4.5,-169.5,-221.4,-1.8,-20.4,-105.9,135.3,0,4050,0,123,0,
2.2533,-28.5,64.8,19.8,-97.8,-213.9,-304.8,209.7,-209.1,-3038.1,339.0,-250.8,-30.9,172.2,137.7,-57.9,-351.3,-6.3,-4.2,-167.7,-213.9,-1.5,-11.1,-92.1,150.0,0,4056,0,124,0,
2.2567,-30.3,57.6,6.6,-104.1,-222.3,-310.5,202.2,-214.8,-3112.2,325.8,-257.4,-39.0,164.4,139.5,-41.7,-343.8,-6.6,-4.8,-173.1,-220.8,-1.8,-15.3,-101.7,146.7,0,4062,0,125,0,
2.2600,-31.8,55.8,6.6,-112.2,-225.9,-315.6,198.3,-218.1,-3038.1,322.2,-259.8,-43.8,158.7,142.5,-28.5,-351.6,-6.3,-4.5,-174.9,-225.3,-1.5,-19.2,-110.4,139.8,0,4068,0,126,0,
2.2633,-31.8,55.5,1.2,-113.7,-227.7,-314.4,201.9,-218.7,-3112.2,324.9,-264.3,-46.8,157.5,139.5,-30.6,-338.1,-6.6,-4.5,-178.8,-229.2,-1.8,-28.5,-106.2,137.1,0,4074,0,127,0,
2.2667,-31.8,63.3,12.9,-105.0,-220.5,-314.7,198.9,-216.0,-3260.4,323.7,-254.4,-39.6,152.4,132.6,-36.0,-348.9,-6.3,-4.2,-171.3,-224.7,-1.8,-20.1,-108.6,133.8,0,4080,0,128,0,
2.2700,-33.3,60.3,4.8,-108.6,-226.2,-323.1,199.8,-222.6,-3186.3,320.4,-262.2,-44.4,146.1,141.0,2.1,-335.7,-6.0,-4.5,-177.3,-229.5,-1.8,-25.8,-108.9,132.0,0,4086,0,129,0,
2.2733,-35.1,59.4,2.4,-111.6,-230.4,-325.5,195.9,-224.7,-3112.2,313.8,-267.9,-53.4,152.4,150.3,0.3,-339.9,-6.3,-4.5,-180.0,-235.2,-1.8,-25.8,-112.2,132.3,0,4092,0,130,0,
2.2767,-30.3,65.7,14.4,-98.1,-216.3,-313.5,203.4,-216.0,-3038.1,327.9,-252.6,-38.1,160.2,127.5,-39.9,-348.9,-6.3,-4.5,-168.3,-220.5,-1.8,-2.1,-97.2,149.4,0,4098,0,131,0,
2.2800,-34.5,66.0,22.2,-94.2,-209.7,-303.6,208.2,-211.2,-3038.1,333.9,-247.8,-29.4,147.9,130.8,-64.8,-337.5,-6.3,-4.5,-161.4,-210.6,-1.8,11.7,-90.3,154.2,0,4104,0,132,0,
2.2833,-40.5,51.0,3.0,-107.7,-220.8,-316.2,202.2,-223.8,-3186.3,309.0,-263.4,-44.7,142.5,126.0,-28.8,-320.7,-6.0,-4.2,-179.1,-224.4,-1.8,-2.4,-86.7,149.4,0,4110,0,133,0,
2.2867,-32.1,59.7,7.2,-105.3,-216.6,-309.3,204.9,-218.1,-3038.1,312.3,-261.3,-38.4,157.8,137.4,-32.4,-342.6,-6.3,-4.5,-177.9,-219.6,-1.5,-9.6,-92.1,156.3,0,4116,0,134,0,
2.2900,-33.0,51.6,-4.5,-111.3,-230.1,-318.3,202.5,-222.9,-3038.1,312.0,-271.2,-53.7,145.5,132.0,-11.1,-330.9,-6.3,-4.5,-187.8,-233.4,-1.8,-28.5,-102.6,140.1,0,4122,0,135,0,
2.2933,-31.8,54.9,-0.9,-109.2,-227.7,-316.2,199.8,-220.5,-3112.2,315.3,-267.0,-48.0,136.2,135.3,-5.1,-350.4,-6.0,-4.5,-183.0,-230.4,-1.5,-18.6,-109.5,137.1,0,4128,0,136,0,
2.2967,-31.2,62.1,9.6,-99.9,-219.0,-314.1,201.6,-216.6,-3112.2,325.8,-256.2,-40.5,147.9,135.0,-39.0,-355.5,-6.3,-4.2,-172.8,-222.3,-1.8,-28.2,-97.5,142.5,0,4134,0,137,0,
2.3000,-29.4,59.7,6.6,-101.7,-218.4,-304.2,209.4,-215.4,-3112.2,323.1,-260.7,-39.9,152.7,133.8,-33.6,-344.7,-6.3,-4.5,-174.0,-222.9,-1.8,-7.5,-85.8,148.2,0,4140,0,138,0,
2.3033,-38.1,54.0,-0.9,-105.9,-222.9,-303.9,208.2,-218.7,-3112.2,312.6,-264.6,-44.4,144.9,126.0,-49.8,-335.7,-6.3,-4.5,-183.0,-225.9,-1.8,-9.0,-86.4,149.1,0,4146,0,139,0,
2.3067,-39.6,57.0,-1.2,-107.7,-227.7,-315.0,199.5,-218.1,-3112.2,319.8,-264.3,-46.5,153.3,127.5,-45.3,-357.3,-6.6,-4.5,-179.7,-229.2,-1.5,-25.5,-104.1,135.3,0,4152,0,140,0,
2.3100,-37.8,57.6,3.6,-105.6,-225.3,-317.7,201.9,-220.5,-3112.2,319.5,-263.7,-42.9,153.6,133.5,-30.0,-343.2,-6.0,-3.9,-181.8,-229.5,-1.8,-37.5,-108.3,134.1,0,4158,0,141,0,
2.3133,-38.4,50.1,-8.4,-115.8,-236.1,-323.4,198.3,-225.0,-3112.2,318.6,-272.1,-52.8,133.5,132.9,-10.2,-321.6,-6.3,-4.5,-189.9,-237.3,-1.8,-43.5,-114.6,129.0,0,4164,0,142,0,
2.3167,-36.6,57.0,-3.6,-113.7,-235.5,-324.0,192.9,-223.8,-3186.3,317.4,-266.7,-48.6,159.3,150.0,-3.3,-338.1,-6.0,-4.5,-185.1,-234.9,-1.8,-50.7,-113.4,126.3,0,4170,0,143,0,
2.3200,-34.5,61.5,1.5,-107.4,-228.0,-314.4,200.1,-221.1,-3112.2,325.2,-261.6,-44.7,159.0,149.1,-9.9,-346.8,-6.0,-4.5,-176.4,-228.0,-1.8,-15.3,-118.5,139.8,0,4176,0,144,0,
2.3233,-38.4,61.8,0.0,-107.7,-228.3,-315.9,195.0,-224.7,-3112.2,329.4,-259.2,-41.1,155.7,131.1,-20.7,-342.6,-6.0,-4.5,-174.9,-226.5,-1.5,-6.9,-104.1,142.5,0,4182,0,145,0,
2.3267,-33.9,64.5,7.8,-99.9,-219.0,-308.1,200.1,-217.8,-2964.0,338.1,-250.2,-31.2,154.5,135.9,-53.4,-352.5,-6.0,-4.5,-166.8,-216.6,-1.5,7.2,-94.5,156.3,0,4188,0,146,0,
2.3300,-34.8,62.4,7.5,-99.3,-223.2,-303.3,198.3,-217.8,-3186.3,333.6,-247.8,-30.3,154.5,142.5,-54.6,-350.4,-6.3,-4.5,-166.5,-216.0,-1.8,1.5,-99.0,153.9,0,4194,0,147,0,
