%OpenBCI Raw EEG Data
%
%Sample Rate = 250.0 Hz
%First Column = SampleIndex
%Last Column = Timestamp 
%Other Columns = EEG data in microvolts followed by Accel Data (in G) interleaved with Aux Data
0, 61662.67, -187500.02, -187500.02, -187500.02, -187500.02, -187500.02, -187500.02, -187500.02, -0.956, 0.176, -0.306, 14:37:50.567
1, 61823.67, -187500.02, -187500.02, -187500.02, -187500.02, -187500.02, -187500.02, -187500.02, 0.000, 0.000, 0.000, 14:37:51.046
2, 62418.34, -187500.02, -187500.02, -187500.02, -187500.02, -187500.02, -187500.02, -187500.02, 0.000, 0.000, 0.000, 14:37:51.046
3, 62191.09, -187500.02, -187500.02, -187500.02, -187500.02, -187500.02, -187500.02, -187500.02, 0.000, 0.000, 0.000, 14:37:51.046
4, 61707.18, -187500.02, -187500.02, -187500.02, -187500.02, -187500.02, -187500.02, -187500.02, 0.000, 0.000, 0.000, 14:37:51.046
5, 61719.69, -187500.02, -187500.02, -187500.02, -187500.02, -187500.02, -187500.02, -187500.02, 0.000, 0.000, 0.000, 14:37:51.047
6, 62356.45, -187500.02, -187500.02, -187500.02, -187500.02, -187500.02, -187500.02, -187500.02, 0.000, 0.000, 0.000, 14:37:51.047
7, 62309.13, -187500.02, -187500.02, -187500.02, -187500.02, -187500.02, -187500.02, -187500.02, -0.948, 0.170, -0.310, 14:37:51.048
8, 61830.13, -187500.02, -187500.02, -187500.02, -187500.02, -187500.02, -187500.02, -187500.02, 0.000, 0.000, 0.000, 14:37:51.049
9, 61621.21, -187500.02, -187500.02, -187500.02, -187500.02, -187500.02, -187500.02, -187500.02, 0.000, 0.000, 0.000, 14:37:51.049
10, 62325.22, -187500.02, -187500.02, -187500.02, -187500.02, -187500.02, -187500.02, -187500.02, 0.000, 0.000, 0.000, 14:37:51.050
11, 62433.25, -187500.02, -187500.02, -187500.02, -187500.02, -187500.02, -187500.02, -187500.02, 0.000, 0.000, 0.000, 14:37:51.050
12, 62012.30, -187500.02, -187500.02, -187500.02, -187500.02, -187500.02, -187500.02, -187500.02, 0.000, 0.000, 0.000, 14:37:51.051
13, 61678.36, -187500.02, -187500.02, -187500.02, -187500.02, -187500.02, -187500.02, -187500.02, 0.000, 0.000, 0.000, 14:37:51.051
14, 62251.71, -187500.02, -187500.02, -187500.02, -187500.02, -187500.02, -187500.02, -187500.02, 0.000, 0.000, 0.000, 14:37:51.051
15, 62480.01, -187500.02, -187500.02, -187500.02, -187500.02, -187500.02, -187500.02, -187500.02, 0.000, 0.000, 0.000, 14:37:51.052
16, 62053.27, -187500.02, -187500.02, -187500.02, -187500.02, -187500.02, -187500.02, -187500.02, 0.000, 0.000, 0.000, 14:37:51.052
17, 61639.45, -187500.02, -187500.02, -187500.02, -187500.02, -187500.02, -187500.02, -187500.02, -0.958, 0.172, -0.308, 14:37:51.052
18, 62127.48, -187500.02, -187500.02, -187500.02, -187500.02, -187500.02, -187500.02, -187500.02, 0.000, 0.000, 0.000, 14:37:51.053
19, 62528.62, -187500.02, -187500.02, -187500.02, -187500.02, -187500.02, -187500.02, -187500.02, 0.000, 0.000, 0.000, 14:37:51.053
20, 62162.12, -187500.02, -187500.02, -187500.02, -187500.02, -187500.02, -187500.02, -187500.02, 0.000, 0.000, 0.000, 14:37:51.054
21, 61682.01, -187500.02, -187500.02, -187500.02, -187500.02, -187500.02, -187500.02, -187500.02, 0.000, 0.000, 0.000, 14:37:51.054
22, 61958.50, -187500.02, -187500.02, -187500.02, -187500.02, -187500.02, -187500.02, -187500.02, 0.000, 0.000, 0.000, 14:37:51.054
23, 62475.98, -187500.02, -187500.02, -187500.02, -187500.02, -187500.02, -187500.02, -187500.02, 0.000, 0.000, 0.000, 14:37:51.055
24, 62166.88, -187500.02, -187500.02, -187500.02, -187500.02, -187500.02, -187500.02, -187500.02, 0.000, 0.000, 0.000, 14:37:51.055
25, 61652.32, -187500.02, -187500.02, -187500.02, -187500.02, -187500.02, -187500.02, -187500.02, 0.000, 0.000, 0.000, 14:37:51.055
26, 61798.46, -187500.02, -187500.02, -187500.02, -187500.02, -187500.02, -187500.02, -187500.02, -0.956, 0.172, -0.308, 14:37:51.056
27, 62419.34, -187500.02, -187500.02, -187500.02, -187500.02, -187500.02, -187500.02, -187500.02, 0.000, 0.000, 0.000, 14:37:51.056
28, 62217.49, -187500.02, -187500.02, -187500.02, -187500.02, -187500.02, -187500.02, -187500.02, 0.000, 0.000, 0.000, 14:37:51.057
29, 61747.88, -187500.02, -187500.02, -187500.02, -187500.02, -187500.02, -187500.02, -187500.02, 0.000, 0.000, 0.000, 14:37:51.057
30, 61699.13, -187500.02, -187500.02, -187500.02, -187500.02, -187500.02, -187500.02, -187500.02, 0.000, 0.000, 0.000, 14:37:51.057
31, 62354.57, -187500.02, -187500.02, -187500.02, -187500.02, -187500.02, -187500.02, -187500.02, 0.000, 0.000, 0.000, 14:37:51.058
32, 62278.51, -187500.02, -187500.02, -187500.02, -187500.02, -187500.02, -187500.02, -187500.02, 0.000, 0.000, 0.000, 14:37:51.058
33, 61775.23, -187500.02, -187500.02, -187500.02, -187500.02, -187500.02, -187500.02, -187500.02, 0.000, 0.000, 0.000, 14:37:51.058
34, 61579.59, -187500.02, -187500.02, -187500.02, -187500.02, -187500.02, -187500.02, -187500.02, 0.000, 0.000, 0.000, 14:37:51.059
35, 62273.59, -187500.02, -187500.02, -187500.02, -187500.02, -187500.02, -187500.02, -187500.02, 0.000, 0.000, 0.000, 14:37:51.059
36, 62408.24, -187500.02, -187500.02, -187500.02, -187500.02, -187500.02, -187500.02, -187500.02, -0.956, 0.170, -0.308, 14:37:51.060
37, 61922.67, -187500.02, -187500.02, -187500.02, -187500.02, -187500.02, -187500.02, -187500.02, 0.000, 0.000, 0.000, 14:37:51.060
38, 61534.02, -187500.02, -187500.02, -187500.02, -187500.02, -187500.02, -187500.02, -187500.02, 0.000, 0.000, 0.000, 14:37:51.060
39, 62120.43, -187500.02, -187500.02, -187500.02, -187500.02, -187500.02, -187500.02, -187500.02, 0.000, 0.000, 0.000, 14:37:51.061
40, 62375.67, -187500.02, -187500.02, -187500.02, -187500.02, -187500.02, -187500.02, -187500.02, 0.000, 0.000, 0.000, 14:37:51.061
41, 61963.48, -187500.02, -187500.02, -187500.02, -187500.02, -187500.02, -187500.02, -187500.02, 0.000, 0.000, 0.000, 14:37:51.061
42, 61560.86, -187500.02, -187500.02, -187500.02, -187500.02, -187500.02, -187500.02, -187500.02, 0.000, 0.000, 0.000, 14:37:51.062
43, 62034.98, -187500.02, -187500.02, -187500.02, -187500.02, -187500.02, -187500.02, -187500.02, 0.000, 0.000, 0.000, 14:37:51.062
44, 62429.23, -187500.02, -187500.02, -187500.02, -187500.02, -187500.02, -187500.02, -187500.02, 0.000, 0.000, 0.000, 14:37:51.063
45, 62063.59, -187500.02, -187500.02, -187500.02, -187500.02, -187500.02, -187500.02, -187500.02, 0.000, 0.000, 0.000, 14:37:51.063
46, 61572.10, -187500.02, -187500.02, -187500.02, -187500.02, -187500.02, -187500.02, -187500.02, -0.956, 0.170, -0.314, 14:37:51.063
47, 61866.52, -187500.02, -187500.02, -187500.02, -187500.02, -187500.02, -187500.02, -187500.02, 0.000, 0.000, 0.000, 14:37:51.064
48, 62463.31, -187500.02, -187500.02, -187500.02, -187500.02, -187500.02, -187500.02, -187500.02, 0.000, 0.000, 0.000, 14:37:51.064
49, 62184.14, -187500.02, -187500.02, -187500.02, -187500.02, -187500.02, -187500.02, -187500.02, 0.000, 0.000, 0.000, 14:37:51.064
50, 61692.85, -187500.02, -187500.02, -187500.02, -187500.02, -187500.02, -187500.02, -187500.02, 0.000, 0.000, 0.000, 14:37:51.065
51, 61761.85, -187500.02, -187500.02, -187500.02, -187500.02, -187500.02, -187500.02, -187500.02, 0.000, 0.000, 0.000, 14:37:51.065
52, 62362.93, -187500.02, -187500.02, -187500.02, -187500.02, -187500.02, -187500.02, -187500.02, 0.000, 0.000, 0.000, 14:37:51.066
53, 62202.58, -187500.02, -187500.02, -187500.02, -187500.02, -187500.02, -187500.02, -187500.02, 0.000, 0.000, 0.000, 14:37:51.066
54, 61709.90, -187500.02, -187500.02, -187500.02, -187500.02, -187500.02, -187500.02, -187500.02, 0.000, 0.000, 0.000, 14:37:51.067
55, 61623.91, -187500.02, -187500.02, -187500.02, -187500.02, -187500.02, -187500.02, -187500.02, 0.000, 0.000, 0.000, 14:37:51.067
56, 62278.77, -187500.02, -187500.02, -187500.02, -187500.02, -187500.02, -187500.02, -187500.02, -0.958, 0.170, -0.314, 14:37:51.068
57, 62252.18, -187500.02, -187500.02, -187500.02, -187500.02, -187500.02, -187500.02, -187500.02, 0.000, 0.000, 0.000, 14:37:51.068
58, 61767.77, -187500.02, -187500.02, -187500.02, -187500.02, -187500.02, -187500.02, -187500.02, 0.000, 0.000, 0.000, 14:37:51.068
59, 61511.86, -187500.02, -187500.02, -187500.02, -187500.02, -187500.02, -187500.02, -187500.02, 0.000, 0.000, 0.000, 14:37:51.069
60, 62151.30, -187500.02, -187500.02, -187500.02, -187500.02, -187500.02, -187500.02, -187500.02, 0.000, 0.000, 0.000, 14:37:51.069
61, 62278.62, -187500.02, -187500.02, -187500.02, -187500.02, -187500.02, -187500.02, -187500.02, 0.000, 0.000, 0.000, 14:37:51.070
62, 61837.64, -187500.02, -187500.02, -187500.02, -187500.02, -187500.02, -187500.02, -187500.02, 0.000, 0.000, 0.000, 14:37:51.071
63, 61477.53, -187500.02, -187500.02, -187500.02, -187500.02, -187500.02, -187500.02, -187500.02, 0.000, 0.000, 0.000, 14:37:51.071
64, 62052.11, -187500.02, -187500.02, -187500.02, -187500.02, -187500.02, -187500.02, -187500.02, 0.000, 0.000, 0.000, 14:37:51.072
65, 62373.17, -187500.02, -187500.02, -187500.02, -187500.02, -187500.02, -187500.02, -187500.02, 0.000, 0.000, 0.000, 14:37:51.072
66, 61970.19, -187500.02, -187500.02, -187500.02, -187500.02, -187500.02, -187500.02, -187500.02, -0.954, 0.174, -0.314, 14:37:51.073
67, 61499.88, -187500.02, -187500.02, -187500.02, -187500.02, -187500.02, -187500.02, -187500.02, 0.000, 0.000, 0.000, 14:37:51.073
68, 61914.42, -187500.02, -187500.02, -187500.02, -187500.02, -187500.02, -187500.02, -187500.02, 0.000, 0.000, 0.000, 14:37:51.073
69, 62363.15, -187500.02, -187500.02, -187500.02, -187500.02, -187500.02, -187500.02, -187500.02, 0.000, 0.000, 0.000, 14:37:51.074
70, 62038.70, -187500.02, -187500.02, -187500.02, -187500.02, -187500.02, -187500.02, -187500.02, 0.000, 0.000, 0.000, 14:37:51.074
71, 61548.12, -187500.02, -187500.02, -187500.02, -187500.02, -187500.02, -187500.02, -187500.02, 0.000, 0.000, 0.000, 14:37:51.074
72, 61757.06, -187500.02, -187500.02, -187500.02, -187500.02, -187500.02, -187500.02, -187500.02, 0.000, 0.000, 0.000, 14:37:51.075
73, 62325.80, -187500.02, -187500.02, -187500.02, -187500.02, -187500.02, -187500.02, -187500.02, 0.000, 0.000, 0.000, 14:37:51.075
74, 62084.96, -187500.02, -187500.02, -187500.02, -187500.02, -187500.02, -187500.02, -187500.02, 0.000, 0.000, 0.000, 14:37:51.075
75, 61620.94, -187500.02, -187500.02, -187500.02, -187500.02, -187500.02, -187500.02, -187500.02, 0.000, 0.000, 0.000, 14:37:51.076
76, 61651.88, -187500.02, -187500.02, -187500.02, -187500.02, -187500.02, -187500.02, -187500.02, -0.956, 0.172, -0.314, 14:37:51.076
77, 62342.52, -187500.02, -187500.02, -187500.02, -187500.02, -187500.02, -187500.02, -187500.02, 0.000, 0.000, 0.000, 14:37:51.076
78, 62256.00, -187500.02, -187500.02, -187500.02, -187500.02, -187500.02, -187500.02, -187500.02, 0.000, 0.000, 0.000, 14:37:51.077
79, 61739.61, -187500.02, -187500.02, -187500.02, -187500.02, -187500.02, -187500.02, -187500.02, 0.000, 0.000, 0.000, 14:37:51.077
80, 61567.30, -187500.02, -187500.02, -187500.02, -187500.02, -187500.02, -187500.02, -187500.02, 0.000, 0.000, 0.000, 14:37:51.077
81, 62268.74, -187500.02, -187500.02, -187500.02, -187500.02, -187500.02, -187500.02, -187500.02, 0.000, 0.000, 0.000, 14:37:51.077
82, 62300.72, -187500.02, -187500.02, -187500.02, -187500.02, -187500.02, -187500.02, -187500.02, 0.000, 0.000, 0.000, 14:37:51.077
83, 61825.32, -187500.02, -187500.02, -187500.02, -187500.02, -187500.02, -187500.02, -187500.02, 0.000, 0.000, 0.000, 14:37:51.078
84, 61548.79, -187500.02, -187500.02, -187500.02, -187500.02, -187500.02, -187500.02, -187500.02, 0.000, 0.000, 0.000, 14:37:51.078
85, 62157.25, -187500.02, -187500.02, -187500.02, -187500.02, -187500.02, -187500.02, -187500.02, 0.000, 0.000, 0.000, 14:37:51.078
86, 62323.37, -187500.02, -187500.02, -187500.02, -187500.02, -187500.02, -187500.02, -187500.02, -0.958, 0.166, -0.316, 14:37:51.078
87, 61889.36, -187500.02, -187500.02, -187500.02, -187500.02, -187500.02, -187500.02, -187500.02, 0.000, 0.000, 0.000, 14:37:51.078
88, 61503.84, -187500.02, -187500.02, -187500.02, -187500.02, -187500.02, -187500.02, -187500.02, 0.000, 0.000, 0.000, 14:37:51.078
89, 62026.74, -187500.02, -187500.02, -187500.02, -187500.02, -187500.02, -187500.02, -187500.02, 0.000, 0.000, 0.000, 14:37:51.078
90, 62374.17, -187500.02, -187500.02, -187500.02, -187500.02, -187500.02, -187500.02, -187500.02, 0.000, 0.000, 0.000, 14:37:51.079
91, 62031.59, -187500.02, -187500.02, -187500.02, -187500.02, -187500.02, -187500.02, -187500.02, 0.000, 0.000, 0.000, 14:37:51.079
92, 61552.10, -187500.02, -187500.02, -187500.02, -187500.02, -187500.02, -187500.02, -187500.02, 0.000, 0.000, 0.000, 14:37:51.079
93, 61892.61, -187500.02, -187500.02, -187500.02, -187500.02, -187500.02, -187500.02, -187500.02, 0.000, 0.000, 0.000, 14:37:51.079
94, 62363.64, -187500.02, -187500.02, -187500.02, -187500.02, -187500.02, -187500.02, -187500.02, 0.000, 0.000, 0.000, 14:37:51.079
95, 62101.82, -187500.02, -187500.02, -187500.02, -187500.02, -187500.02, -187500.02, -187500.02, 0.000, 0.000, 0.000, 14:37:51.079
96, 61628.00, -187500.02, -187500.02, -187500.02, -187500.02, -187500.02, -187500.02, -187500.02, -0.950, 0.162, -0.318, 14:37:51.079
97, 61803.98, -187500.02, -187500.02, -187500.02, -187500.02, -187500.02, -187500.02, -187500.02, 0.000, 0.000, 0.000, 14:37:51.080
98, 62381.04, -187500.02, -187500.02, -187500.02, -187500.02, -187500.02, -187500.02, -187500.02, 0.000, 0.000, 0.000, 14:37:51.080
99, 62163.62, -187500.02, -187500.02, -187500.02, -187500.02, -187500.02, -187500.02, -187500.02, 0.000, 0.000, 0.000, 14:37:51.080
100, 61663.66, -187500.02, -187500.02, -187500.02, -187500.02, -187500.02, -187500.02, -187500.02, 0.000, 0.000, 0.000, 14:37:51.080
101, 61650.33, -187500.02, -187500.02, -187500.02, -187500.02, -187500.02, -187500.02, -187500.02, 0.000, 0.000, 0.000, 14:37:51.080
102, 62284.23, -187500.02, -187500.02, -187500.02, -187500.02, -187500.02, -187500.02, -187500.02, 0.000, 0.000, 0.000, 14:37:51.080
103, 62179.40, -187500.02, -187500.02, -187500.02, -187500.02, -187500.02, -187500.02, -187500.02, 0.000, 0.000, 0.000, 14:37:51.080
104, 61742.85, -187500.02, -187500.02, -187500.02, -187500.02, -187500.02, -187500.02, -187500.02, 0.000, 0.000, 0.000, 14:37:51.080
105, 61591.39, -187500.02, -187500.02, -187500.02, -187500.02, -187500.02, -187500.02, -187500.02, 0.000, 0.000, 0.000, 14:37:51.081
106, 62235.61, -187500.02, -187500.02, -187500.02, -187500.02, -187500.02, -187500.02, -187500.02, -0.946, 0.166, -0.316, 14:37:51.081
107, 62313.80, -187500.02, -187500.02, -187500.02, -187500.02, -187500.02, -187500.02, -187500.02, 0.000, 0.000, 0.000, 14:37:51.081
108, 61855.41, -187500.02, -187500.02, -187500.02, -187500.02, -187500.02, -187500.02, -187500.02, 0.000, 0.000, 0.000, 14:37:51.081
109, 61545.57, -187500.02, -187500.02, -187500.02, -187500.02, -187500.02, -187500.02, -187500.02, 0.000, 0.000, 0.000, 14:37:51.081
110, 62145.20, -187500.02, -187500.02, -187500.02, -187500.02, -187500.02, -187500.02, -187500.02, 0.000, 0.000, 0.000, 14:37:51.081
111, 62413.69, -187500.02, -187500.02, -187500.02, -187500.02, -187500.02, -187500.02, -187500.02, 0.000, 0.000, 0.000, 14:37:51.081
112, 61996.23, -187500.02, -187500.02, -187500.02, -187500.02, -187500.02, -187500.02, -187500.02, 0.000, 0.000, 0.000, 14:37:51.082
113, 61585.94, -187500.02, -187500.02, -187500.02, -187500.02, -187500.02, -187500.02, -187500.02, 0.000, 0.000, 0.000, 14:37:51.082
114, 62058.10, -187500.02, -187500.02, -187500.02, -187500.02, -187500.02, -187500.02, -187500.02, 0.000, 0.000, 0.000, 14:37:51.082
115, 62401.31, -187500.02, -187500.02, -187500.02, -187500.02, -187500.02, -187500.02, -187500.02, 0.000, 0.000, 0.000, 14:37:51.082
116, 62022.13, -187500.02, -187500.02, -187500.02, -187500.02, -187500.02, -187500.02, -187500.02, -0.948, 0.164, -0.322, 14:37:51.082
117, 61556.01, -187500.02, -187500.02, -187500.02, -187500.02, -187500.02, -187500.02, -187500.02, 0.000, 0.000, 0.000, 14:37:51.082
118, 61854.32, -187500.02, -187500.02, -187500.02, -187500.02, -187500.02, -187500.02, -187500.02, 0.000, 0.000, 0.000, 14:37:51.082
119, 62352.67, -187500.02, -187500.02, -187500.02, -187500.02, -187500.02, -187500.02, -187500.02, 0.000, 0.000, 0.000, 14:37:51.083
120, 62089.39, -187500.02, -187500.02, -187500.02, -187500.02, -187500.02, -187500.02, -187500.02, 0.000, 0.000, 0.000, 14:37:51.083
121, 61583.73, -187500.02, -187500.02, -187500.02, -187500.02, -187500.02, -187500.02, -187500.02, 0.000, 0.000, 0.000, 14:37:51.524
122, 61712.56, -187500.02, -187500.02, -187500.02, -187500.02, -187500.02, -187500.02, -187500.02, 0.000, 0.000, 0.000, 14:37:51.524
123, 62323.12, -187500.02, -187500.02, -187500.02, -187500.02, -187500.02, -187500.02, -187500.02, 0.000, 0.000, 0.000, 14:37:51.524
124, 62116.50, -187500.02, -187500.02, -187500.02, -187500.02, -187500.02, -187500.02, -187500.02, 0.000, 0.000, 0.000, 14:37:51.525
125, 61663.81, -187500.02, -187500.02, -187500.02, -187500.02, -187500.02, -187500.02, -187500.02, 0.000, 0.000, 0.000, 14:37:51.525
126, 61621.43, -187500.02, -187500.02, -187500.02, -187500.02, -187500.02, -187500.02, -187500.02, -0.950, 0.166, -0.316, 14:37:51.525
127, 62258.01, -187500.02, -187500.02, -187500.02, -187500.02, -187500.02, -187500.02, -187500.02, 0.000, 0.000, 0.000, 14:37:51.525
128, 62206.02, -187500.02, -187500.02, -187500.02, -187500.02, -187500.02, -187500.02, -187500.02, 0.000, 0.000, 0.000, 14:37:51.525
129, 61714.86, -187500.02, -187500.02, -187500.02, -187500.02, -187500.02, -187500.02, -187500.02, 0.000, 0.000, 0.000, 14:37:51.525
130, 61474.18, -187500.02, -187500.02, -187500.02, -187500.02, -187500.02, -187500.02, -187500.02, 0.000, 0.000, 0.000, 14:37:51.525
131, 62120.70, -187500.02, -187500.02, -187500.02, -187500.02, -187500.02, -187500.02, -187500.02, 0.000, 0.000, 0.000, 14:37:51.525
132, 62206.33, -187500.02, -187500.02, -187500.02, -187500.02, -187500.02, -187500.02, -187500.02, 0.000, 0.000, 0.000, 14:37:51.525
133, 61756.93, -187500.02, -187500.02, -187500.02, -187500.02, -187500.02, -187500.02, -187500.02, 0.000, 0.000, 0.000, 14:37:51.526
134, 61408.33, -187500.02, -187500.02, -187500.02, -187500.02, -187500.02, -187500.02, -187500.02, 0.000, 0.000, 0.000, 14:37:51.526
135, 61964.02, -187500.02, -187500.02, -187500.02, -187500.02, -187500.02, -187500.02, -187500.02, 0.000, 0.000, 0.000, 14:37:51.526
136, 62229.38, -187500.02, -187500.02, -187500.02, -187500.02, -187500.02, -187500.02, -187500.02, -0.950, 0.158, -0.314, 14:37:51.526
137, 61823.36, -187500.02, -187500.02, -187500.02, -187500.02, -187500.02, -187500.02, -187500.02, 0.000, 0.000, 0.000, 14:37:51.526
138, 61422.12, -187500.02, -187500.02, -187500.02, -187500.02, -187500.02, -187500.02, -187500.02, 0.000, 0.000, 0.000, 14:37:51.527
139, 61889.72, -187500.02, -187500.02, -187500.02, -187500.02, -187500.02, -187500.02, -187500.02, 0.000, 0.000, 0.000, 14:37:51.527
140, 62330.21, -187500.02, -187500.02, -187500.02, -187500.02, -187500.02, -187500.02, -187500.02, 0.000, 0.000, 0.000, 14:37:51.527
141, 62023.43, -187500.02, -187500.02, -187500.02, -187500.02, -187500.02, -187500.02, -187500.02, 0.000, 0.000, 0.000, 14:37:51.527
142, 61545.17, -187500.02, -187500.02, -187500.02, -187500.02, -187500.02, -187500.02, -187500.02, 0.000, 0.000, 0.000, 14:37:51.527
143, 61826.51, -187500.02, -187500.02, -187500.02, -187500.02, -187500.02, -187500.02, -187500.02, 0.000, 0.000, 0.000, 14:37:51.528
144, 62387.47, -187500.02, -187500.02, -187500.02, -187500.02, -187500.02, -187500.02, -187500.02, 0.000, 0.000, 0.000, 14:37:51.528
145, 62114.24, -187500.02, -187500.02, -187500.02, -187500.02, -187500.02, -187500.02, -187500.02, 0.000, 0.000, 0.000, 14:37:51.528
146, 61579.59, -187500.02, -187500.02, -187500.02, -187500.02, -187500.02, -187500.02, -187500.02, -0.952, 0.166, -0.306, 14:37:51.528
147, 61668.35, -187500.02, -187500.02, -187500.02, -187500.02, -187500.02, -187500.02, -187500.02, 0.000, 0.000, 0.000, 14:37:51.528
148, 62306.36, -187500.02, -187500.02, -187500.02, -187500.02, -187500.02, -187500.02, -187500.02, 0.000, 0.000, 0.000, 14:37:51.529
149, 62155.68, -187500.02, -187500.02, -187500.02, -187500.02, -187500.02, -187500.02, -187500.02, 0.000, 0.000, 0.000, 14:37:51.529
150, 61633.39, -187500.02, -187500.02, -187500.02, -187500.02, -187500.02, -187500.02, -187500.02, 0.000, 0.000, 0.000, 14:37:51.529
151, 61567.50, -187500.02, -187500.02, -187500.02, -187500.02, -187500.02, -187500.02, -187500.02, 0.000, 0.000, 0.000, 14:37:51.529
152, 62258.17, -187500.02, -187500.02, -187500.02, -187500.02, -187500.02, -187500.02, -187500.02, 0.000, 0.000, 0.000, 14:37:51.529
153, 62257.77, -187500.02, -187500.02, -187500.02, -187500.02, -187500.02, -187500.02, -187500.02, 0.000, 0.000, 0.000, 14:37:51.529
154, 61770.59, -187500.02, -187500.02, -187500.02, -187500.02, -187500.02, -187500.02, -187500.02, 0.000, 0.000, 0.000, 14:37:51.530
155, 61534.44, -187500.02, -187500.02, -187500.02, -187500.02, -187500.02, -187500.02, -187500.02, 0.000, 0.000, 0.000, 14:37:51.530
156, 62162.77, -187500.02, -187500.02, -187500.02, -187500.02, -187500.02, -187500.02, -187500.02, -0.950, 0.164, -0.308, 14:37:51.530
157, 62282.84, -187500.02, -187500.02, -187500.02, -187500.02, -187500.02, -187500.02, -187500.02, 0.000, 0.000, 0.000, 14:37:51.530
158, 61883.71, -187500.02, -187500.02, -187500.02, -187500.02, -187500.02, -187500.02, -187500.02, 0.000, 0.000, 0.000, 14:37:51.530
159, 61558.65, -187500.02, -187500.02, -187500.02, -187500.02, -187500.02, -187500.02, -187500.02, 0.000, 0.000, 0.000, 14:37:51.531
160, 62100.61, -187500.02, -187500.02, -187500.02, -187500.02, -187500.02, -187500.02, -187500.02, 0.000, 0.000, 0.000, 14:37:51.531
161, 62457.79, -187500.02, -187500.02, -187500.02, -187500.02, -187500.02, -187500.02, -187500.02, 0.000, 0.000, 0.000, 14:37:51.531
162, 62049.02, -187500.02, -187500.02, -187500.02, -187500.02, -187500.02, -187500.02, -187500.02, 0.000, 0.000, 0.000, 14:37:51.531
163, 61592.11, -187500.02, -187500.02, -187500.02, -187500.02, -187500.02, -187500.02, -187500.02, 0.000, 0.000, 0.000, 14:37:51.531
164, 61964.24, -187500.02, -187500.02, -187500.02, -187500.02, -187500.02, -187500.02, -187500.02, 0.000, 0.000, 0.000, 14:37:51.532
165, 62442.28, -187500.02, -187500.02, -187500.02, -187500.02, -187500.02, -187500.02, -187500.02, -0.950, 0.162, -0.314, 14:37:51.532
166, 62136.93, -187500.02, -187500.02, -187500.02, -187500.02, -187500.02, -187500.02, -187500.02, 0.000, 0.000, 0.000, 14:37:51.532
167, 61645.39, -187500.02, -187500.02, -187500.02, -187500.02, -187500.02, -187500.02, -187500.02, 0.000, 0.000, 0.000, 14:37:51.532
168, 61852.15, -187500.02, -187500.02, -187500.02, -187500.02, -187500.02, -187500.02, -187500.02, 0.000, 0.000, 0.000, 14:37:51.532
169, 62353.05, -187500.02, -187500.02, -187500.02, -187500.02, -187500.02, -187500.02, -187500.02, 0.000, 0.000, 0.000, 14:37:51.533
170, 62117.46, -187500.02, -187500.02, -187500.02, -187500.02, -187500.02, -187500.02, -187500.02, 0.000, 0.000, 0.000, 14:37:51.533
171, 61595.30, -187500.02, -187500.02, -187500.02, -187500.02, -187500.02, -187500.02, -187500.02, 0.000, 0.000, 0.000, 14:37:51.533
172, 61618.93, -187500.02, -187500.02, -187500.02, -187500.02, -187500.02, -187500.02, -187500.02, 0.000, 0.000, 0.000, 14:37:51.533
173, 62271.60, -187500.02, -187500.02, -187500.02, -187500.02, -187500.02, -187500.02, -187500.02, 0.000, 0.000, 0.000, 14:37:51.533
174, 62176.61, -187500.02, -187500.02, -187500.02, -187500.02, -187500.02, -187500.02, -187500.02, 0.000, 0.000, 0.000, 14:37:51.533
175, 61697.16, -187500.02, -187500.02, -187500.02, -187500.02, -187500.02, -187500.02, -187500.02, -0.954, 0.164, -0.312, 14:37:51.534
176, 61587.44, -187500.02, -187500.02, -187500.02, -187500.02, -187500.02, -187500.02, -187500.02, 0.000, 0.000, 0.000, 14:37:51.534
177, 62285.68, -187500.02, -187500.02, -187500.02, -187500.02, -187500.02, -187500.02, -187500.02, 0.000, 0.000, 0.000, 14:37:51.534
178, 62340.89, -187500.02, -187500.02, -187500.02, -187500.02, -187500.02, -187500.02, -187500.02, 0.000, 0.000, 0.000, 14:37:51.534
179, 61868.93, -187500.02, -187500.02, -187500.02, -187500.02, -187500.02, -187500.02, -187500.02, 0.000, 0.000, 0.000, 14:37:51.534
180, 61583.48, -187500.02, -187500.02, -187500.02, -187500.02, -187500.02, -187500.02, -187500.02, 0.000, 0.000, 0.000, 14:37:51.535
181, 62216.44, -187500.02, -187500.02, -187500.02, -187500.02, -187500.02, -187500.02, -187500.02, 0.000, 0.000, 0.000, 14:37:51.535
182, 62428.82, -187500.02, -187500.02, -187500.02, -187500.02, -187500.02, -187500.02, -187500.02, 0.000, 0.000, 0.000, 14:37:51.535
183, 61994.37, -187500.02, -187500.02, -187500.02, -187500.02, -187500.02, -187500.02, -187500.02, 0.000, 0.000, 0.000, 14:37:51.535
184, 61577.71, -187500.02, -187500.02, -187500.02, -187500.02, -187500.02, -187500.02, -187500.02, 0.000, 0.000, 0.000, 14:37:51.535
185, 62121.78, -187500.02, -187500.02, -187500.02, -187500.02, -187500.02, -187500.02, -187500.02, -0.950, 0.166, -0.316, 14:37:51.536
186, 62447.66, -187500.02, -187500.02, -187500.02, -187500.02, -187500.02, -187500.02, -187500.02, 0.000, 0.000, 0.000, 14:37:51.536
187, 62049.63, -187500.02, -187500.02, -187500.02, -187500.02, -187500.02, -187500.02, -187500.02, 0.000, 0.000, 0.000, 14:37:51.536
188, 61576.19, -187500.02, -187500.02, -187500.02, -187500.02, -187500.02, -187500.02, -187500.02, 0.000, 0.000, 0.000, 14:37:51.536
189, 61952.55, -187500.02, -187500.02, -187500.02, -187500.02, -187500.02, -187500.02, -187500.02, 0.000, 0.000, 0.000, 14:37:51.536
190, 62441.43, -187500.02, -187500.02, -187500.02, -187500.02, -187500.02, -187500.02, -187500.02, 0.000, 0.000, 0.000, 14:37:51.537
191, 62129.82, -187500.02, -187500.02, -187500.02, -187500.02, -187500.02, -187500.02, -187500.02, 0.000, 0.000, 0.000, 14:37:51.537
192, 61610.19, -187500.02, -187500.02, -187500.02, -187500.02, -187500.02, -187500.02, -187500.02, 0.000, 0.000, 0.000, 14:37:51.537
193, 61794.43, -187500.02, -187500.02, -187500.02, -187500.02, -187500.02, -187500.02, -187500.02, 0.000, 0.000, 0.000, 14:37:51.537
194, 62371.33, -187500.02, -187500.02, -187500.02, -187500.02, -187500.02, -187500.02, -187500.02, 0.000, 0.000, 0.000, 14:37:51.537
195, 62157.41, -187500.02, -187500.02, -187500.02, -187500.02, -187500.02, -187500.02, -187500.02, -0.952, 0.162, -0.320, 14:37:51.538
196, 61653.53, -187500.02, -187500.02, -187500.02, -187500.02, -187500.02, -187500.02, -187500.02, 0.000, 0.000, 0.000, 14:37:51.538
197, 61699.33, -187500.02, -187500.02, -187500.02, -187500.02, -187500.02, -187500.02, -187500.02, 0.000, 0.000, 0.000, 14:37:51.538
198, 62352.31, -187500.02, -187500.02, -187500.02, -187500.02, -187500.02, -187500.02, -187500.02, 0.000, 0.000, 0.000, 14:37:51.538
199, 62229.36, -187500.02, -187500.02, -187500.02, -187500.02, -187500.02, -187500.02, -187500.02, 0.000, 0.000, 0.000, 14:37:51.538
200, 61755.36, -187500.02, -187500.02, -187500.02, -187500.02, -187500.02, -187500.02, -187500.02, 0.000, 0.000, 0.000, 14:37:51.539
201, 61640.10, -187500.02, -187500.02, -187500.02, -187500.02, -187500.02, -187500.02, -187500.02, 0.000, 0.000, 0.000, 14:37:51.539
202, 62303.68, -187500.02, -187500.02, -187500.02, -187500.02, -187500.02, -187500.02, -187500.02, 0.000, 0.000, 0.000, 14:37:51.539
203, 62355.87, -187500.02, -187500.02, -187500.02, -187500.02, -187500.02, -187500.02, -187500.02, 0.000, 0.000, 0.000, 14:37:51.539
204, 61877.94, -187500.02, -187500.02, -187500.02, -187500.02, -187500.02, -187500.02, -187500.02, 0.000, 0.000, 0.000, 14:37:51.539
205, 61588.53, -187500.02, -187500.02, -187500.02, -187500.02, -187500.02, -187500.02, -187500.02, -0.952, 0.168, -0.322, 14:37:51.539
206, 62166.30, -187500.02, -187500.02, -187500.02, -187500.02, -187500.02, -187500.02, -187500.02, 0.000, 0.000, 0.000, 14:37:51.540
207, 62372.83, -187500.02, -187500.02, -187500.02, -187500.02, -187500.02, -187500.02, -187500.02, 0.000, 0.000, 0.000, 14:37:51.540
208, 61945.46, -187500.02, -187500.02, -187500.02, -187500.02, -187500.02, -187500.02, -187500.02, 0.000, 0.000, 0.000, 14:37:51.540
209, 61524.43, -187500.02, -187500.02, -187500.02, -187500.02, -187500.02, -187500.02, -187500.02, 0.000, 0.000, 0.000, 14:37:51.540
210, 61999.91, -187500.02, -187500.02, -187500.02, -187500.02, -187500.02, -187500.02, -187500.02, 0.000, 0.000, 0.000, 14:37:51.540
211, 62350.82, -187500.02, -187500.02, -187500.02, -187500.02, -187500.02, -187500.02, -187500.02, 0.000, 0.000, 0.000, 14:37:51.541
212, 61972.47, -187500.02, -187500.02, -187500.02, -187500.02, -187500.02, -187500.02, -187500.02, 0.000, 0.000, 0.000, 14:37:51.541
213, 61493.80, -187500.02, -187500.02, -187500.02, -187500.02, -187500.02, -187500.02, -187500.02, 0.000, 0.000, 0.000, 14:37:51.541
214, 61841.08, -187500.02, -187500.02, -187500.02, -187500.02, -187500.02, -187500.02, -187500.02, 0.000, 0.000, 0.000, 14:37:51.541
215, 62370.11, -187500.02, -187500.02, -187500.02, -187500.02, -187500.02, -187500.02, -187500.02, -0.946, 0.168, -0.312, 14:37:51.541
216, 62069.88, -187500.02, -187500.02, -187500.02, -187500.02, -187500.02, -187500.02, -187500.02, 0.000, 0.000, 0.000, 14:37:51.542
217, 61555.88, -187500.02, -187500.02, -187500.02, -187500.02, -187500.02, -187500.02, -187500.02, 0.000, 0.000, 0.000, 14:37:51.542
218, 61695.53, -187500.02, -187500.02, -187500.02, -187500.02, -187500.02, -187500.02, -187500.02, 0.000, 0.000, 0.000, 14:37:51.542
219, 62291.70, -187500.02, -187500.02, -187500.02, -187500.02, -187500.02, -187500.02, -187500.02, 0.000, 0.000, 0.000, 14:37:51.542
220, 62111.09, -187500.02, -187500.02, -187500.02, -187500.02, -187500.02, -187500.02, -187500.02, 0.000, 0.000, 0.000, 14:37:51.542
221, 61629.88, -187500.02, -187500.02, -187500.02, -187500.02, -187500.02, -187500.02, -187500.02, 0.000, 0.000, 0.000, 14:37:51.543
222, 61589.80, -187500.02, -187500.02, -187500.02, -187500.02, -187500.02, -187500.02, -187500.02, 0.000, 0.000, 0.000, 14:37:51.543
223, 62242.41, -187500.02, -187500.02, -187500.02, -187500.02, -187500.02, -187500.02, -187500.02, 0.000, 0.000, 0.000, 14:37:51.543
224, 62185.30, -187500.02, -187500.02, -187500.02, -187500.02, -187500.02, -187500.02, -187500.02, 0.000, 0.000, 0.000, 14:37:51.543
225, 61710.97, -187500.02, -187500.02, -187500.02, -187500.02, -187500.02, -187500.02, -187500.02, -0.952, 0.168, -0.312, 14:37:51.543
226, 61541.12, -187500.02, -187500.02, -187500.02, -187500.02, -187500.02, -187500.02, -187500.02, 0.000, 0.000, 0.000, 14:37:51.544
227, 62206.00, -187500.02, -187500.02, -187500.02, -187500.02, -187500.02, -187500.02, -187500.02, 0.000, 0.000, 0.000, 14:37:51.544
228, 62284.61, -187500.02, -187500.02, -187500.02, -187500.02, -187500.02, -187500.02, -187500.02, 0.000, 0.000, 0.000, 14:37:51.544
229, 61831.18, -187500.02, -187500.02, -187500.02, -187500.02, -187500.02, -187500.02, -187500.02, 0.000, 0.000, 0.000, 14:37:51.544
230, 61487.10, -187500.02, -187500.02, -187500.02, -187500.02, -187500.02, -187500.02, -187500.02, 0.000, 0.000, 0.000, 14:37:51.544
231, 62080.65, -187500.02, -187500.02, -187500.02, -187500.02, -187500.02, -187500.02, -187500.02, 0.000, 0.000, 0.000, 14:37:51.545
232, 62312.32, -187500.02, -187500.02, -187500.02, -187500.02, -187500.02, -187500.02, -187500.02, 0.000, 0.000, 0.000, 14:37:51.545
233, 61947.32, -187500.02, -187500.02, -187500.02, -187500.02, -187500.02, -187500.02, -187500.02, 0.000, 0.000, 0.000, 14:37:51.545
234, 61559.56, -187500.02, -187500.02, -187500.02, -187500.02, -187500.02, -187500.02, -187500.02, 0.000, 0.000, 0.000, 14:37:51.545
235, 62005.08, -187500.02, -187500.02, -187500.02, -187500.02, -187500.02, -187500.02, -187500.02, -0.958, 0.172, -0.312, 14:37:51.545
236, 62380.72, -187500.02, -187500.02, -187500.02, -187500.02, -187500.02, -187500.02, -187500.02, 0.000, 0.000, 0.000, 14:37:51.546
237, 61976.89, -187500.02, -187500.02, -187500.02, -187500.02, -187500.02, -187500.02, -187500.02, 0.000, 0.000, 0.000, 14:37:51.546
238, 61497.45, -187500.02, -187500.02, -187500.02, -187500.02, -187500.02, -187500.02, -187500.02, 0.000, 0.000, 0.000, 14:37:51.546
239, 61796.18, -187500.02, -187500.02, -187500.02, -187500.02, -187500.02, -187500.02, -187500.02, 0.000, 0.000, 0.000, 14:37:51.546
240, 62354.48, -187500.02, -187500.02, -187500.02, -187500.02, -187500.02, -187500.02, -187500.02, 0.000, 0.000, 0.000, 14:37:51.546
241, 62069.65, -187500.02, -187500.02, -187500.02, -187500.02, -187500.02, -187500.02, -187500.02, 0.000, 0.000, 0.000, 14:37:52.005
242, 61575.43, -187500.02, -187500.02, -187500.02, -187500.02, -187500.02, -187500.02, -187500.02, 0.000, 0.000, 0.000, 14:37:52.005
243, 61683.08, -187500.02, -187500.02, -187500.02, -187500.02, -187500.02, -187500.02, -187500.02, 0.000, 0.000, 0.000, 14:37:52.005
244, 62312.30, -187500.02, -187500.02, -187500.02, -187500.02, -187500.02, -187500.02, -187500.02, 0.000, 0.000, 0.000, 14:37:52.006
245, 62182.57, -187500.02, -187500.02, -187500.02, -187500.02, -187500.02, -187500.02, -187500.02, -0.954, 0.174, -0.314, 14:37:52.006
246, 61682.68, -187500.02, -187500.02, -187500.02, -187500.02, -187500.02, -187500.02, -187500.02, 0.000, 0.000, 0.000, 14:37:52.006
247, 61590.88, -187500.02, -187500.02, -187500.02, -187500.02, -187500.02, -187500.02, -187500.02, 0.000, 0.000, 0.000, 14:37:52.006
248, 62248.91, -187500.02, -187500.02, -187500.02, -187500.02, -187500.02, -187500.02, -187500.02, 0.000, 0.000, 0.000, 14:37:52.006
249, 62232.71, -187500.02, -187500.02, -187500.02, -187500.02, -187500.02, -187500.02, -187500.02, 0.000, 0.000, 0.000, 14:37:52.006
250, 61751.57, -187500.02, -187500.02, -187500.02, -187500.02, -187500.02, -187500.02, -187500.02, 0.000, 0.000, 0.000, 14:37:52.007
251, 61500.58, -187500.02, -187500.02, -187500.02, -187500.02, -187500.02, -187500.02, -187500.02, 0.000, 0.000, 0.000, 14:37:52.007
252, 62150.21, -187500.02, -187500.02, -187500.02, -187500.02, -187500.02, -187500.02, -187500.02, 0.000, 0.000, 0.000, 14:37:52.007
253, 62271.78, -187500.02, -187500.02, -187500.02, -187500.02, -187500.02, -187500.02, -187500.02, 0.000, 0.000, 0.000, 14:37:52.007
254, 61837.86, -187500.02, -187500.02, -187500.02, -187500.02, -187500.02, -187500.02, -187500.02, 0.000, 0.000, 0.000, 14:37:52.007
255, 61484.46, -187500.02, -187500.02, -187500.02, -187500.02, -187500.02, -187500.02, -187500.02, -0.958, 0.168, -0.318, 14:37:52.007
0, 62048.93, -187500.02, -187500.02, -187500.02, -187500.02, -187500.02, -187500.02, -187500.02, 0.000, 0.000, 0.000, 14:37:52.007
1, 62310.89, -187500.02, -187500.02, -187500.02, -187500.02, -187500.02, -187500.02, -187500.02, 0.000, 0.000, 0.000, 14:37:52.007
2, 61944.68, -187500.02, -187500.02, -187500.02, -187500.02, -187500.02, -187500.02, -187500.02, 0.000, 0.000, 0.000, 14:37:52.007
3, 61525.95, -187500.02, -187500.02, -187500.02, -187500.02, -187500.02, -187500.02, -187500.02, 0.000, 0.000, 0.000, 14:37:52.007
4, 61936.75, -187500.02, -187500.02, -187500.02, -187500.02, -187500.02, -187500.02, -187500.02, 0.000, 0.000, 0.000, 14:37:52.007
5, 62386.73, -187500.02, -187500.02, -187500.02, -187500.02, -187500.02, -187500.02, -187500.02, 0.000, 0.000, 0.000, 14:37:52.008
6, 62053.74, -187500.02, -187500.02, -187500.02, -187500.02, -187500.02, -187500.02, -187500.02, 0.000, 0.000, 0.000, 14:37:52.008
7, 61551.07, -187500.02, -187500.02, -187500.02, -187500.02, -187500.02, -187500.02, -187500.02, 0.000, 0.000, 0.000, 14:37:52.008
8, 61782.68, -187500.02, -187500.02, -187500.02, -187500.02, -187500.02, -187500.02, -187500.02, 0.000, 0.000, 0.000, 14:37:52.008
9, 62357.74, -187500.02, -187500.02, -187500.02, -187500.02, -187500.02, -187500.02, -187500.02, -0.956, 0.164, -0.312, 14:37:52.008
10, 62099.09, -187500.02, -187500.02, -187500.02, -187500.02, -187500.02, -187500.02, -187500.02, 0.000, 0.000, 0.000, 14:37:52.008
11, 61609.70, -187500.02, -187500.02, -187500.02, -187500.02, -187500.02, -187500.02, -187500.02, 0.000, 0.000, 0.000, 14:37:52.008
12, 61665.09, -187500.02, -187500.02, -187500.02, -187500.02, -187500.02, -187500.02, -187500.02, 0.000, 0.000, 0.000, 14:37:52.008
13, 62300.37, -187500.02, -187500.02, -187500.02, -187500.02, -187500.02, -187500.02, -187500.02, 0.000, 0.000, 0.000, 14:37:52.008
14, 62189.23, -187500.02, -187500.02, -187500.02, -187500.02, -187500.02, -187500.02, -187500.02, 0.000, 0.000, 0.000, 14:37:52.008
15, 61692.22, -187500.02, -187500.02, -187500.02, -187500.02, -187500.02, -187500.02, -187500.02, 0.000, 0.000, 0.000, 14:37:52.008
16, 61558.71, -187500.02, -187500.02, -187500.02, -187500.02, -187500.02, -187500.02, -187500.02, 0.000, 0.000, 0.000, 14:37:52.008
17, 62223.05, -187500.02, -187500.02, -187500.02, -187500.02, -187500.02, -187500.02, -187500.02, 0.000, 0.000, 0.000, 14:37:52.009
18, 62281.48, -187500.02, -187500.02, -187500.02, -187500.02, -187500.02, -187500.02, -187500.02, 0.000, 0.000, 0.000, 14:37:52.009
19, 61797.50, -187500.02, -187500.02, -187500.02, -187500.02, -187500.02, -187500.02, -187500.02, -0.958, 0.170, -0.312, 14:37:52.009
20, 61533.72, -187500.02, -187500.02, -187500.02, -187500.02, -187500.02, -187500.02, -187500.02, 0.000, 0.000, 0.000, 14:37:52.009
21, 62160.45, -187500.02, -187500.02, -187500.02, -187500.02, -187500.02, -187500.02, -187500.02, 0.000, 0.000, 0.000, 14:37:52.009
22, 62307.74, -187500.02, -187500.02, -187500.02, -187500.02, -187500.02, -187500.02, -187500.02, 0.000, 0.000, 0.000, 14:37:52.009
23, 61875.73, -187500.02, -187500.02, -187500.02, -187500.02, -187500.02, -187500.02, -187500.02, 0.000, 0.000, 0.000, 14:37:52.009
24, 61510.99, -187500.02, -187500.02, -187500.02, -187500.02, -187500.02, -187500.02, -187500.02, 0.000, 0.000, 0.000, 14:37:52.009
25, 62014.53, -187500.02, -187500.02, -187500.02, -187500.02, -187500.02, -187500.02, -187500.02, 0.000, 0.000, 0.000, 14:37:52.009
26, 62311.25, -187500.02, -187500.02, -187500.02, -187500.02, -187500.02, -187500.02, -187500.02, 0.000, 0.000, 0.000, 14:37:52.009
27, 61937.66, -187500.02, -187500.02, -187500.02, -187500.02, -187500.02, -187500.02, -187500.02, 0.000, 0.000, 0.000, 14:37:52.010
28, 61518.44, -187500.02, -187500.02, -187500.02, -187500.02, -187500.02, -187500.02, -187500.02, 0.000, 0.000, 0.000, 14:37:52.010
29, 61882.95, -187500.02, -187500.02, -187500.02, -187500.02, -187500.02, -187500.02, -187500.02, -0.952, 0.170, -0.320, 14:37:52.010
30, 62342.84, -187500.02, -187500.02, -187500.02, -187500.02, -187500.02, -187500.02, -187500.02, 0.000, 0.000, 0.000, 14:37:52.010
31, 62047.19, -187500.02, -187500.02, -187500.02, -187500.02, -187500.02, -187500.02, -187500.02, 0.000, 0.000, 0.000, 14:37:52.010
32, 61602.34, -187500.02, -187500.02, -187500.02, -187500.02, -187500.02, -187500.02, -187500.02, 0.000, 0.000, 0.000, 14:37:52.010
33, 61783.08, -187500.02, -187500.02, -187500.02, -187500.02, -187500.02, -187500.02, -187500.02, 0.000, 0.000, 0.000, 14:37:52.010
34, 62367.04, -187500.02, -187500.02, -187500.02, -187500.02, -187500.02, -187500.02, -187500.02, 0.000, 0.000, 0.000, 14:37:52.010
35, 62158.23, -187500.02, -187500.02, -187500.02, -187500.02, -187500.02, -187500.02, -187500.02, 0.000, 0.000, 0.000, 14:37:52.011
36, 61642.58, -187500.02, -187500.02, -187500.02, -187500.02, -187500.02, -187500.02, -187500.02, 0.000, 0.000, 0.000, 14:37:52.011
37, 61656.91, -187500.02, -187500.02, -187500.02, -187500.02, -187500.02, -187500.02, -187500.02, 0.000, 0.000, 0.000, 14:37:52.011
38, 62281.39, -187500.02, -187500.02, -187500.02, -187500.02, -187500.02, -187500.02, -187500.02, 0.000, 0.000, 0.000, 14:37:52.011
39, 62160.87, -187500.02, -187500.02, -187500.02, -187500.02, -187500.02, -187500.02, -187500.02, -0.954, 0.170, -0.316, 14:37:52.011
40, 61698.97, -187500.02, -187500.02, -187500.02, -187500.02, -187500.02, -187500.02, -187500.02, 0.000, 0.000, 0.000, 14:37:52.011
41, 61580.82, -187500.02, -187500.02, -187500.02, -187500.02, -187500.02, -187500.02, -187500.02, 0.000, 0.000, 0.000, 14:37:52.011
42, 62243.17, -187500.02, -187500.02, -187500.02, -187500.02, -187500.02, -187500.02, -187500.02, 0.000, 0.000, 0.000, 14:37:52.012
43, 62251.71, -187500.02, -187500.02, -187500.02, -187500.02, -187500.02, -187500.02, -187500.02, 0.000, 0.000, 0.000, 14:37:52.012
44, 61785.61, -187500.02, -187500.02, -187500.02, -187500.02, -187500.02, -187500.02, -187500.02, 0.000, 0.000, 0.000, 14:37:52.012
45, 61538.69, -187500.02, -187500.02, -187500.02, -187500.02, -187500.02, -187500.02, -187500.02, 0.000, 0.000, 0.000, 14:37:52.012
46, 62143.79, -187500.02, -187500.02, -187500.02, -187500.02, -187500.02, -187500.02, -187500.02, 0.000, 0.000, 0.000, 14:37:52.012
47, 62339.73, -187500.02, -187500.02, -187500.02, -187500.02, -187500.02, -187500.02, -187500.02, 0.000, 0.000, 0.000, 14:37:52.012
48, 61931.61, -187500.02, -187500.02, -187500.02, -187500.02, -187500.02, -187500.02, -187500.02, 0.000, 0.000, 0.000, 14:37:52.012
49, 61542.69, -187500.02, -187500.02, -187500.02, -187500.02, -187500.02, -187500.02, -187500.02, -0.952, 0.174, -0.316, 14:37:52.012
50, 62014.71, -187500.02, -187500.02, -187500.02, -187500.02, -187500.02, -187500.02, -187500.02, 0.000, 0.000, 0.000, 14:37:52.012
51, 62383.11, -187500.02, -187500.02, -187500.02, -187500.02, -187500.02, -187500.02, -187500.02, 0.000, 0.000, 0.000, 14:37:52.012
52, 61982.46, -187500.02, -187500.02, -187500.02, -187500.02, -187500.02, -187500.02, -187500.02, 0.000, 0.000, 0.000, 14:37:52.012
53, 61516.76, -187500.02, -187500.02, -187500.02, -187500.02, -187500.02, -187500.02, -187500.02, 0.000, 0.000, 0.000, 14:37:52.013
54, 61876.62, -187500.02, -187500.02, -187500.02, -187500.02, -187500.02, -187500.02, -187500.02, 0.000, 0.000, 0.000, 14:37:52.013
55, 62342.43, -187500.02, -187500.02, -187500.02, -187500.02, -187500.02, -187500.02, -187500.02, 0.000, 0.000, 0.000, 14:37:52.013
56, 62039.23, -187500.02, -187500.02, -187500.02, -187500.02, -187500.02, -187500.02, -187500.02, 0.000, 0.000, 0.000, 14:37:52.013
57, 61584.11, -187500.02, -187500.02, -187500.02, -187500.02, -187500.02, -187500.02, -187500.02, 0.000, 0.000, 0.000, 14:37:52.013
58, 61779.17, -187500.02, -187500.02, -187500.02, -187500.02, -187500.02, -187500.02, -187500.02, -0.956, 0.174, -0.312, 14:37:52.013
59, 62338.41, -187500.02, -187500.02, -187500.02, -187500.02, -187500.02, -187500.02, -187500.02, 0.000, 0.000, 0.000, 14:37:52.013
60, 62157.98, -187500.02, -187500.02, -187500.02, -187500.02, -187500.02, -187500.02, -187500.02, 0.000, 0.000, 0.000, 14:37:52.013
61, 61690.48, -187500.02, -187500.02, -187500.02, -187500.02, -187500.02, -187500.02, -187500.02, 0.000, 0.000, 0.000, 14:37:52.013
62, 61646.49, -187500.02, -187500.02, -187500.02, -187500.02, -187500.02, -187500.02, -187500.02, 0.000, 0.000, 0.000, 14:37:52.013
63, 62302.45, -187500.02, -187500.02, -187500.02, -187500.02, -187500.02, -187500.02, -187500.02, 0.000, 0.000, 0.000, 14:37:52.013
64, 62238.92, -187500.02, -187500.02, -187500.02, -187500.02, -187500.02, -187500.02, -187500.02, 0.000, 0.000, 0.000, 14:37:52.013
65, 61740.01, -187500.02, -187500.02, -187500.02, -187500.02, -187500.02, -187500.02, -187500.02, 0.000, 0.000, 0.000, 14:37:52.014
66, 61583.08, -187500.02, -187500.02, -187500.02, -187500.02, -187500.02, -187500.02, -187500.02, 0.000, 0.000, 0.000, 14:37:52.014
67, 62225.78, -187500.02, -187500.02, -187500.02, -187500.02, -187500.02, -187500.02, -187500.02, 0.000, 0.000, 0.000, 14:37:52.014
68, 62287.29, -187500.02, -187500.02, -187500.02, -187500.02, -187500.02, -187500.02, -187500.02, -0.954, 0.172, -0.320, 14:37:52.014
69, 61849.00, -187500.02, -187500.02, -187500.02, -187500.02, -187500.02, -187500.02, -187500.02, 0.000, 0.000, 0.000, 14:37:52.014
70, 61536.54, -187500.02, -187500.02, -187500.02, -187500.02, -187500.02, -187500.02, -187500.02, 0.000, 0.000, 0.000, 14:37:52.014
71, 62113.02, -187500.02, -187500.02, -187500.02, -187500.02, -187500.02, -187500.02, -187500.02, 0.000, 0.000, 0.000, 14:37:52.014
72, 62344.69, -187500.02, -187500.02, -187500.02, -187500.02, -187500.02, -187500.02, -187500.02, 0.000, 0.000, 0.000, 14:37:52.014
73, 61917.82, -187500.02, -187500.02, -187500.02, -187500.02, -187500.02, -187500.02, -187500.02, 0.000, 0.000, 0.000, 14:37:52.014
74, 61522.62, -187500.02, -187500.02, -187500.02, -187500.02, -187500.02, -187500.02, -187500.02, 0.000, 0.000, 0.000, 14:37:52.014
75, 61981.54, -187500.02, -187500.02, -187500.02, -187500.02, -187500.02, -187500.02, -187500.02, 0.000, 0.000, 0.000, 14:37:52.014
76, 62349.99, -187500.02, -187500.02, -187500.02, -187500.02, -187500.02, -187500.02, -187500.02, 0.000, 0.000, 0.000, 14:37:52.015
77, 61999.96, -187500.02, -187500.02, -187500.02, -187500.02, -187500.02, -187500.02, -187500.02, 0.000, 0.000, 0.000, 14:37:52.015
78, 61525.28, -187500.02, -187500.02, -187500.02, -187500.02, -187500.02, -187500.02, -187500.02, -0.952, 0.170, -0.320, 14:37:52.015
79, 61841.60, -187500.02, -187500.02, -187500.02, -187500.02, -187500.02, -187500.02, -187500.02, 0.000, 0.000, 0.000, 14:37:52.015
80, 62351.71, -187500.02, -187500.02, -187500.02, -187500.02, -187500.02, -187500.02, -187500.02, 0.000, 0.000, 0.000, 14:37:52.015
81, 62051.95, -187500.02, -187500.02, -187500.02, -187500.02, -187500.02, -187500.02, -187500.02, 0.000, 0.000, 0.000, 14:37:52.015
82, 61572.73, -187500.02, -187500.02, -187500.02, -187500.02, -187500.02, -187500.02, -187500.02, 0.000, 0.000, 0.000, 14:37:52.015
83, 61698.10, -187500.02, -187500.02, -187500.02, -187500.02, -187500.02, -187500.02, -187500.02, 0.000, 0.000, 0.000, 14:37:52.015
84, 62318.00, -187500.02, -187500.02, -187500.02, -187500.02, -187500.02, -187500.02, -187500.02, 0.000, 0.000, 0.000, 14:37:52.015
85, 62170.93, -187500.02, -187500.02, -187500.02, -187500.02, -187500.02, -187500.02, -187500.02, 0.000, 0.000, 0.000, 14:37:52.015
86, 61671.99, -187500.02, -187500.02, -187500.02, -187500.02, -187500.02, -187500.02, -187500.02, 0.000, 0.000, 0.000, 14:37:52.015
87, 61592.96, -187500.02, -187500.02, -187500.02, -187500.02, -187500.02, -187500.02, -187500.02, 0.000, 0.000, 0.000, 14:37:52.015
88, 62235.28, -187500.02, -187500.02, -187500.02, -187500.02, -187500.02, -187500.02, -187500.02, -0.950, 0.172, -0.314, 14:37:52.016
89, 62267.38, -187500.02, -187500.02, -187500.02, -187500.02, -187500.02, -187500.02, -187500.02, 0.000, 0.000, 0.000, 14:37:52.016
90, 61848.37, -187500.02, -187500.02, -187500.02, -187500.02, -187500.02, -187500.02, -187500.02, 0.000, 0.000, 0.000, 14:37:52.016
91, 61593.54, -187500.02, -187500.02, -187500.02, -187500.02, -187500.02, -187500.02, -187500.02, 0.000, 0.000, 0.000, 14:37:52.016
92, 62210.29, -187500.02, -187500.02, -187500.02, -187500.02, -187500.02, -187500.02, -187500.02, 0.000, 0.000, 0.000, 14:37:52.016
93, 62301.17, -187500.02, -187500.02, -187500.02, -187500.02, -187500.02, -187500.02, -187500.02, 0.000, 0.000, 0.000, 14:37:52.016
94, 61894.37, -187500.02, -187500.02, -187500.02, -187500.02, -187500.02, -187500.02, -187500.02, 0.000, 0.000, 0.000, 14:37:52.016
95, 61552.86, -187500.02, -187500.02, -187500.02, -187500.02, -187500.02, -187500.02, -187500.02, 0.000, 0.000, 0.000, 14:37:52.016
96, 62101.95, -187500.02, -187500.02, -187500.02, -187500.02, -187500.02, -187500.02, -187500.02, 0.000, 0.000, 0.000, 14:37:52.016
97, 62355.98, -187500.02, -187500.02, -187500.02, -187500.02, -187500.02, -187500.02, -187500.02, 0.000, 0.000, 0.000, 14:37:52.016
98, 61956.11, -187500.02, -187500.02, -187500.02, -187500.02, -187500.02, -187500.02, -187500.02, -0.948, 0.168, -0.312, 14:37:52.016
99, 61549.46, -187500.02, -187500.02, -187500.02, -187500.02, -187500.02, -187500.02, -187500.02, 0.000, 0.000, 0.000, 14:37:52.016
100, 61976.13, -187500.02, -187500.02, -187500.02, -187500.02, -187500.02, -187500.02, -187500.02, 0.000, 0.000, 0.000, 14:37:52.017
101, 62387.16, -187500.02, -187500.02, -187500.02, -187500.02, -187500.02, -187500.02, -187500.02, 0.000, 0.000, 0.000, 14:37:52.017
102, 62038.45, -187500.02, -187500.02, -187500.02, -187500.02, -187500.02, -187500.02, -187500.02, 0.000, 0.000, 0.000, 14:37:52.017
103, 61564.21, -187500.02, -187500.02, -187500.02, -187500.02, -187500.02, -187500.02, -187500.02, 0.000, 0.000, 0.000, 14:37:52.017
104, 61830.60, -187500.02, -187500.02, -187500.02, -187500.02, -187500.02, -187500.02, -187500.02, 0.000, 0.000, 0.000, 14:37:52.017
105, 62383.40, -187500.02, -187500.02, -187500.02, -187500.02, -187500.02, -187500.02, -187500.02, 0.000, 0.000, 0.000, 14:37:52.483
106, 62118.94, -187500.02, -187500.02, -187500.02, -187500.02, -187500.02, -187500.02, -187500.02, 0.000, 0.000, 0.000, 14:37:52.484
107, 61608.98, -187500.02, -187500.02, -187500.02, -187500.02, -187500.02, -187500.02, -187500.02, 0.000, 0.000, 0.000, 14:37:52.484
108, 61695.98, -187500.02, -187500.02, -187500.02, -187500.02, -187500.02, -187500.02, -187500.02, -0.954, 0.164, -0.310, 14:37:52.484
109, 62318.96, -187500.02, -187500.02, -187500.02, -187500.02, -187500.02, -187500.02, -187500.02, 0.000, 0.000, 0.000, 14:37:52.484
110, 62167.51, -187500.02, -187500.02, -187500.02, -187500.02, -187500.02, -187500.02, -187500.02, 0.000, 0.000, 0.000, 14:37:52.484
111, 61702.84, -187500.02, -187500.02, -187500.02, -187500.02, -187500.02, -187500.02, -187500.02, 0.000, 0.000, 0.000, 14:37:52.484
112, 61603.66, -187500.02, -187500.02, -187500.02, -187500.02, -187500.02, -187500.02, -187500.02, 0.000, 0.000, 0.000, 14:37:52.485
113, 62240.82, -187500.02, -187500.02, -187500.02, -187500.02, -187500.02, -187500.02, -187500.02, 0.000, 0.000, 0.000, 14:37:52.485
114, 62257.81, -187500.02, -187500.02, -187500.02, -187500.02, -187500.02, -187500.02, -187500.02, 0.000, 0.000, 0.000, 14:37:52.485
115, 61802.55, -187500.02, -187500.02, -187500.02, -187500.02, -187500.02, -187500.02, -187500.02, 0.000, 0.000, 0.000, 14:37:52.485
116, 61540.63, -187500.02, -187500.02, -187500.02, -187500.02, -187500.02, -187500.02, -187500.02, 0.000, 0.000, 0.000, 14:37:52.485
117, 62186.15, -187500.02, -187500.02, -187500.02, -187500.02, -187500.02, -187500.02, -187500.02, 0.000, 0.000, 0.000, 14:37:52.485
118, 62335.13, -187500.02, -187500.02, -187500.02, -187500.02, -187500.02, -187500.02, -187500.02, -0.950, 0.162, -0.316, 14:37:52.485
119, 61871.97, -187500.02, -187500.02, -187500.02, -187500.02, -187500.02, -187500.02, -187500.02, 0.000, 0.000, 0.000, 14:37:52.485
120, 61502.72, -187500.02, -187500.02, -187500.02, -187500.02, -187500.02, -187500.02, -187500.02, 0.000, 0.000, 0.000, 14:37:52.486
121, 62036.93, -187500.02, -187500.02, -187500.02, -187500.02, -187500.02, -187500.02, -187500.02, 0.000, 0.000, 0.000, 14:37:52.486
122, 62342.61, -187500.02, -187500.02, -187500.02, -187500.02, -187500.02, -187500.02, -187500.02, 0.000, 0.000, 0.000, 14:37:52.486
123, 61971.33, -187500.02, -187500.02, -187500.02, -187500.02, -187500.02, -187500.02, -187500.02, 0.000, 0.000, 0.000, 14:37:52.486
124, 61534.21, -187500.02, -187500.02, -187500.02, -187500.02, -187500.02, -187500.02, -187500.02, 0.000, 0.000, 0.000, 14:37:52.486
125, 61935.77, -187500.02, -187500.02, -187500.02, -187500.02, -187500.02, -187500.02, -187500.02, 0.000, 0.000, 0.000, 14:37:52.486
126, 62368.36, -187500.02, -187500.02, -187500.02, -187500.02, -187500.02, -187500.02, -187500.02, 0.000, 0.000, 0.000, 14:37:52.486
127, 62066.21, -187500.02, -187500.02, -187500.02, -187500.02, -187500.02, -187500.02, -187500.02, 0.000, 0.000, 0.000, 14:37:52.487
128, 61579.46, -187500.02, -187500.02, -187500.02, -187500.02, -187500.02, -187500.02, -187500.02, -0.950, 0.166, -0.316, 14:37:52.487
129, 61793.00, -187500.02, -187500.02, -187500.02, -187500.02, -187500.02, -187500.02, -187500.02, 0.000, 0.000, 0.000, 14:37:52.487
130, 62384.59, -187500.02, -187500.02, -187500.02, -187500.02, -187500.02, -187500.02, -187500.02, 0.000, 0.000, 0.000, 14:37:52.487
131, 62131.45, -187500.02, -187500.02, -187500.02, -187500.02, -187500.02, -187500.02, -187500.02, 0.000, 0.000, 0.000, 14:37:52.487
132, 61626.11, -187500.02, -187500.02, -187500.02, -187500.02, -187500.02, -187500.02, -187500.02, 0.000, 0.000, 0.000, 14:37:52.487
133, 61663.81, -187500.02, -187500.02, -187500.02, -187500.02, -187500.02, -187500.02, -187500.02, 0.000, 0.000, 0.000, 14:37:52.487
134, 62315.10, -187500.02, -187500.02, -187500.02, -187500.02, -187500.02, -187500.02, -187500.02, 0.000, 0.000, 0.000, 14:37:52.487
135, 62197.82, -187500.02, -187500.02, -187500.02, -187500.02, -187500.02, -187500.02, -187500.02, 0.000, 0.000, 0.000, 14:37:52.488
136, 61685.56, -187500.02, -187500.02, -187500.02, -187500.02, -187500.02, -187500.02, -187500.02, 0.000, 0.000, 0.000, 14:37:52.488
137, 61546.04, -187500.02, -187500.02, -187500.02, -187500.02, -187500.02, -187500.02, -187500.02, 0.000, 0.000, 0.000, 14:37:52.490
138, 62212.79, -187500.02, -187500.02, -187500.02, -187500.02, -187500.02, -187500.02, -187500.02, -0.948, 0.168, -0.324, 14:37:52.490
139, 62294.73, -187500.02, -187500.02, -187500.02, -187500.02, -187500.02, -187500.02, -187500.02, 0.000, 0.000, 0.000, 14:37:52.490
140, 61848.57, -187500.02, -187500.02, -187500.02, -187500.02, -187500.02, -187500.02, -187500.02, 0.000, 0.000, 0.000, 14:37:52.490
141, 61556.23, -187500.02, -187500.02, -187500.02, -187500.02, -187500.02, -187500.02, -187500.02, 0.000, 0.000, 0.000, 14:37:52.491
142, 62145.98, -187500.02, -187500.02, -187500.02, -187500.02, -187500.02, -187500.02, -187500.02, 0.000, 0.000, 0.000, 14:37:52.491
143, 62313.35, -187500.02, -187500.02, -187500.02, -187500.02, -187500.02, -187500.02, -187500.02, 0.000, 0.000, 0.000, 14:37:52.491
144, 61875.50, -187500.02, -187500.02, -187500.02, -187500.02, -187500.02, -187500.02, -187500.02, 0.000, 0.000, 0.000, 14:37:52.491
145, 61505.16, -187500.02, -187500.02, -187500.02, -187500.02, -187500.02, -187500.02, -187500.02, 0.000, 0.000, 0.000, 14:37:52.492
146, 62011.67, -187500.02, -187500.02, -187500.02, -187500.02, -187500.02, -187500.02, -187500.02, 0.000, 0.000, 0.000, 14:37:52.492
147, 62368.34, -187500.02, -187500.02, -187500.02, -187500.02, -187500.02, -187500.02, -187500.02, 0.000, 0.000, 0.000, 14:37:52.492
148, 61998.26, -187500.02, -187500.02, -187500.02, -187500.02, -187500.02, -187500.02, -187500.02, -0.950, 0.164, -0.322, 14:37:52.492
149, 61536.43, -187500.02, -187500.02, -187500.02, -187500.02, -187500.02, -187500.02, -187500.02, 0.000, 0.000, 0.000, 14:37:52.492
150, 61875.62, -187500.02, -187500.02, -187500.02, -187500.02, -187500.02, -187500.02, -187500.02, 0.000, 0.000, 0.000, 14:37:52.493
151, 62370.06, -187500.02, -187500.02, -187500.02, -187500.02, -187500.02, -187500.02, -187500.02, 0.000, 0.000, 0.000, 14:37:52.493
152, 62090.75, -187500.02, -187500.02, -187500.02, -187500.02, -187500.02, -187500.02, -187500.02, 0.000, 0.000, 0.000, 14:37:52.493
153, 61594.88, -187500.02, -187500.02, -187500.02, -187500.02, -187500.02, -187500.02, -187500.02, 0.000, 0.000, 0.000, 14:37:52.493
154, 61772.78, -187500.02, -187500.02, -187500.02, -187500.02, -187500.02, -187500.02, -187500.02, 0.000, 0.000, 0.000, 14:37:52.494
155, 62365.46, -187500.02, -187500.02, -187500.02, -187500.02, -187500.02, -187500.02, -187500.02, 0.000, 0.000, 0.000, 14:37:52.494
156, 62138.54, -187500.02, -187500.02, -187500.02, -187500.02, -187500.02, -187500.02, -187500.02, 0.000, 0.000, 0.000, 14:37:52.494
157, 61652.34, -187500.02, -187500.02, -187500.02, -187500.02, -187500.02, -187500.02, -187500.02, 0.000, 0.000, 0.000, 14:37:52.494
158, 61634.98, -187500.02, -187500.02, -187500.02, -187500.02, -187500.02, -187500.02, -187500.02, -0.952, 0.166, -0.312, 14:37:52.494
159, 62279.13, -187500.02, -187500.02, -187500.02, -187500.02, -187500.02, -187500.02, -187500.02, 0.000, 0.000, 0.000, 14:37:52.495
160, 62221.31, -187500.02, -187500.02, -187500.02, -187500.02, -187500.02, -187500.02, -187500.02, 0.000, 0.000, 0.000, 14:37:52.495
161, 61738.11, -187500.02, -187500.02, -187500.02, -187500.02, -187500.02, -187500.02, -187500.02, 0.000, 0.000, 0.000, 14:37:52.495
162, 61551.54, -187500.02, -187500.02, -187500.02, -187500.02, -187500.02, -187500.02, -187500.02, 0.000, 0.000, 0.000, 14:37:52.495
163, 62212.19, -187500.02, -187500.02, -187500.02, -187500.02, -187500.02, -187500.02, -187500.02, 0.000, 0.000, 0.000, 14:37:52.495
164, 62318.92, -187500.02, -187500.02, -187500.02, -187500.02, -187500.02, -187500.02, -187500.02, 0.000, 0.000, 0.000, 14:37:52.496
165, 61864.11, -187500.02, -187500.02, -187500.02, -187500.02, -187500.02, -187500.02, -187500.02, 0.000, 0.000, 0.000, 14:37:52.496
166, 61546.18, -187500.02, -187500.02, -187500.02, -187500.02, -187500.02, -187500.02, -187500.02, 0.000, 0.000, 0.000, 14:37:52.496
167, 62127.86, -187500.02, -187500.02, -187500.02, -187500.02, -187500.02, -187500.02, -187500.02, 0.000, 0.000, 0.000, 14:37:52.496
168, 62319.10, -187500.02, -187500.02, -187500.02, -187500.02, -187500.02, -187500.02, -187500.02, -0.958, 0.166, -0.312, 14:37:52.496
169, 61910.44, -187500.02, -187500.02, -187500.02, -187500.02, -187500.02, -187500.02, -187500.02, 0.000, 0.000, 0.000, 14:37:52.497
170, 61546.15, -187500.02, -187500.02, -187500.02, -187500.02, -187500.02, -187500.02, -187500.02, 0.000, 0.000, 0.000, 14:37:52.497
171, 62009.66, -187500.02, -187500.02, -187500.02, -187500.02, -187500.02, -187500.02, -187500.02, 0.000, 0.000, 0.000, 14:37:52.497
172, 62375.63, -187500.02, -187500.02, -187500.02, -187500.02, -187500.02, -187500.02, -187500.02, 0.000, 0.000, 0.000, 14:37:52.497
173, 62035.81, -187500.02, -187500.02, -187500.02, -187500.02, -187500.02, -187500.02, -187500.02, 0.000, 0.000, 0.000, 14:37:52.497
174, 61551.52, -187500.02, -187500.02, -187500.02, -187500.02, -187500.02, -187500.02, -187500.02, 0.000, 0.000, 0.000, 14:37:52.498
175, 61856.68, -187500.02, -187500.02, -187500.02, -187500.02, -187500.02, -187500.02, -187500.02, 0.000, 0.000, 0.000, 14:37:52.498
176, 62364.41, -187500.02, -187500.02, -187500.02, -187500.02, -187500.02, -187500.02, -187500.02, 0.000, 0.000, 0.000, 14:37:52.498
177, 62118.29, -187500.02, -187500.02, -187500.02, -187500.02, -187500.02, -187500.02, -187500.02, 0.000, 0.000, 0.000, 14:37:52.498
178, 61633.64, -187500.02, -187500.02, -187500.02, -187500.02, -187500.02, -187500.02, -187500.02, -0.954, 0.166, -0.316, 14:37:52.499
179, 61763.30, -187500.02, -187500.02, -187500.02, -187500.02, -187500.02, -187500.02, -187500.02, 0.000, 0.000, 0.000, 14:37:52.499
180, 62375.98, -187500.02, -187500.02, -187500.02, -187500.02, -187500.02, -187500.02, -187500.02, 0.000, 0.000, 0.000, 14:37:52.499
181, 62173.23, -187500.02, -187500.02, -187500.02, -187500.02, -187500.02, -187500.02, -187500.02, 0.000, 0.000, 0.000, 14:37:52.499
182, 61661.11, -187500.02, -187500.02, -187500.02, -187500.02, -187500.02, -187500.02, -187500.02, 0.000, 0.000, 0.000, 14:37:52.499
183, 61618.50, -187500.02, -187500.02, -187500.02, -187500.02, -187500.02, -187500.02, -187500.02, 0.000, 0.000, 0.000, 14:37:52.500
184, 62302.76, -187500.02, -187500.02, -187500.02, -187500.02, -187500.02, -187500.02, -187500.02, 0.000, 0.000, 0.000, 14:37:52.500
185, 62234.74, -187500.02, -187500.02, -187500.02, -187500.02, -187500.02, -187500.02, -187500.02, 0.000, 0.000, 0.000, 14:37:52.500
186, 61778.01, -187500.02, -187500.02, -187500.02, -187500.02, -187500.02, -187500.02, -187500.02, 0.000, 0.000, 0.000, 14:37:52.500
187, 61594.07, -187500.02, -187500.02, -187500.02, -187500.02, -187500.02, -187500.02, -187500.02, 0.000, 0.000, 0.000, 14:37:52.500
188, 62232.04, -187500.02, -187500.02, -187500.02, -187500.02, -187500.02, -187500.02, -187500.02, -0.952, 0.166, -0.314, 14:37:52.501
189, 62289.01, -187500.02, -187500.02, -187500.02, -187500.02, -187500.02, -187500.02, -187500.02, 0.000, 0.000, 0.000, 14:37:52.501
190, 61844.91, -187500.02, -187500.02, -187500.02, -187500.02, -187500.02, -187500.02, -187500.02, 0.000, 0.000, 0.000, 14:37:52.501
191, 61553.89, -187500.02, -187500.02, -187500.02, -187500.02, -187500.02, -187500.02, -187500.02, 0.000, 0.000, 0.000, 14:37:52.501
192, 62104.19, -187500.02, -187500.02, -187500.02, -187500.02, -187500.02, -187500.02, -187500.02, 0.000, 0.000, 0.000, 14:37:52.501
193, 62347.28, -187500.02, -187500.02, -187500.02, -187500.02, -187500.02, -187500.02, -187500.02, 0.000, 0.000, 0.000, 14:37:52.502
194, 61941.35, -187500.02, -187500.02, -187500.02, -187500.02, -187500.02, -187500.02, -187500.02, 0.000, 0.000, 0.000, 14:37:52.502
195, 61502.92, -187500.02, -187500.02, -187500.02, -187500.02, -187500.02, -187500.02, -187500.02, 0.000, 0.000, 0.000, 14:37:52.502
196, 61967.04, -187500.02, -187500.02, -187500.02, -187500.02, -187500.02, -187500.02, -187500.02, 0.000, 0.000, 0.000, 14:37:52.502
197, 62374.04, -187500.02, -187500.02, -187500.02, -187500.02, -187500.02, -187500.02, -187500.02, -0.954, 0.168, -0.312, 14:37:52.503
198, 62024.25, -187500.02, -187500.02, -187500.02, -187500.02, -187500.02, -187500.02, -187500.02, 0.000, 0.000, 0.000, 14:37:52.503
199, 61551.54, -187500.02, -187500.02, -187500.02, -187500.02, -187500.02, -187500.02, -187500.02, 0.000, 0.000, 0.000, 14:37:52.503
200, 61850.98, -187500.02, -187500.02, -187500.02, -187500.02, -187500.02, -187500.02, -187500.02, 0.000, 0.000, 0.000, 14:37:52.504
201, 62391.85, -187500.02, -187500.02, -187500.02, -187500.02, -187500.02, -187500.02, -187500.02, 0.000, 0.000, 0.000, 14:37:52.504
202, 62140.89, -187500.02, -187500.02, -187500.02, -187500.02, -187500.02, -187500.02, -187500.02, 0.000, 0.000, 0.000, 14:37:52.504
203, 61659.23, -187500.02, -187500.02, -187500.02, -187500.02, -187500.02, -187500.02, -187500.02, 0.000, 0.000, 0.000, 14:37:52.504
204, 61749.69, -187500.02, -187500.02, -187500.02, -187500.02, -187500.02, -187500.02, -187500.02, 0.000, 0.000, 0.000, 14:37:52.504
205, 62348.38, -187500.02, -187500.02, -187500.02, -187500.02, -187500.02, -187500.02, -187500.02, 0.000, 0.000, 0.000, 14:37:52.505
206, 62212.32, -187500.02, -187500.02, -187500.02, -187500.02, -187500.02, -187500.02, -187500.02, 0.000, 0.000, 0.000, 14:37:52.505
207, 61721.70, -187500.02, -187500.02, -187500.02, -187500.02, -187500.02, -187500.02, -187500.02, -0.948, 0.164, -0.314, 14:37:52.505
208, 61639.87, -187500.02, -187500.02, -187500.02, -187500.02, -187500.02, -187500.02, -187500.02, 0.000, 0.000, 0.000, 14:37:52.505
209, 62293.28, -187500.02, -187500.02, -187500.02, -187500.02, -187500.02, -187500.02, -187500.02, 0.000, 0.000, 0.000, 14:37:52.505
210, 62288.68, -187500.02, -187500.02, -187500.02, -187500.02, -187500.02, -187500.02, -187500.02, 0.000, 0.000, 0.000, 14:37:52.506
211, 61793.65, -187500.02, -187500.02, -187500.02, -187500.02, -187500.02, -187500.02, -187500.02, 0.000, 0.000, 0.000, 14:37:52.506
212, 61542.82, -187500.02, -187500.02, -187500.02, -187500.02, -187500.02, -187500.02, -187500.02, 0.000, 0.000, 0.000, 14:37:52.506
213, 62179.85, -187500.02, -187500.02, -187500.02, -187500.02, -187500.02, -187500.02, -187500.02, 0.000, 0.000, 0.000, 14:37:52.506
214, 62341.16, -187500.02, -187500.02, -187500.02, -187500.02, -187500.02, -187500.02, -187500.02, 0.000, 0.000, 0.000, 14:37:52.506
215, 61884.29, -187500.02, -187500.02, -187500.02, -187500.02, -187500.02, -187500.02, -187500.02, 0.000, 0.000, 0.000, 14:37:52.507
216, 61532.74, -187500.02, -187500.02, -187500.02, -187500.02, -187500.02, -187500.02, -187500.02, 0.000, 0.000, 0.000, 14:37:52.507
217, 62084.74, -187500.02, -187500.02, -187500.02, -187500.02, -187500.02, -187500.02, -187500.02, -0.956, 0.162, -0.308, 14:37:52.507
218, 62373.12, -187500.02, -187500.02, -187500.02, -187500.02, -187500.02, -187500.02, -187500.02, 0.000, 0.000, 0.000, 14:37:52.507
219, 61948.91, -187500.02, -187500.02, -187500.02, -187500.02, -187500.02, -187500.02, -187500.02, 0.000, 0.000, 0.000, 14:37:52.508
220, 61508.73, -187500.02, -187500.02, -187500.02, -187500.02, -187500.02, -187500.02, -187500.02, 0.000, 0.000, 0.000, 14:37:52.508
221, 61911.58, -187500.02, -187500.02, -187500.02, -187500.02, -187500.02, -187500.02, -187500.02, 0.000, 0.000, 0.000, 14:37:52.508
222, 62356.11, -187500.02, -187500.02, -187500.02, -187500.02, -187500.02, -187500.02, -187500.02, 0.000, 0.000, 0.000, 14:37:52.508
223, 62040.26, -187500.02, -187500.02, -187500.02, -187500.02, -187500.02, -187500.02, -187500.02, 0.000, 0.000, 0.000, 14:37:52.508
224, 61556.19, -187500.02, -187500.02, -187500.02, -187500.02, -187500.02, -187500.02, -187500.02, 0.000, 0.000, 0.000, 14:37:52.509
225, 61806.04, -187500.02, -187500.02, -187500.02, -187500.02, -187500.02, -187500.02, -187500.02, 0.000, 0.000, 0.000, 14:37:52.965
226, 62370.84, -187500.02, -187500.02, -187500.02, -187500.02, -187500.02, -187500.02, -187500.02, 0.000, 0.000, 0.000, 14:37:52.966
227, 62155.64, -187500.02, -187500.02, -187500.02, -187500.02, -187500.02, -187500.02, -187500.02, -0.954, 0.162, -0.314, 14:37:52.966
228, 61657.38, -187500.02, -187500.02, -187500.02, -187500.02, -187500.02, -187500.02, -187500.02, 0.000, 0.000, 0.000, 14:37:52.966
229, 61677.16, -187500.02, -187500.02, -187500.02, -187500.02, -187500.02, -187500.02, -187500.02, 0.000, 0.000, 0.000, 14:37:52.967
230, 62346.30, -187500.02, -187500.02, -187500.02, -187500.02, -187500.02, -187500.02, -187500.02, 0.000, 0.000, 0.000, 14:37:52.967
231, 62239.19, -187500.02, -187500.02, -187500.02, -187500.02, -187500.02, -187500.02, -187500.02, 0.000, 0.000, 0.000, 14:37:52.967
232, 61753.75, -187500.02, -187500.02, -187500.02, -187500.02, -187500.02, -187500.02, -187500.02, 0.000, 0.000, 0.000, 14:37:52.967
233, 61618.57, -187500.02, -187500.02, -187500.02, -187500.02, -187500.02, -187500.02, -187500.02, 0.000, 0.000, 0.000, 14:37:52.967
234, 62278.30, -187500.02, -187500.02, -187500.02, -187500.02, -187500.02, -187500.02, -187500.02, 0.000, 0.000, 0.000, 14:37:52.967
235, 62287.67, -187500.02, -187500.02, -187500.02, -187500.02, -187500.02, -187500.02, -187500.02, 0.000, 0.000, 0.000, 14:37:52.968
236, 61829.21, -187500.02, -187500.02, -187500.02, -187500.02, -187500.02, -187500.02, -187500.02, 0.000, 0.000, 0.000, 14:37:52.968
237, 61550.06, -187500.02, -187500.02, -187500.02, -187500.02, -187500.02, -187500.02, -187500.02, -0.950, 0.166, -0.312, 14:37:52.968
238, 62165.12, -187500.02, -187500.02, -187500.02, -187500.02, -187500.02, -187500.02, -187500.02, 0.000, 0.000, 0.000, 14:37:52.968
239, 62333.94, -187500.02, -187500.02, -187500.02, -187500.02, -187500.02, -187500.02, -187500.02, 0.000, 0.000, 0.000, 14:37:52.968
240, 61886.01, -187500.02, -187500.02, -187500.02, -187500.02, -187500.02, -187500.02, -187500.02, 0.000, 0.000, 0.000, 14:37:52.968
241, 61503.50, -187500.02, -187500.02, -187500.02, -187500.02, -187500.02, -187500.02, -187500.02, 0.000, 0.000, 0.000, 14:37:52.968
242, 62038.67, -187500.02, -187500.02, -187500.02, -187500.02, -187500.02, -187500.02, -187500.02, 0.000, 0.000, 0.000, 14:37:52.969
243, 62380.95, -187500.02, -187500.02, -187500.02, -187500.02, -187500.02, -187500.02, -187500.02, 0.000, 0.000, 0.000, 14:37:52.969
244, 61988.74, -187500.02, -187500.02, -187500.02, -187500.02, -187500.02, -187500.02, -187500.02, 0.000, 0.000, 0.000, 14:37:52.969
245, 61535.16, -187500.02, -187500.02, -187500.02, -187500.02, -187500.02, -187500.02, -187500.02, 0.000, 0.000, 0.000, 14:37:52.969
246, 61918.87, -187500.02, -187500.02, -187500.02, -187500.02, -187500.02, -187500.02, -187500.02, 0.000, 0.000, 0.000, 14:37:52.969
247, 62373.39, -187500.02, -187500.02, -187500.02, -187500.02, -187500.02, -187500.02, -187500.02, -0.946, 0.162, -0.316, 14:37:52.969
248, 62059.01, -187500.02, -187500.02, -187500.02, -187500.02, -187500.02, -187500.02, -187500.02, 0.000, 0.000, 0.000, 14:37:52.969
249, 61552.54, -187500.02, -187500.02, -187500.02, -187500.02, -187500.02, -187500.02, -187500.02, 0.000, 0.000, 0.000, 14:37:52.969
250, 61743.90, -187500.02, -187500.02, -187500.02, -187500.02, -187500.02, -187500.02, -187500.02, 0.000, 0.000, 0.000, 14:37:52.969
251, 62390.29, -187500.02, -187500.02, -187500.02, -187500.02, -187500.02, -187500.02, -187500.02, 0.000, 0.000, 0.000, 14:37:52.969
252, 62176.36, -187500.02, -187500.02, -187500.02, -187500.02, -187500.02, -187500.02, -187500.02, 0.000, 0.000, 0.000, 14:37:52.970
253, 61674.56, -187500.02, -187500.02, -187500.02, -187500.02, -187500.02, -187500.02, -187500.02, 0.000, 0.000, 0.000, 14:37:52.970
254, 61692.64, -187500.02, -187500.02, -187500.02, -187500.02, -187500.02, -187500.02, -187500.02, 0.000, 0.000, 0.000, 14:37:52.970
255, 62332.93, -187500.02, -187500.02, -187500.02, -187500.02, -187500.02, -187500.02, -187500.02, 0.000, 0.000, 0.000, 14:37:52.970
0, 62218.61, -187500.02, -187500.02, -187500.02, -187500.02, -187500.02, -187500.02, -187500.02, 0.000, 0.000, 0.000, 14:37:52.970
1, 61745.71, -187500.02, -187500.02, -187500.02, -187500.02, -187500.02, -187500.02, -187500.02, -0.950, 0.162, -0.314, 14:37:52.970
2, 61587.73, -187500.02, -187500.02, -187500.02, -187500.02, -187500.02, -187500.02, -187500.02, 0.000, 0.000, 0.000, 14:37:52.970
3, 62251.89, -187500.02, -187500.02, -187500.02, -187500.02, -187500.02, -187500.02, -187500.02, 0.000, 0.000, 0.000, 14:37:52.970
4, 62283.22, -187500.02, -187500.02, -187500.02, -187500.02, -187500.02, -187500.02, -187500.02, 0.000, 0.000, 0.000, 14:37:52.970
5, 61835.63, -187500.02, -187500.02, -187500.02, -187500.02, -187500.02, -187500.02, -187500.02, 0.000, 0.000, 0.000, 14:37:52.971
6, 61560.37, -187500.02, -187500.02, -187500.02, -187500.02, -187500.02, -187500.02, -187500.02, 0.000, 0.000, 0.000, 14:37:52.971
7, 62135.68, -187500.02, -187500.02, -187500.02, -187500.02, -187500.02, -187500.02, -187500.02, 0.000, 0.000, 0.000, 14:37:52.971
8, 62343.89, -187500.02, -187500.02, -187500.02, -187500.02, -187500.02, -187500.02, -187500.02, 0.000, 0.000, 0.000, 14:37:52.971
9, 61929.30, -187500.02, -187500.02, -187500.02, -187500.02, -187500.02, -187500.02, -187500.02, 0.000, 0.000, 0.000, 14:37:52.971
10, 61509.07, -187500.02, -187500.02, -187500.02, -187500.02, -187500.02, -187500.02, -187500.02, 0.000, 0.000, 0.000, 14:37:52.971
11, 61996.09, -187500.02, -187500.02, -187500.02, -187500.02, -187500.02, -187500.02, -187500.02, -0.950, 0.168, -0.320, 14:37:52.971
12, 62372.61, -187500.02, -187500.02, -187500.02, -187500.02, -187500.02, -187500.02, -187500.02, 0.000, 0.000, 0.000, 14:37:52.971
13, 61999.87, -187500.02, -187500.02, -187500.02, -187500.02, -187500.02, -187500.02, -187500.02, 0.000, 0.000, 0.000, 14:37:52.971
14, 61538.78, -187500.02, -187500.02, -187500.02, -187500.02, -187500.02, -187500.02, -187500.02, 0.000, 0.000, 0.000, 14:37:52.971
15, 61865.87, -187500.02, -187500.02, -187500.02, -187500.02, -187500.02, -187500.02, -187500.02, 0.000, 0.000, 0.000, 14:37:52.972
16, 62400.35, -187500.02, -187500.02, -187500.02, -187500.02, -187500.02, -187500.02, -187500.02, 0.000, 0.000, 0.000, 14:37:52.972
17, 62109.24, -187500.02, -187500.02, -187500.02, -187500.02, -187500.02, -187500.02, -187500.02, 0.000, 0.000, 0.000, 14:37:52.972
18, 61614.28, -187500.02, -187500.02, -187500.02, -187500.02, -187500.02, -187500.02, -187500.02, 0.000, 0.000, 0.000, 14:37:52.972
19, 61767.25, -187500.02, -187500.02, -187500.02, -187500.02, -187500.02, -187500.02, -187500.02, 0.000, 0.000, 0.000, 14:37:52.972
20, 62367.71, -187500.02, -187500.02, -187500.02, -187500.02, -187500.02, -187500.02, -187500.02, 0.000, 0.000, 0.000, 14:37:52.972
21, 62134.92, -187500.02, -187500.02, -187500.02, -187500.02, -187500.02, -187500.02, -187500.02, -0.956, 0.166, -0.322, 14:37:52.973
22, 61652.23, -187500.02, -187500.02, -187500.02, -187500.02, -187500.02, -187500.02, -187500.02, 0.000, 0.000, 0.000, 14:37:52.973
23, 61667.54, -187500.02, -187500.02, -187500.02, -187500.02, -187500.02, -187500.02, -187500.02, 0.000, 0.000, 0.000, 14:37:52.973
24, 62357.86, -187500.02, -187500.02, -187500.02, -187500.02, -187500.02, -187500.02, -187500.02, 0.000, 0.000, 0.000, 14:37:52.973
25, 62263.53, -187500.02, -187500.02, -187500.02, -187500.02, -187500.02, -187500.02, -187500.02, 0.000, 0.000, 0.000, 14:37:52.973
26, 61754.40, -187500.02, -187500.02, -187500.02, -187500.02, -187500.02, -187500.02, -187500.02, 0.000, 0.000, 0.000, 14:37:52.973
27, 61576.28, -187500.02, -187500.02, -187500.02, -187500.02, -187500.02, -187500.02, -187500.02, 0.000, 0.000, 0.000, 14:37:52.974
28, 62240.00, -187500.02, -187500.02, -187500.02, -187500.02, -187500.02, -187500.02, -187500.02, 0.000, 0.000, 0.000, 14:37:52.974
29, 62306.78, -187500.02, -187500.02, -187500.02, -187500.02, -187500.02, -187500.02, -187500.02, 0.000, 0.000, 0.000, 14:37:52.974
30, 61858.81, -187500.02, -187500.02, -187500.02, -187500.02, -187500.02, -187500.02, -187500.02, 0.000, 0.000, 0.000, 14:37:52.974
31, 61537.41, -187500.02, -187500.02, -187500.02, -187500.02, -187500.02, -187500.02, -187500.02, -0.952, 0.166, -0.314, 14:37:52.974
32, 62140.82, -187500.02, -187500.02, -187500.02, -187500.02, -187500.02, -187500.02, -187500.02, 0.000, 0.000, 0.000, 14:37:52.975
33, 62370.08, -187500.02, -187500.02, -187500.02, -187500.02, -187500.02, -187500.02, -187500.02, 0.000, 0.000, 0.000, 14:37:52.975
34, 61951.86, -187500.02, -187500.02, -187500.02, -187500.02, -187500.02, -187500.02, -187500.02, 0.000, 0.000, 0.000, 14:37:52.975
35, 61526.59, -187500.02, -187500.02, -187500.02, -187500.02, -187500.02, -187500.02, -187500.02, 0.000, 0.000, 0.000, 14:37:52.975
36, 61972.91, -187500.02, -187500.02, -187500.02, -187500.02, -187500.02, -187500.02, -187500.02, 0.000, 0.000, 0.000, 14:37:52.975
37, 62381.08, -187500.02, -187500.02, -187500.02, -187500.02, -187500.02, -187500.02, -187500.02, 0.000, 0.000, 0.000, 14:37:52.975
38, 62033.49, -187500.02, -187500.02, -187500.02, -187500.02, -187500.02, -187500.02, -187500.02, 0.000, 0.000, 0.000, 14:37:52.976
39, 61569.69, -187500.02, -187500.02, -187500.02, -187500.02, -187500.02, -187500.02, -187500.02, 0.000, 0.000, 0.000, 14:37:52.976
40, 61858.32, -187500.02, -187500.02, -187500.02, -187500.02, -187500.02, -187500.02, -187500.02, 0.000, 0.000, 0.000, 14:37:52.976
41, 62377.73, -187500.02, -187500.02, -187500.02, -187500.02, -187500.02, -187500.02, -187500.02, -0.948, 0.170, -0.312, 14:37:52.977
42, 62107.16, -187500.02, -187500.02, -187500.02, -187500.02, -187500.02, -187500.02, -187500.02, 0.000, 0.000, 0.000, 14:37:52.977
43, 61609.41, -187500.02, -187500.02, -187500.02, -187500.02, -187500.02, -187500.02, -187500.02, 0.000, 0.000, 0.000, 14:37:52.977
44, 61719.22, -187500.02, -187500.02, -187500.02, -187500.02, -187500.02, -187500.02, -187500.02, 0.000, 0.000, 0.000, 14:37:52.977
45, 62337.20, -187500.02, -187500.02, -187500.02, -187500.02, -187500.02, -187500.02, -187500.02, 0.000, 0.000, 0.000, 14:37:52.977
46, 62231.46, -187500.02, -187500.02, -187500.02, -187500.02, -187500.02, -187500.02, -187500.02, 0.000, 0.000, 0.000, 14:37:52.977
47, 61733.53, -187500.02, -187500.02, -187500.02, -187500.02, -187500.02, -187500.02, -187500.02, 0.000, 0.000, 0.000, 14:37:52.978
48, 61639.25, -187500.02, -187500.02, -187500.02, -187500.02, -187500.02, -187500.02, -187500.02, 0.000, 0.000, 0.000, 14:37:52.982
49, 62292.16, -187500.02, -187500.02, -187500.02, -187500.02, -187500.02, -187500.02, -187500.02, 0.000, 0.000, 0.000, 14:37:52.982
50, 62242.48, -187500.02, -187500.02, -187500.02, -187500.02, -187500.02, -187500.02, -187500.02, 0.000, 0.000, 0.000, 14:37:52.982
51, 61760.19, -187500.02, -187500.02, -187500.02, -187500.02, -187500.02, -187500.02, -187500.02, -0.950, 0.168, -0.314, 14:37:52.982
52, 61532.05, -187500.02, -187500.02, -187500.02, -187500.02, -187500.02, -187500.02, -187500.02, 0.000, 0.000, 0.000, 14:37:52.983
53, 62196.01, -187500.02, -187500.02, -187500.02, -187500.02, -187500.02, -187500.02, -187500.02, 0.000, 0.000, 0.000, 14:37:52.983
54, 62353.86, -187500.02, -187500.02, -187500.02, -187500.02, -187500.02, -187500.02, -187500.02, 0.000, 0.000, 0.000, 14:37:52.983
55, 61917.01, -187500.02, -187500.02, -187500.02, -187500.02, -187500.02, -187500.02, -187500.02, 0.000, 0.000, 0.000, 14:37:52.983
56, 61535.09, -187500.02, -187500.02, -187500.02, -187500.02, -187500.02, -187500.02, -187500.02, 0.000, 0.000, 0.000, 14:37:52.983
57, 62072.82, -187500.02, -187500.02, -187500.02, -187500.02, -187500.02, -187500.02, -187500.02, 0.000, 0.000, 0.000, 14:37:52.983
58, 62359.55, -187500.02, -187500.02, -187500.02, -187500.02, -187500.02, -187500.02, -187500.02, 0.000, 0.000, 0.000, 14:37:52.984
59, 61958.61, -187500.02, -187500.02, -187500.02, -187500.02, -187500.02, -187500.02, -187500.02, 0.000, 0.000, 0.000, 14:37:52.984
60, 61530.17, -187500.02, -187500.02, -187500.02, -187500.02, -187500.02, -187500.02, -187500.02, 0.000, 0.000, 0.000, 14:37:52.984
61, 61945.42, -187500.02, -187500.02, -187500.02, -187500.02, -187500.02, -187500.02, -187500.02, -0.952, 0.166, -0.312, 14:37:52.984
62, 62352.31, -187500.02, -187500.02, -187500.02, -187500.02, -187500.02, -187500.02, -187500.02, 0.000, 0.000, 0.000, 14:37:52.984
63, 62049.47, -187500.02, -187500.02, -187500.02, -187500.02, -187500.02, -187500.02, -187500.02, 0.000, 0.000, 0.000, 14:37:52.984
64, 61570.09, -187500.02, -187500.02, -187500.02, -187500.02, -187500.02, -187500.02, -187500.02, 0.000, 0.000, 0.000, 14:37:52.984
65, 61792.74, -187500.02, -187500.02, -187500.02, -187500.02, -187500.02, -187500.02, -187500.02, 0.000, 0.000, 0.000, 14:37:52.984
66, 62360.76, -187500.02, -187500.02, -187500.02, -187500.02, -187500.02, -187500.02, -187500.02, 0.000, 0.000, 0.000, 14:37:52.984
67, 62135.19, -187500.02, -187500.02, -187500.02, -187500.02, -187500.02, -187500.02, -187500.02, 0.000, 0.000, 0.000, 14:37:52.984
68, 61630.02, -187500.02, -187500.02, -187500.02, -187500.02, -187500.02, -187500.02, -187500.02, 0.000, 0.000, 0.000, 14:37:52.985
69, 61675.25, -187500.02, -187500.02, -187500.02, -187500.02, -187500.02, -187500.02, -187500.02, 0.000, 0.000, 0.000, 14:37:52.985
70, 62309.96, -187500.02, -187500.02, -187500.02, -187500.02, -187500.02, -187500.02, -187500.02, 0.000, 0.000, 0.000, 14:37:52.985
71, 62184.68, -187500.02, -187500.02, -187500.02, -187500.02, -187500.02, -187500.02, -187500.02, -0.952, 0.166, -0.316, 14:37:52.985
72, 61734.24, -187500.02, -187500.02, -187500.02, -187500.02, -187500.02, -187500.02, -187500.02, 0.000, 0.000, 0.000, 14:37:52.985
73, 61619.91, -187500.02, -187500.02, -187500.02, -187500.02, -187500.02, -187500.02, -187500.02, 0.000, 0.000, 0.000, 14:37:52.985
74, 62270.21, -187500.02, -187500.02, -187500.02, -187500.02, -187500.02, -187500.02, -187500.02, 0.000, 0.000, 0.000, 14:37:52.985
75, 62272.25, -187500.02, -187500.02, -187500.02, -187500.02, -187500.02, -187500.02, -187500.02, 0.000, 0.000, 0.000, 14:37:52.985
76, 61813.10, -187500.02, -187500.02, -187500.02, -187500.02, -187500.02, -187500.02, -187500.02, 0.000, 0.000, 0.000, 14:37:52.985
77, 61535.67, -187500.02, -187500.02, -187500.02, -187500.02, -187500.02, -187500.02, -187500.02, 0.000, 0.000, 0.000, 14:37:52.986
78, 62153.18, -187500.02, -187500.02, -187500.02, -187500.02, -187500.02, -187500.02, -187500.02, 0.000, 0.000, 0.000, 14:37:52.986
79, 62315.36, -187500.02, -187500.02, -187500.02, -187500.02, -187500.02, -187500.02, -187500.02, 0.000, 0.000, 0.000, 14:37:52.986
80, 61903.33, -187500.02, -187500.02, -187500.02, -187500.02, -187500.02, -187500.02, -187500.02, -0.950, 0.166, -0.322, 14:37:52.986
81, 61523.29, -187500.02, -187500.02, -187500.02, -187500.02, -187500.02, -187500.02, -187500.02, 0.000, 0.000, 0.000, 14:37:52.986
82, 62077.34, -187500.02, -187500.02, -187500.02, -187500.02, -187500.02, -187500.02, -187500.02, 0.000, 0.000, 0.000, 14:37:52.986
83, 62386.78, -187500.02, -187500.02, -187500.02, -187500.02, -187500.02, -187500.02, -187500.02, 0.000, 0.000, 0.000, 14:37:52.986
84, 61973.18, -187500.02, -187500.02, -187500.02, -187500.02, -187500.02, -187500.02, -187500.02, 0.000, 0.000, 0.000, 14:37:52.986
85, 61531.63, -187500.02, -187500.02, -187500.02, -187500.02, -187500.02, -187500.02, -187500.02, 0.000, 0.000, 0.000, 14:37:52.986
86, 61915.94, -187500.02, -187500.02, -187500.02, -187500.02, -187500.02, -187500.02, -187500.02, 0.000, 0.000, 0.000, 14:37:52.986
87, 62371.33, -187500.02, -187500.02, -187500.02, -187500.02, -187500.02, -187500.02, -187500.02, 0.000, 0.000, 0.000, 14:37:52.987
88, 62103.87, -187500.02, -187500.02, -187500.02, -187500.02, -187500.02, -187500.02, -187500.02, 0.000, 0.000, 0.000, 14:37:52.987
89, 61617.30, -187500.02, -187500.02, -187500.02, -187500.02, -187500.02, -187500.02, -187500.02, 0.000, 0.000, 0.000, 14:37:52.987
90, 61792.58, -187500.02, -187500.02, -187500.02, -187500.02, -187500.02, -187500.02, -187500.02, -0.950, 0.172, -0.310, 14:37:53.446
91, 62394.31, -187500.02, -187500.02, -187500.02, -187500.02, -187500.02, -187500.02, -187500.02, 0.000, 0.000, 0.000, 14:37:53.447
92, 62185.86, -187500.02, -187500.02, -187500.02, -187500.02, -187500.02, -187500.02, -187500.02, 0.000, 0.000, 0.000, 14:37:53.447
93, 61663.27, -187500.02, -187500.02, -187500.02, -187500.02, -187500.02, -187500.02, -187500.02, 0.000, 0.000, 0.000, 14:37:53.448
94, 61667.81, -187500.02, -187500.02, -187500.02, -187500.02, -187500.02, -187500.02, -187500.02, 0.000, 0.000, 0.000, 14:37:53.448
95, 62309.15, -187500.02, -187500.02, -187500.02, -187500.02, -187500.02, -187500.02, -187500.02, 0.000, 0.000, 0.000, 14:37:53.448
96, 62245.80, -187500.02, -187500.02, -187500.02, -187500.02, -187500.02, -187500.02, -187500.02, 0.000, 0.000, 0.000, 14:37:53.449
97, 61766.50, -187500.02, -187500.02, -187500.02, -187500.02, -187500.02, -187500.02, -187500.02, 0.000, 0.000, 0.000, 14:37:53.449
98, 61601.92, -187500.02, -187500.02, -187500.02, -187500.02, -187500.02, -187500.02, -187500.02, 0.000, 0.000, 0.000, 14:37:53.450
99, 62258.75, -187500.02, -187500.02, -187500.02, -187500.02, -187500.02, -187500.02, -187500.02, 0.000, 0.000, 0.000, 14:37:53.450
100, 62286.66, -187500.02, -187500.02, -187500.02, -187500.02, -187500.02, -187500.02, -187500.02, -0.946, 0.168, -0.306, 14:37:53.451
101, 61812.96, -187500.02, -187500.02, -187500.02, -187500.02, -187500.02, -187500.02, -187500.02, 0.000, 0.000, 0.000, 14:37:53.451
102, 61532.03, -187500.02, -187500.02, -187500.02, -187500.02, -187500.02, -187500.02, -187500.02, 0.000, 0.000, 0.000, 14:37:53.452
103, 62120.37, -187500.02, -187500.02, -187500.02, -187500.02, -187500.02, -187500.02, -187500.02, 0.000, 0.000, 0.000, 14:37:53.452
104, 62330.07, -187500.02, -187500.02, -187500.02, -187500.02, -187500.02, -187500.02, -187500.02, 0.000, 0.000, 0.000, 14:37:53.453
105, 61922.40, -187500.02, -187500.02, -187500.02, -187500.02, -187500.02, -187500.02, -187500.02, 0.000, 0.000, 0.000, 14:37:53.453
106, 61521.36, -187500.02, -187500.02, -187500.02, -187500.02, -187500.02, -187500.02, -187500.02, 0.000, 0.000, 0.000, 14:37:53.454
107, 62002.53, -187500.02, -187500.02, -187500.02, -187500.02, -187500.02, -187500.02, -187500.02, 0.000, 0.000, 0.000, 14:37:53.454
108, 62388.97, -187500.02, -187500.02, -187500.02, -187500.02, -187500.02, -187500.02, -187500.02, 0.000, 0.000, 0.000, 14:37:53.454
109, 62048.98, -187500.02, -187500.02, -187500.02, -187500.02, -187500.02, -187500.02, -187500.02, 0.000, 0.000, 0.000, 14:37:53.455
110, 61589.07, -187500.02, -187500.02, -187500.02, -187500.02, -187500.02, -187500.02, -187500.02, -0.950, 0.162, -0.316, 14:37:53.455
111, 61904.07, -187500.02, -187500.02, -187500.02, -187500.02, -187500.02, -187500.02, -187500.02, 0.000, 0.000, 0.000, 14:37:53.455
112, 62389.44, -187500.02, -187500.02, -187500.02, -187500.02, -187500.02, -187500.02, -187500.02, 0.000, 0.000, 0.000, 14:37:53.456
113, 62064.62, -187500.02, -187500.02, -187500.02, -187500.02, -187500.02, -187500.02, -187500.02, 0.000, 0.000, 0.000, 14:37:53.456
114, 61603.37, -187500.02, -187500.02, -187500.02, -187500.02, -187500.02, -187500.02, -187500.02, 0.000, 0.000, 0.000, 14:37:53.456
115, 61806.39, -187500.02, -187500.02, -187500.02, -187500.02, -187500.02, -187500.02, -187500.02, 0.000, 0.000, 0.000, 14:37:53.457
116, 62388.88, -187500.02, -187500.02, -187500.02, -187500.02, -187500.02, -187500.02, -187500.02, 0.000, 0.000, 0.000, 14:37:53.457
117, 62193.46, -187500.02, -187500.02, -187500.02, -187500.02, -187500.02, -187500.02, -187500.02, 0.000, 0.000, 0.000, 14:37:53.457
118, 61673.33, -187500.02, -187500.02, -187500.02, -187500.02, -187500.02, -187500.02, -187500.02, 0.000, 0.000, 0.000, 14:37:53.458
119, 61625.70, -187500.02, -187500.02, -187500.02, -187500.02, -187500.02, -187500.02, -187500.02, 0.000, 0.000, 0.000, 14:37:53.458
120, 62280.41, -187500.02, -187500.02, -187500.02, -187500.02, -187500.02, -187500.02, -187500.02, -0.954, 0.164, -0.318, 14:37:53.458
121, 62270.24, -187500.02, -187500.02, -187500.02, -187500.02, -187500.02, -187500.02, -187500.02, 0.000, 0.000, 0.000, 14:37:53.459
122, 61788.27, -187500.02, -187500.02, -187500.02, -187500.02, -187500.02, -187500.02, -187500.02, 0.000, 0.000, 0.000, 14:37:53.459
123, 61595.82, -187500.02, -187500.02, -187500.02, -187500.02, -187500.02, -187500.02, -187500.02, 0.000, 0.000, 0.000, 14:37:53.459
124, 62238.12, -187500.02, -187500.02, -187500.02, -187500.02, -187500.02, -187500.02, -187500.02, 0.000, 0.000, 0.000, 14:37:53.460
125, 62292.59, -187500.02, -187500.02, -187500.02, -187500.02, -187500.02, -187500.02, -187500.02, 0.000, 0.000, 0.000, 14:37:53.460
126, 61826.53, -187500.02, -187500.02, -187500.02, -187500.02, -187500.02, -187500.02, -187500.02, 0.000, 0.000, 0.000, 14:37:53.460
127, 61498.74, -187500.02, -187500.02, -187500.02, -187500.02, -187500.02, -187500.02, -187500.02, 0.000, 0.000, 0.000, 14:37:53.461
128, 62108.23, -187500.02, -187500.02, -187500.02, -187500.02, -187500.02, -187500.02, -187500.02, 0.000, 0.000, 0.000, 14:37:53.461
129, 62367.91, -187500.02, -187500.02, -187500.02, -187500.02, -187500.02, -187500.02, -187500.02, 0.000, 0.000, 0.000, 14:37:53.461
130, 61945.76, -187500.02, -187500.02, -187500.02, -187500.02, -187500.02, -187500.02, -187500.02, -0.948, 0.164, -0.316, 14:37:53.462
131, 61512.40, -187500.02, -187500.02, -187500.02, -187500.02, -187500.02, -187500.02, -187500.02, 0.000, 0.000, 0.000, 14:37:53.462
132, 61994.71, -187500.02, -187500.02, -187500.02, -187500.02, -187500.02, -187500.02, -187500.02, 0.000, 0.000, 0.000, 14:37:53.462
133, 62375.91, -187500.02, -187500.02, -187500.02, -187500.02, -187500.02, -187500.02, -187500.02, 0.000, 0.000, 0.000, 14:37:53.463
134, 62015.49, -187500.02, -187500.02, -187500.02, -187500.02, -187500.02, -187500.02, -187500.02, 0.000, 0.000, 0.000, 14:37:53.463
135, 61577.85, -187500.02, -187500.02, -187500.02, -187500.02, -187500.02, -187500.02, -187500.02, 0.000, 0.000, 0.000, 14:37:53.463
136, 61903.71, -187500.02, -187500.02, -187500.02, -187500.02, -187500.02, -187500.02, -187500.02, 0.000, 0.000, 0.000, 14:37:53.464
137, 62404.88, -187500.02, -187500.02, -187500.02, -187500.02, -187500.02, -187500.02, -187500.02, 0.000, 0.000, 0.000, 14:37:53.464
138, 62116.37, -187500.02, -187500.02, -187500.02, -187500.02, -187500.02, -187500.02, -187500.02, 0.000, 0.000, 0.000, 14:37:53.464
139, 61639.98, -187500.02, -187500.02, -187500.02, -187500.02, -187500.02, -187500.02, -187500.02, 0.000, 0.000, 0.000, 14:37:53.464
140, 61757.11, -187500.02, -187500.02, -187500.02, -187500.02, -187500.02, -187500.02, -187500.02, -0.950, 0.160, -0.314, 14:37:53.465
141, 62367.96, -187500.02, -187500.02, -187500.02, -187500.02, -187500.02, -187500.02, -187500.02, 0.000, 0.000, 0.000, 14:37:53.465
142, 62192.83, -187500.02, -187500.02, -187500.02, -187500.02, -187500.02, -187500.02, -187500.02, 0.000, 0.000, 0.000, 14:37:53.465
143, 61694.95, -187500.02, -187500.02, -187500.02, -187500.02, -187500.02, -187500.02, -187500.02, 0.000, 0.000, 0.000, 14:37:53.466
144, 61637.21, -187500.02, -187500.02, -187500.02, -187500.02, -187500.02, -187500.02, -187500.02, 0.000, 0.000, 0.000, 14:37:53.466
145, 62275.36, -187500.02, -187500.02, -187500.02, -187500.02, -187500.02, -187500.02, -187500.02, 0.000, 0.000, 0.000, 14:37:53.466
146, 62255.46, -187500.02, -187500.02, -187500.02, -187500.02, -187500.02, -187500.02, -187500.02, 0.000, 0.000, 0.000, 14:37:53.467
147, 61799.35, -187500.02, -187500.02, -187500.02, -187500.02, -187500.02, -187500.02, -187500.02, 0.000, 0.000, 0.000, 14:37:53.467
148, 61578.11, -187500.02, -187500.02, -187500.02, -187500.02, -187500.02, -187500.02, -187500.02, 0.000, 0.000, 0.000, 14:37:53.467
149, 62202.29, -187500.02, -187500.02, -187500.02, -187500.02, -187500.02, -187500.02, -187500.02, 0.000, 0.000, 0.000, 14:37:53.468
150, 62311.05, -187500.02, -187500.02, -187500.02, -187500.02, -187500.02, -187500.02, -187500.02, -0.952, 0.164, -0.314, 14:37:53.468
151, 61848.71, -187500.02, -187500.02, -187500.02, -187500.02, -187500.02, -187500.02, -187500.02, 0.000, 0.000, 0.000, 14:37:53.468
152, 61508.60, -187500.02, -187500.02, -187500.02, -187500.02, -187500.02, -187500.02, -187500.02, 0.000, 0.000, 0.000, 14:37:53.469
153, 62073.12, -187500.02, -187500.02, -187500.02, -187500.02, -187500.02, -187500.02, -187500.02, 0.000, 0.000, 0.000, 14:37:53.469
154, 62342.30, -187500.02, -187500.02, -187500.02, -187500.02, -187500.02, -187500.02, -187500.02, 0.000, 0.000, 0.000, 14:37:53.470
155, 61926.27, -187500.02, -187500.02, -187500.02, -187500.02, -187500.02, -187500.02, -187500.02, 0.000, 0.000, 0.000, 14:37:53.470
156, 61511.02, -187500.02, -187500.02, -187500.02, -187500.02, -187500.02, -187500.02, -187500.02, 0.000, 0.000, 0.000, 14:37:53.471
157, 61928.88, -187500.02, -187500.02, -187500.02, -187500.02, -187500.02, -187500.02, -187500.02, 0.000, 0.000, 0.000, 14:37:53.471
158, 62362.06, -187500.02, -187500.02, -187500.02, -187500.02, -187500.02, -187500.02, -187500.02, 0.000, 0.000, 0.000, 14:37:53.471
159, 62069.92, -187500.02, -187500.02, -187500.02, -187500.02, -187500.02, -187500.02, -187500.02, 0.000, 0.000, 0.000, 14:37:53.472
160, 61580.02, -187500.02, -187500.02, -187500.02, -187500.02, -187500.02, -187500.02, -187500.02, -0.952, 0.168, -0.318, 14:37:53.472
161, 61827.58, -187500.02, -187500.02, -187500.02, -187500.02, -187500.02, -187500.02, -187500.02, 0.000, 0.000, 0.000, 14:37:53.472
162, 62364.14, -187500.02, -187500.02, -187500.02, -187500.02, -187500.02, -187500.02, -187500.02, 0.000, 0.000, 0.000, 14:37:53.473
163, 62130.98, -187500.02, -187500.02, -187500.02, -187500.02, -187500.02, -187500.02, -187500.02, 0.000, 0.000, 0.000, 14:37:53.473
164, 61624.65, -187500.02, -187500.02, -187500.02, -187500.02, -187500.02, -187500.02, -187500.02, 0.000, 0.000, 0.000, 14:37:53.473
165, 61675.55, -187500.02, -187500.02, -187500.02, -187500.02, -187500.02, -187500.02, -187500.02, 0.000, 0.000, 0.000, 14:37:53.473
166, 62303.23, -187500.02, -187500.02, -187500.02, -187500.02, -187500.02, -187500.02, -187500.02, 0.000, 0.000, 0.000, 14:37:53.474
167, 62196.43, -187500.02, -187500.02, -187500.02, -187500.02, -187500.02, -187500.02, -187500.02, 0.000, 0.000, 0.000, 14:37:53.474
168, 61736.88, -187500.02, -187500.02, -187500.02, -187500.02, -187500.02, -187500.02, -187500.02, 0.000, 0.000, 0.000, 14:37:53.474
169, 61633.46, -187500.02, -187500.02, -187500.02, -187500.02, -187500.02, -187500.02, -187500.02, 0.000, 0.000, 0.000, 14:37:53.475
170, 62282.51, -187500.02, -187500.02, -187500.02, -187500.02, -187500.02, -187500.02, -187500.02, -0.954, 0.168, -0.318, 14:37:53.475
171, 62315.30, -187500.02, -187500.02, -187500.02, -187500.02, -187500.02, -187500.02, -187500.02, 0.000, 0.000, 0.000, 14:37:53.475
172, 61845.49, -187500.02, -187500.02, -187500.02, -187500.02, -187500.02, -187500.02, -187500.02, 0.000, 0.000, 0.000, 14:37:53.476
173, 61561.66, -187500.02, -187500.02, -187500.02, -187500.02, -187500.02, -187500.02, -187500.02, 0.000, 0.000, 0.000, 14:37:53.476
174, 62168.87, -187500.02, -187500.02, -187500.02, -187500.02, -187500.02, -187500.02, -187500.02, 0.000, 0.000, 0.000, 14:37:53.476
175, 62333.09, -187500.02, -187500.02, -187500.02, -187500.02, -187500.02, -187500.02, -187500.02, 0.000, 0.000, 0.000, 14:37:53.476
176, 61925.57, -187500.02, -187500.02, -187500.02, -187500.02, -187500.02, -187500.02, -187500.02, 0.000, 0.000, 0.000, 14:37:53.476
177, 61529.61, -187500.02, -187500.02, -187500.02, -187500.02, -187500.02, -187500.02, -187500.02, 0.000, 0.000, 0.000, 14:37:53.476
178, 62042.81, -187500.02, -187500.02, -187500.02, -187500.02, -187500.02, -187500.02, -187500.02, 0.000, 0.000, 0.000, 14:37:53.476
179, 62353.99, -187500.02, -187500.02, -187500.02, -187500.02, -187500.02, -187500.02, -187500.02, 0.000, 0.000, 0.000, 14:37:53.476
180, 61988.79, -187500.02, -187500.02, -187500.02, -187500.02, -187500.02, -187500.02, -187500.02, -0.948, 0.172, -0.314, 14:37:53.477
181, 61530.82, -187500.02, -187500.02, -187500.02, -187500.02, -187500.02, -187500.02, -187500.02, 0.000, 0.000, 0.000, 14:37:53.477
182, 61894.97, -187500.02, -187500.02, -187500.02, -187500.02, -187500.02, -187500.02, -187500.02, 0.000, 0.000, 0.000, 14:37:53.477
183, 62375.54, -187500.02, -187500.02, -187500.02, -187500.02, -187500.02, -187500.02, -187500.02, 0.000, 0.000, 0.000, 14:37:53.477
184, 62093.81, -187500.02, -187500.02, -187500.02, -187500.02, -187500.02, -187500.02, -187500.02, 0.000, 0.000, 0.000, 14:37:53.477
185, 61576.57, -187500.02, -187500.02, -187500.02, -187500.02, -187500.02, -187500.02, -187500.02, 0.000, 0.000, 0.000, 14:37:53.477
186, 61754.67, -187500.02, -187500.02, -187500.02, -187500.02, -187500.02, -187500.02, -187500.02, 0.000, 0.000, 0.000, 14:37:53.477
187, 62368.50, -187500.02, -187500.02, -187500.02, -187500.02, -187500.02, -187500.02, -187500.02, 0.000, 0.000, 0.000, 14:37:53.478
188, 62151.88, -187500.02, -187500.02, -187500.02, -187500.02, -187500.02, -187500.02, -187500.02, 0.000, 0.000, 0.000, 14:37:53.478
189, 61661.93, -187500.02, -187500.02, -187500.02, -187500.02, -187500.02, -187500.02, -187500.02, 0.000, 0.000, 0.000, 14:37:53.478
190, 61664.93, -187500.02, -187500.02, -187500.02, -187500.02, -187500.02, -187500.02, -187500.02, -0.952, 0.168, -0.310, 14:37:53.478
191, 62336.96, -187500.02, -187500.02, -187500.02, -187500.02, -187500.02, -187500.02, -187500.02, 0.000, 0.000, 0.000, 14:37:53.478
192, 62254.88, -187500.02, -187500.02, -187500.02, -187500.02, -187500.02, -187500.02, -187500.02, 0.000, 0.000, 0.000, 14:37:53.478
193, 61767.37, -187500.02, -187500.02, -187500.02, -187500.02, -187500.02, -187500.02, -187500.02, 0.000, 0.000, 0.000, 14:37:53.479
194, 61605.34, -187500.02, -187500.02, -187500.02, -187500.02, -187500.02, -187500.02, -187500.02, 0.000, 0.000, 0.000, 14:37:53.479
195, 62265.66, -187500.02, -187500.02, -187500.02, -187500.02, -187500.02, -187500.02, -187500.02, 0.000, 0.000, 0.000, 14:37:53.479
196, 62309.69, -187500.02, -187500.02, -187500.02, -187500.02, -187500.02, -187500.02, -187500.02, 0.000, 0.000, 0.000, 14:37:53.479
197, 61873.63, -187500.02, -187500.02, -187500.02, -187500.02, -187500.02, -187500.02, -187500.02, 0.000, 0.000, 0.000, 14:37:53.479
198, 61585.47, -187500.02, -187500.02, -187500.02, -187500.02, -187500.02, -187500.02, -187500.02, 0.000, 0.000, 0.000, 14:37:53.479
199, 62157.81, -187500.02, -187500.02, -187500.02, -187500.02, -187500.02, -187500.02, -187500.02, 0.000, 0.000, 0.000, 14:37:53.479
200, 62339.50, -187500.02, -187500.02, -187500.02, -187500.02, -187500.02, -187500.02, -187500.02, -0.954, 0.168, -0.312, 14:37:53.479
201, 61918.40, -187500.02, -187500.02, -187500.02, -187500.02, -187500.02, -187500.02, -187500.02, 0.000, 0.000, 0.000, 14:37:53.479
202, 61547.52, -187500.02, -187500.02, -187500.02, -187500.02, -187500.02, -187500.02, -187500.02, 0.000, 0.000, 0.000, 14:37:53.480
203, 62031.68, -187500.02, -187500.02, -187500.02, -187500.02, -187500.02, -187500.02, -187500.02, 0.000, 0.000, 0.000, 14:37:53.480
204, 62396.59, -187500.02, -187500.02, -187500.02, -187500.02, -187500.02, -187500.02, -187500.02, 0.000, 0.000, 0.000, 14:37:53.480
205, 61996.45, -187500.02, -187500.02, -187500.02, -187500.02, -187500.02, -187500.02, -187500.02, 0.000, 0.000, 0.000, 14:37:53.480
206, 61538.51, -187500.02, -187500.02, -187500.02, -187500.02, -187500.02, -187500.02, -187500.02, 0.000, 0.000, 0.000, 14:37:53.480
207, 61903.07, -187500.02, -187500.02, -187500.02, -187500.02, -187500.02, -187500.02, -187500.02, 0.000, 0.000, 0.000, 14:37:53.480
208, 62380.99, -187500.02, -187500.02, -187500.02, -187500.02, -187500.02, -187500.02, -187500.02, 0.000, 0.000, 0.000, 14:37:53.480
209, 62088.34, -187500.02, -187500.02, -187500.02, -187500.02, -187500.02, -187500.02, -187500.02, 0.000, 0.000, 0.000, 14:37:53.480
210, 61608.09, -187500.02, -187500.02, -187500.02, -187500.02, -187500.02, -187500.02, -187500.02, -0.950, 0.168, -0.310, 14:37:53.923
211, 61753.15, -187500.02, -187500.02, -187500.02, -187500.02, -187500.02, -187500.02, -187500.02, 0.000, 0.000, 0.000, 14:37:53.924
212, 62359.31, -187500.02, -187500.02, -187500.02, -187500.02, -187500.02, -187500.02, -187500.02, 0.000, 0.000, 0.000, 14:37:53.924
213, 62172.92, -187500.02, -187500.02, -187500.02, -187500.02, -187500.02, -187500.02, -187500.02, 0.000, 0.000, 0.000, 14:37:53.924
214, 61672.21, -187500.02, -187500.02, -187500.02, -187500.02, -187500.02, -187500.02, -187500.02, 0.000, 0.000, 0.000, 14:37:53.924
215, 61631.40, -187500.02, -187500.02, -187500.02, -187500.02, -187500.02, -187500.02, -187500.02, 0.000, 0.000, 0.000, 14:37:53.924
216, 62306.36, -187500.02, -187500.02, -187500.02, -187500.02, -187500.02, -187500.02, -187500.02, 0.000, 0.000, 0.000, 14:37:53.924
217, 62242.88, -187500.02, -187500.02, -187500.02, -187500.02, -187500.02, -187500.02, -187500.02, 0.000, 0.000, 0.000, 14:37:53.924
218, 61732.61, -187500.02, -187500.02, -187500.02, -187500.02, -187500.02, -187500.02, -187500.02, 0.000, 0.000, 0.000, 14:37:53.925
219, 61551.89, -187500.02, -187500.02, -187500.02, -187500.02, -187500.02, -187500.02, -187500.02, 0.000, 0.000, 0.000, 14:37:53.925
220, 62227.68, -187500.02, -187500.02, -187500.02, -187500.02, -187500.02, -187500.02, -187500.02, -0.950, 0.164, -0.318, 14:37:53.925
221, 62356.54, -187500.02, -187500.02, -187500.02, -187500.02, -187500.02, -187500.02, -187500.02, 0.000, 0.000, 0.000, 14:37:53.925
222, 61920.61, -187500.02, -187500.02, -187500.02, -187500.02, -187500.02, -187500.02, -187500.02, 0.000, 0.000, 0.000, 14:37:53.925
223, 61588.02, -187500.02, -187500.02, -187500.02, -187500.02, -187500.02, -187500.02, -187500.02, 0.000, 0.000, 0.000, 14:37:53.926
224, 62159.42, -187500.02, -187500.02, -187500.02, -187500.02, -187500.02, -187500.02, -187500.02, 0.000, 0.000, 0.000, 14:37:53.926
225, 62399.45, -187500.02, -187500.02, -187500.02, -187500.02, -187500.02, -187500.02, -187500.02, 0.000, 0.000, 0.000, 14:37:53.927
226, 61972.24, -187500.02, -187500.02, -187500.02, -187500.02, -187500.02, -187500.02, -187500.02, 0.000, 0.000, 0.000, 14:37:53.927
227, 61542.69, -187500.02, -187500.02, -187500.02, -187500.02, -187500.02, -187500.02, -187500.02, 0.000, 0.000, 0.000, 14:37:53.927
228, 61991.60, -187500.02, -187500.02, -187500.02, -187500.02, -187500.02, -187500.02, -187500.02, 0.000, 0.000, 0.000, 14:37:53.928
229, 62365.10, -187500.02, -187500.02, -187500.02, -187500.02, -187500.02, -187500.02, -187500.02, -0.946, 0.168, -0.314, 14:37:53.928
230, 62018.18, -187500.02, -187500.02, -187500.02, -187500.02, -187500.02, -187500.02, -187500.02, 0.000, 0.000, 0.000, 14:37:53.928
231, 61577.31, -187500.02, -187500.02, -187500.02, -187500.02, -187500.02, -187500.02, -187500.02, 0.000, 0.000, 0.000, 14:37:53.929
232, 61886.03, -187500.02, -187500.02, -187500.02, -187500.02, -187500.02, -187500.02, -187500.02, 0.000, 0.000, 0.000, 14:37:53.929
233, 62394.36, -187500.02, -187500.02, -187500.02, -187500.02, -187500.02, -187500.02, -187500.02, 0.000, 0.000, 0.000, 14:37:53.929
234, 62144.69, -187500.02, -187500.02, -187500.02, -187500.02, -187500.02, -187500.02, -187500.02, 0.000, 0.000, 0.000, 14:37:53.930
235, 61626.24, -187500.02, -187500.02, -187500.02, -187500.02, -187500.02, -187500.02, -187500.02, 0.000, 0.000, 0.000, 14:37:53.930
236, 61702.08, -187500.02, -187500.02, -187500.02, -187500.02, -187500.02, -187500.02, -187500.02, 0.000, 0.000, 0.000, 14:37:53.930
237, 62321.11, -187500.02, -187500.02, -187500.02, -187500.02, -187500.02, -187500.02, -187500.02, 0.000, 0.000, 0.000, 14:37:53.931
238, 62176.32, -187500.02, -187500.02, -187500.02, -187500.02, -187500.02, -187500.02, -187500.02, 0.000, 0.000, 0.000, 14:37:53.931
239, 61707.69, -187500.02, -187500.02, -187500.02, -187500.02, -187500.02, -187500.02, -187500.02, -0.950, 0.170, -0.312, 14:37:53.931
240, 61654.36, -187500.02, -187500.02, -187500.02, -187500.02, -187500.02, -187500.02, -187500.02, 0.000, 0.000, 0.000, 14:37:53.932
241, 62306.45, -187500.02, -187500.02, -187500.02, -187500.02, -187500.02, -187500.02, -187500.02, 0.000, 0.000, 0.000, 14:37:53.932
242, 62239.08, -187500.02, -187500.02, -187500.02, -187500.02, -187500.02, -187500.02, -187500.02, 0.000, 0.000, 0.000, 14:37:53.932
243, 61778.79, -187500.02, -187500.02, -187500.02, -187500.02, -187500.02, -187500.02, -187500.02, 0.000, 0.000, 0.000, 14:37:53.932
244, 61552.97, -187500.02, -187500.02, -187500.02, -187500.02, -187500.02, -187500.02, -187500.02, 0.000, 0.000, 0.000, 14:37:53.933
245, 62192.36, -187500.02, -187500.02, -187500.02, -187500.02, -187500.02, -187500.02, -187500.02, 0.000, 0.000, 0.000, 14:37:53.933
246, 62337.98, -187500.02, -187500.02, -187500.02, -187500.02, -187500.02, -187500.02, -187500.02, 0.000, 0.000, 0.000, 14:37:53.933
247, 61893.39, -187500.02, -187500.02, -187500.02, -187500.02, -187500.02, -187500.02, -187500.02, 0.000, 0.000, 0.000, 14:37:53.934
248, 61581.58, -187500.02, -187500.02, -187500.02, -187500.02, -187500.02, -187500.02, -187500.02, 0.000, 0.000, 0.000, 14:37:53.934
249, 62120.05, -187500.02, -187500.02, -187500.02, -187500.02, -187500.02, -187500.02, -187500.02, -0.954, 0.166, -0.316, 14:37:53.934
250, 62363.31, -187500.02, -187500.02, -187500.02, -187500.02, -187500.02, -187500.02, -187500.02, 0.000, 0.000, 0.000, 14:37:53.935
251, 61985.74, -187500.02, -187500.02, -187500.02, -187500.02, -187500.02, -187500.02, -187500.02, 0.000, 0.000, 0.000, 14:37:53.935
252, 61548.84, -187500.02, -187500.02, -187500.02, -187500.02, -187500.02, -187500.02, -187500.02, 0.000, 0.000, 0.000, 14:37:53.935
253, 61943.14, -187500.02, -187500.02, -187500.02, -187500.02, -187500.02, -187500.02, -187500.02, 0.000, 0.000, 0.000, 14:37:53.936
254, 62379.63, -187500.02, -187500.02, -187500.02, -187500.02, -187500.02, -187500.02, -187500.02, 0.000, 0.000, 0.000, 14:37:53.936
255, 62052.48, -187500.02, -187500.02, -187500.02, -187500.02, -187500.02, -187500.02, -187500.02, 0.000, 0.000, 0.000, 14:37:53.936
0, 61577.46, -187500.02, -187500.02, -187500.02, -187500.02, -187500.02, -187500.02, -187500.02, 0.000, 0.000, 0.000, 14:37:53.937
1, 61838.94, -187500.02, -187500.02, -187500.02, -187500.02, -187500.02, -187500.02, -187500.02, 0.000, 0.000, 0.000, 14:37:53.937
2, 62364.02, -187500.02, -187500.02, -187500.02, -187500.02, -187500.02, -187500.02, -187500.02, 0.000, 0.000, 0.000, 14:37:53.937
3, 62131.59, -187500.02, -187500.02, -187500.02, -187500.02, -187500.02, -187500.02, -187500.02, -0.956, 0.170, -0.314, 14:37:53.937
4, 61642.55, -187500.02, -187500.02, -187500.02, -187500.02, -187500.02, -187500.02, -187500.02, 0.000, 0.000, 0.000, 14:37:53.938
5, 61703.78, -187500.02, -187500.02, -187500.02, -187500.02, -187500.02, -187500.02, -187500.02, 0.000, 0.000, 0.000, 14:37:53.938
6, 62331.84, -187500.02, -187500.02, -187500.02, -187500.02, -187500.02, -187500.02, -187500.02, 0.000, 0.000, 0.000, 14:37:53.938
7, 62203.16, -187500.02, -187500.02, -187500.02, -187500.02, -187500.02, -187500.02, -187500.02, 0.000, 0.000, 0.000, 14:37:53.939
8, 61714.17, -187500.02, -187500.02, -187500.02, -187500.02, -187500.02, -187500.02, -187500.02, 0.000, 0.000, 0.000, 14:37:53.939
9, 61605.16, -187500.02, -187500.02, -187500.02, -187500.02, -187500.02, -187500.02, -187500.02, 0.000, 0.000, 0.000, 14:37:53.939
10, 62267.29, -187500.02, -187500.02, -187500.02, -187500.02, -187500.02, -187500.02, -187500.02, 0.000, 0.000, 0.000, 14:37:53.940
11, 62261.92, -187500.02, -187500.02, -187500.02, -187500.02, -187500.02, -187500.02, -187500.02, 0.000, 0.000, 0.000, 14:37:53.940
12, 61783.89, -187500.02, -187500.02, -187500.02, -187500.02, -187500.02, -187500.02, -187500.02, 0.000, 0.000, 0.000, 14:37:53.940
13, 61532.85, -187500.02, -187500.02, -187500.02, -187500.02, -187500.02, -187500.02, -187500.02, -0.954, 0.172, -0.312, 14:37:53.941
14, 62143.19, -187500.02, -187500.02, -187500.02, -187500.02, -187500.02, -187500.02, -187500.02, 0.000, 0.000, 0.000, 14:37:53.941
15, 62283.54, -187500.02, -187500.02, -187500.02, -187500.02, -187500.02, -187500.02, -187500.02, 0.000, 0.000, 0.000, 14:37:53.941
16, 61872.73, -187500.02, -187500.02, -187500.02, -187500.02, -187500.02, -187500.02, -187500.02, 0.000, 0.000, 0.000, 14:37:53.942
17, 61533.81, -187500.02, -187500.02, -187500.02, -187500.02, -187500.02, -187500.02, -187500.02, 0.000, 0.000, 0.000, 14:37:53.942
18, 62068.54, -187500.02, -187500.02, -187500.02, -187500.02, -187500.02, -187500.02, -187500.02, 0.000, 0.000, 0.000, 14:37:53.942
19, 62382.55, -187500.02, -187500.02, -187500.02, -187500.02, -187500.02, -187500.02, -187500.02, 0.000, 0.000, 0.000, 14:37:53.942
20, 62003.54, -187500.02, -187500.02, -187500.02, -187500.02, -187500.02, -187500.02, -187500.02, 0.000, 0.000, 0.000, 14:37:53.943
21, 61544.12, -187500.02, -187500.02, -187500.02, -187500.02, -187500.02, -187500.02, -187500.02, 0.000, 0.000, 0.000, 14:37:53.943
22, 61911.89, -187500.02, -187500.02, -187500.02, -187500.02, -187500.02, -187500.02, -187500.02, 0.000, 0.000, 0.000, 14:37:53.943
23, 62348.65, -187500.02, -187500.02, -187500.02, -187500.02, -187500.02, -187500.02, -187500.02, -0.952, 0.168, -0.312, 14:37:53.944
24, 62061.85, -187500.02, -187500.02, -187500.02, -187500.02, -187500.02, -187500.02, -187500.02, 0.000, 0.000, 0.000, 14:37:53.944
25, 61590.77, -187500.02, -187500.02, -187500.02, -187500.02, -187500.02, -187500.02, -187500.02, 0.000, 0.000, 0.000, 14:37:53.945
26, 61801.95, -187500.02, -187500.02, -187500.02, -187500.02, -187500.02, -187500.02, -187500.02, 0.000, 0.000, 0.000, 14:37:53.945
27, 62341.02, -187500.02, -187500.02, -187500.02, -187500.02, -187500.02, -187500.02, -187500.02, 0.000, 0.000, 0.000, 14:37:53.945
28, 62099.69, -187500.02, -187500.02, -187500.02, -187500.02, -187500.02, -187500.02, -187500.02, 0.000, 0.000, 0.000, 14:37:53.946
29, 61647.67, -187500.02, -187500.02, -187500.02, -187500.02, -187500.02, -187500.02, -187500.02, 0.000, 0.000, 0.000, 14:37:53.946
30, 61695.15, -187500.02, -187500.02, -187500.02, -187500.02, -187500.02, -187500.02, -187500.02, 0.000, 0.000, 0.000, 14:37:53.946
31, 62323.28, -187500.02, -187500.02, -187500.02, -187500.02, -187500.02, -187500.02, -187500.02, 0.000, 0.000, 0.000, 14:37:53.947
32, 62193.35, -187500.02, -187500.02, -187500.02, -187500.02, -187500.02, -187500.02, -187500.02, 0.000, 0.000, 0.000, 14:37:53.947
33, 61724.36, -187500.02, -187500.02, -187500.02, -187500.02, -187500.02, -187500.02, -187500.02, -0.952, 0.168, -0.312, 14:37:53.947
34, 61604.20, -187500.02, -187500.02, -187500.02, -187500.02, -187500.02, -187500.02, -187500.02, 0.000, 0.000, 0.000, 14:37:53.948
35, 62244.24, -187500.02, -187500.02, -187500.02, -187500.02, -187500.02, -187500.02, -187500.02, 0.000, 0.000, 0.000, 14:37:53.948
36, 62260.11, -187500.02, -187500.02, -187500.02, -187500.02, -187500.02, -187500.02, -187500.02, 0.000, 0.000, 0.000, 14:37:53.948
37, 61816.63, -187500.02, -187500.02, -187500.02, -187500.02, -187500.02, -187500.02, -187500.02, 0.000, 0.000, 0.000, 14:37:53.948
38, 61514.32, -187500.02, -187500.02, -187500.02, -187500.02, -187500.02, -187500.02, -187500.02, 0.000, 0.000, 0.000, 14:37:53.949
39, 62127.50, -187500.02, -187500.02, -187500.02, -187500.02, -187500.02, -187500.02, -187500.02, 0.000, 0.000, 0.000, 14:37:53.949
40, 62342.66, -187500.02, -187500.02, -187500.02, -187500.02, -187500.02, -187500.02, -187500.02, 0.000, 0.000, 0.000, 14:37:53.949
41, 61949.07, -187500.02, -187500.02, -187500.02, -187500.02, -187500.02, -187500.02, -187500.02, 0.000, 0.000, 0.000, 14:37:53.951
42, 61545.14, -187500.02, -187500.02, -187500.02, -187500.02, -187500.02, -187500.02, -187500.02, 0.000, 0.000, 0.000, 14:37:53.951
43, 62015.52, -187500.02, -187500.02, -187500.02, -187500.02, -187500.02, -187500.02, -187500.02, -0.952, 0.164, -0.314, 14:37:53.951
44, 62343.17, -187500.02, -187500.02, -187500.02, -187500.02, -187500.02, -187500.02, -187500.02, 0.000, 0.000, 0.000, 14:37:53.951
45, 61980.80, -187500.02, -187500.02, -187500.02, -187500.02, -187500.02, -187500.02, -187500.02, 0.000, 0.000, 0.000, 14:37:53.951
46, 61549.91, -187500.02, -187500.02, -187500.02, -187500.02, -187500.02, -187500.02, -187500.02, 0.000, 0.000, 0.000, 14:37:53.951
47, 61889.70, -187500.02, -187500.02, -187500.02, -187500.02, -187500.02, -187500.02, -187500.02, 0.000, 0.000, 0.000, 14:37:53.952
48, 62380.66, -187500.02, -187500.02, -187500.02, -187500.02, -187500.02, -187500.02, -187500.02, 0.000, 0.000, 0.000, 14:37:53.952
49, 62102.84, -187500.02, -187500.02, -187500.02, -187500.02, -187500.02, -187500.02, -187500.02, 0.000, 0.000, 0.000, 14:37:53.952
50, 61612.20, -187500.02, -187500.02, -187500.02, -187500.02, -187500.02, -187500.02, -187500.02, 0.000, 0.000, 0.000, 14:37:53.952
51, 61762.85, -187500.02, -187500.02, -187500.02, -187500.02, -187500.02, -187500.02, -187500.02, 0.000, 0.000, 0.000, 14:37:53.953
52, 62353.23, -187500.02, -187500.02, -187500.02, -187500.02, -187500.02, -187500.02, -187500.02, 0.000, 0.000, 0.000, 14:37:53.953
53, 62149.02, -187500.02, -187500.02, -187500.02, -187500.02, -187500.02, -187500.02, -187500.02, -0.950, 0.170, -0.314, 14:37:53.954
54, 61681.18, -187500.02, -187500.02, -187500.02, -187500.02, -187500.02, -187500.02, -187500.02, 0.000, 0.000, 0.000, 14:37:53.954
55, 61648.66, -187500.02, -187500.02, -187500.02, -187500.02, -187500.02, -187500.02, -187500.02, 0.000, 0.000, 0.000, 14:37:53.954
56, 62298.27, -187500.02, -187500.02, -187500.02, -187500.02, -187500.02, -187500.02, -187500.02, 0.000, 0.000, 0.000, 14:37:53.956
57, 62270.46, -187500.02, -187500.02, -187500.02, -187500.02, -187500.02, -187500.02, -187500.02, 0.000, 0.000, 0.000, 14:37:53.956
58, 61795.96, -187500.02, -187500.02, -187500.02, -187500.02, -187500.02, -187500.02, -187500.02, 0.000, 0.000, 0.000, 14:37:53.956
59, 61600.22, -187500.02, -187500.02, -187500.02, -187500.02, -187500.02, -187500.02, -187500.02, 0.000, 0.000, 0.000, 14:37:53.956
60, 62234.30, -187500.02, -187500.02, -187500.02, -187500.02, -187500.02, -187500.02, -187500.02, 0.000, 0.000, 0.000, 14:37:53.957
61, 62287.70, -187500.02, -187500.02, -187500.02, -187500.02, -187500.02, -187500.02, -187500.02, 0.000, 0.000, 0.000, 14:37:53.957
62, 61817.59, -187500.02, -187500.02, -187500.02, -187500.02, -187500.02, -187500.02, -187500.02, 0.000, 0.000, 0.000, 14:37:53.957
63, 61551.29, -187500.02, -187500.02, -187500.02, -187500.02, -187500.02, -187500.02, -187500.02, -0.952, 0.166, -0.310, 14:37:53.957
64, 62139.05, -187500.02, -187500.02, -187500.02, -187500.02, -187500.02, -187500.02, -187500.02, 0.000, 0.000, 0.000, 14:37:53.957
65, 62363.11, -187500.02, -187500.02, -187500.02, -187500.02, -187500.02, -187500.02, -187500.02, 0.000, 0.000, 0.000, 14:37:53.957
66, 61932.08, -187500.02, -187500.02, -187500.02, -187500.02, -187500.02, -187500.02, -187500.02, 0.000, 0.000, 0.000, 14:37:53.957
67, 61533.66, -187500.02, -187500.02, -187500.02, -187500.02, -187500.02, -187500.02, -187500.02, 0.000, 0.000, 0.000, 14:37:53.957
68, 62027.34, -187500.02, -187500.02, -187500.02, -187500.02, -187500.02, -187500.02, -187500.02, 0.000, 0.000, 0.000, 14:37:53.958
69, 62408.15, -187500.02, -187500.02, -187500.02, -187500.02, -187500.02, -187500.02, -187500.02, 0.000, 0.000, 0.000, 14:37:53.958
70, 62027.74, -187500.02, -187500.02, -187500.02, -187500.02, -187500.02, -187500.02, -187500.02, 0.000, 0.000, 0.000, 14:37:53.958
71, 61545.50, -187500.02, -187500.02, -187500.02, -187500.02, -187500.02, -187500.02, -187500.02, 0.000, 0.000, 0.000, 14:37:53.958
72, 61837.86, -187500.02, -187500.02, -187500.02, -187500.02, -187500.02, -187500.02, -187500.02, 0.000, 0.000, 0.000, 14:37:53.958
73, 62406.02, -187500.02, -187500.02, -187500.02, -187500.02, -187500.02, -187500.02, -187500.02, -0.948, 0.166, -0.308, 14:37:53.958
74, 62141.00, -187500.02, -187500.02, -187500.02, -187500.02, -187500.02, -187500.02, -187500.02, 0.000, 0.000, 0.000, 14:37:54.405
75, 61619.00, -187500.02, -187500.02, -187500.02, -187500.02, -187500.02, -187500.02, -187500.02, 0.000, 0.000, 0.000, 14:37:54.406
76, 61706.08, -187500.02, -187500.02, -187500.02, -187500.02, -187500.02, -187500.02, -187500.02, 0.000, 0.000, 0.000, 14:37:54.406
77, 62334.32, -187500.02, -187500.02, -187500.02, -187500.02, -187500.02, -187500.02, -187500.02, 0.000, 0.000, 0.000, 14:37:54.406
78, 62218.67, -187500.02, -187500.02, -187500.02, -187500.02, -187500.02, -187500.02, -187500.02, 0.000, 0.000, 0.000, 14:37:54.406
79, 61718.37, -187500.02, -187500.02, -187500.02, -187500.02, -187500.02, -187500.02, -187500.02, 0.000, 0.000, 0.000, 14:37:54.407
80, 61641.39, -187500.02, -187500.02, -187500.02, -187500.02, -187500.02, -187500.02, -187500.02, 0.000, 0.000, 0.000, 14:37:54.407
81, 62293.04, -187500.02, -187500.02, -187500.02, -187500.02, -187500.02, -187500.02, -187500.02, 0.000, 0.000, 0.000, 14:37:54.407
82, 62255.21, -187500.02, -187500.02, -187500.02, -187500.02, -187500.02, -187500.02, -187500.02, 0.000, 0.000, 0.000, 14:37:54.407
83, 61791.30, -187500.02, -187500.02, -187500.02, -187500.02, -187500.02, -187500.02, -187500.02, -0.956, 0.166, -0.312, 14:37:54.408
84, 61564.12, -187500.02, -187500.02, -187500.02, -187500.02, -187500.02, -187500.02, -187500.02, 0.000, 0.000, 0.000, 14:37:54.408
85, 62202.85, -187500.02, -187500.02, -187500.02, -187500.02, -187500.02, -187500.02, -187500.02, 0.000, 0.000, 0.000, 14:37:54.408
86, 62307.14, -187500.02, -187500.02, -187500.02, -187500.02, -187500.02, -187500.02, -187500.02, 0.000, 0.000, 0.000, 14:37:54.408
87, 61872.27, -187500.02, -187500.02, -187500.02, -187500.02, -187500.02, -187500.02, -187500.02, 0.000, 0.000, 0.000, 14:37:54.408
88, 61517.05, -187500.02, -187500.02, -187500.02, -187500.02, -187500.02, -187500.02, -187500.02, 0.000, 0.000, 0.000, 14:37:54.408
89, 62070.66, -187500.02, -187500.02, -187500.02, -187500.02, -187500.02, -187500.02, -187500.02, 0.000, 0.000, 0.000, 14:37:54.409
90, 62344.91, -187500.02, -187500.02, -187500.02, -187500.02, -187500.02, -187500.02, -187500.02, 0.000, 0.000, 0.000, 14:37:54.409
91, 61974.39, -187500.02, -187500.02, -187500.02, -187500.02, -187500.02, -187500.02, -187500.02, 0.000, 0.000, 0.000, 14:37:54.409
92, 61546.67, -187500.02, -187500.02, -187500.02, -187500.02, -187500.02, -187500.02, -187500.02, 0.000, 0.000, 0.000, 14:37:54.409
93, 61979.78, -187500.02, -187500.02, -187500.02, -187500.02, -187500.02, -187500.02, -187500.02, -0.956, 0.166, -0.308, 14:37:54.410
94, 62400.66, -187500.02, -187500.02, -187500.02, -187500.02, -187500.02, -187500.02, -187500.02, 0.000, 0.000, 0.000, 14:37:54.410
95, 62074.17, -187500.02, -187500.02, -187500.02, -187500.02, -187500.02, -187500.02, -187500.02, 0.000, 0.000, 0.000, 14:37:54.410
96, 61597.67, -187500.02, -187500.02, -187500.02, -187500.02, -187500.02, -187500.02, -187500.02, 0.000, 0.000, 0.000, 14:37:54.410
97, 61822.38, -187500.02, -187500.02, -187500.02, -187500.02, -187500.02, -187500.02, -187500.02, 0.000, 0.000, 0.000, 14:37:54.410
98, 62367.27, -187500.02, -187500.02, -187500.02, -187500.02, -187500.02, -187500.02, -187500.02, 0.000, 0.000, 0.000, 14:37:54.411
99, 62137.02, -187500.02, -187500.02, -187500.02, -187500.02, -187500.02, -187500.02, -187500.02, 0.000, 0.000, 0.000, 14:37:54.411
100, 61618.04, -187500.02, -187500.02, -187500.02, -187500.02, -187500.02, -187500.02, -187500.02, 0.000, 0.000, 0.000, 14:37:54.411
101, 61699.51, -187500.02, -187500.02, -187500.02, -187500.02, -187500.02, -187500.02, -187500.02, 0.000, 0.000, 0.000, 14:37:54.411
102, 62346.52, -187500.02, -187500.02, -187500.02, -187500.02, -187500.02, -187500.02, -187500.02, 0.000, 0.000, 0.000, 14:37:54.411
103, 62223.36, -187500.02, -187500.02, -187500.02, -187500.02, -187500.02, -187500.02, -187500.02, -0.956, 0.166, -0.312, 14:37:54.411
104, 61742.04, -187500.02, -187500.02, -187500.02, -187500.02, -187500.02, -187500.02, -187500.02, 0.000, 0.000, 0.000, 14:37:54.411
105, 61649.73, -187500.02, -187500.02, -187500.02, -187500.02, -187500.02, -187500.02, -187500.02, 0.000, 0.000, 0.000, 14:37:54.411
106, 62309.89, -187500.02, -187500.02, -187500.02, -187500.02, -187500.02, -187500.02, -187500.02, 0.000, 0.000, 0.000, 14:37:54.412
107, 62285.61, -187500.02, -187500.02, -187500.02, -187500.02, -187500.02, -187500.02, -187500.02, 0.000, 0.000, 0.000, 14:37:54.412
108, 61828.57, -187500.02, -187500.02, -187500.02, -187500.02, -187500.02, -187500.02, -187500.02, 0.000, 0.000, 0.000, 14:37:54.412
109, 61578.18, -187500.02, -187500.02, -187500.02, -187500.02, -187500.02, -187500.02, -187500.02, 0.000, 0.000, 0.000, 14:37:54.412
110, 62181.55, -187500.02, -187500.02, -187500.02, -187500.02, -187500.02, -187500.02, -187500.02, 0.000, 0.000, 0.000, 14:37:54.412
111, 62332.17, -187500.02, -187500.02, -187500.02, -187500.02, -187500.02, -187500.02, -187500.02, 0.000, 0.000, 0.000, 14:37:54.412
112, 61885.00, -187500.02, -187500.02, -187500.02, -187500.02, -187500.02, -187500.02, -187500.02, -0.958, 0.170, -0.312, 14:37:54.413
113, 61506.75, -187500.02, -187500.02, -187500.02, -187500.02, -187500.02, -187500.02, -187500.02, 0.000, 0.000, 0.000, 14:37:54.413
114, 62071.33, -187500.02, -187500.02, -187500.02, -187500.02, -187500.02, -187500.02, -187500.02, 0.000, 0.000, 0.000, 14:37:54.413
115, 62363.85, -187500.02, -187500.02, -187500.02, -187500.02, -187500.02, -187500.02, -187500.02, 0.000, 0.000, 0.000, 14:37:54.413
116, 61973.07, -187500.02, -187500.02, -187500.02, -187500.02, -187500.02, -187500.02, -187500.02, 0.000, 0.000, 0.000, 14:37:54.413
117, 61509.94, -187500.02, -187500.02, -187500.02, -187500.02, -187500.02, -187500.02, -187500.02, 0.000, 0.000, 0.000, 14:37:54.413
118, 61898.44, -187500.02, -187500.02, -187500.02, -187500.02, -187500.02, -187500.02, -187500.02, 0.000, 0.000, 0.000, 14:37:54.413
119, 62414.76, -187500.02, -187500.02, -187500.02, -187500.02, -187500.02, -187500.02, -187500.02, 0.000, 0.000, 0.000, 14:37:54.414
120, 62105.97, -187500.02, -187500.02, -187500.02, -187500.02, -187500.02, -187500.02, -187500.02, 0.000, 0.000, 0.000, 14:37:54.414
121, 61613.43, -187500.02, -187500.02, -187500.02, -187500.02, -187500.02, -187500.02, -187500.02, 0.000, 0.000, 0.000, 14:37:54.414
122, 61803.42, -187500.02, -187500.02, -187500.02, -187500.02, -187500.02, -187500.02, -187500.02, -0.956, 0.166, -0.314, 14:37:54.414
123, 62383.70, -187500.02, -187500.02, -187500.02, -187500.02, -187500.02, -187500.02, -187500.02, 0.000, 0.000, 0.000, 14:37:54.414
124, 62152.18, -187500.02, -187500.02, -187500.02, -187500.02, -187500.02, -187500.02, -187500.02, 0.000, 0.000, 0.000, 14:37:54.414
125, 61693.29, -187500.02, -187500.02, -187500.02, -187500.02, -187500.02, -187500.02, -187500.02, 0.000, 0.000, 0.000, 14:37:54.414
126, 61707.98, -187500.02, -187500.02, -187500.02, -187500.02, -187500.02, -187500.02, -187500.02, 0.000, 0.000, 0.000, 14:37:54.414
127, 62331.88, -187500.02, -187500.02, -187500.02, -187500.02, -187500.02, -187500.02, -187500.02, 0.000, 0.000, 0.000, 14:37:54.415
128, 62239.08, -187500.02, -187500.02, -187500.02, -187500.02, -187500.02, -187500.02, -187500.02, 0.000, 0.000, 0.000, 14:37:54.415
129, 61734.58, -187500.02, -187500.02, -187500.02, -187500.02, -187500.02, -187500.02, -187500.02, 0.000, 0.000, 0.000, 14:37:54.415
130, 61600.09, -187500.02, -187500.02, -187500.02, -187500.02, -187500.02, -187500.02, -187500.02, 0.000, 0.000, 0.000, 14:37:54.415
131, 62275.82, -187500.02, -187500.02, -187500.02, -187500.02, -187500.02, -187500.02, -187500.02, 0.000, 0.000, 0.000, 14:37:54.415
132, 62298.45, -187500.02, -187500.02, -187500.02, -187500.02, -187500.02, -187500.02, -187500.02, -0.956, 0.168, -0.314, 14:37:54.415
133, 61810.13, -187500.02, -187500.02, -187500.02, -187500.02, -187500.02, -187500.02, -187500.02, 0.000, 0.000, 0.000, 14:37:54.415
