%OpenBCI Raw EEG Data
%
%Sample Rate = 250.0 Hz
%First Column = SampleIndex
%Last Column = Timestamp 
%Other Columns = EEG data in microvolts followed by Accel Data (in G) interleaved with Aux Data
0, 72905.38, -187500.02, -187500.02, -187500.02, -187500.02, -187500.02, -187500.02, -187500.02, -0.176, -0.400, 0.262, 14:46:40.063
1, 72445.78, -187500.02, -187500.02, -187500.02, -187500.02, -187500.02, -187500.02, -187500.02, 0.000, 0.000, 0.000, 14:46:40.064
2, 72250.47, -187500.02, -187500.02, -187500.02, -187500.02, -187500.02, -187500.02, -187500.02, 0.000, 0.000, 0.000, 14:46:40.064
3, 72846.10, -187500.02, -187500.02, -187500.02, -187500.02, -187500.02, -187500.02, -187500.02, 0.000, 0.000, 0.000, 14:46:40.064
4, 72938.88, -187500.02, -187500.02, -187500.02, -187500.02, -187500.02, -187500.02, -187500.02, 0.000, 0.000, 0.000, 14:46:40.065
5, 72515.77, -187500.02, -187500.02, -187500.02, -187500.02, -187500.02, -187500.02, -187500.02, 0.000, 0.000, 0.000, 14:46:40.065
6, 72194.08, -187500.02, -187500.02, -187500.02, -187500.02, -187500.02, -187500.02, -187500.02, 0.000, 0.000, 0.000, 14:46:40.065
7, 72742.52, -187500.02, -187500.02, -187500.02, -187500.02, -187500.02, -187500.02, -187500.02, -0.268, -0.600, 0.396, 14:46:40.065
8, 73002.49, -187500.02, -187500.02, -187500.02, -187500.02, -187500.02, -187500.02, -187500.02, 0.000, 0.000, 0.000, 14:46:40.066
9, 72656.45, -187500.02, -187500.02, -187500.02, -187500.02, -187500.02, -187500.02, -187500.02, 0.000, 0.000, 0.000, 14:46:40.066
10, 72281.18, -187500.02, -187500.02, -187500.02, -187500.02, -187500.02, -187500.02, -187500.02, 0.000, 0.000, 0.000, 14:46:40.066
11, 72647.55, -187500.02, -187500.02, -187500.02, -187500.02, -187500.02, -187500.02, -187500.02, 0.000, 0.000, 0.000, 14:46:40.067
12, 73051.38, -187500.02, -187500.02, -187500.02, -187500.02, -187500.02, -187500.02, -187500.02, 0.000, 0.000, 0.000, 14:46:40.067
13, 72784.72, -187500.02, -187500.02, -187500.02, -187500.02, -187500.02, -187500.02, -187500.02, 0.000, 0.000, 0.000, 14:46:40.070
14, 72356.75, -187500.02, -187500.02, -187500.02, -187500.02, -187500.02, -187500.02, -187500.02, 0.000, 0.000, 0.000, 14:46:40.071
15, 72568.91, -187500.02, -187500.02, -187500.02, -187500.02, -187500.02, -187500.02, -187500.02, 0.000, 0.000, 0.000, 14:46:40.071
16, 73072.01, -187500.02, -187500.02, -187500.02, -187500.02, -187500.02, -187500.02, -187500.02, 0.000, 0.000, 0.000, 14:46:40.071
17, 72864.31, -187500.02, -187500.02, -187500.02, -187500.02, -187500.02, -187500.02, -187500.02, -0.304, -0.694, 0.464, 14:46:40.072
18, 72404.31, -187500.02, -187500.02, -187500.02, -187500.02, -187500.02, -187500.02, -187500.02, 0.000, 0.000, 0.000, 14:46:40.072
19, 72439.09, -187500.02, -187500.02, -187500.02, -187500.02, -187500.02, -187500.02, -187500.02, 0.000, 0.000, 0.000, 14:46:40.072
20, 73012.13, -187500.02, -187500.02, -187500.02, -187500.02, -187500.02, -187500.02, -187500.02, 0.000, 0.000, 0.000, 14:46:40.072
21, 72900.23, -187500.02, -187500.02, -187500.02, -187500.02, -187500.02, -187500.02, -187500.02, 0.000, 0.000, 0.000, 14:46:40.073
22, 72451.77, -187500.02, -187500.02, -187500.02, -187500.02, -187500.02, -187500.02, -187500.02, 0.000, 0.000, 0.000, 14:46:40.073
23, 72332.16, -187500.02, -187500.02, -187500.02, -187500.02, -187500.02, -187500.02, -187500.02, 0.000, 0.000, 0.000, 14:46:40.073
24, 72950.98, -187500.02, -187500.02, -187500.02, -187500.02, -187500.02, -187500.02, -187500.02, 0.000, 0.000, 0.000, 14:46:40.074
25, 72984.57, -187500.02, -187500.02, -187500.02, -187500.02, -187500.02, -187500.02, -187500.02, 0.000, 0.000, 0.000, 14:46:40.074
26, 72589.97, -187500.02, -187500.02, -187500.02, -187500.02, -187500.02, -187500.02, -187500.02, -0.324, -0.740, 0.492, 14:46:40.074
27, 72348.99, -187500.02, -187500.02, -187500.02, -187500.02, -187500.02, -187500.02, -187500.02, 0.000, 0.000, 0.000, 14:46:40.075
28, 72918.59, -187500.02, -187500.02, -187500.02, -187500.02, -187500.02, -187500.02, -187500.02, 0.000, 0.000, 0.000, 14:46:40.075
29, 73072.32, -187500.02, -187500.02, -187500.02, -187500.02, -187500.02, -187500.02, -187500.02, 0.000, 0.000, 0.000, 14:46:40.075
30, 72692.38, -187500.02, -187500.02, -187500.02, -187500.02, -187500.02, -187500.02, -187500.02, 0.000, 0.000, 0.000, 14:46:40.076
31, 72354.18, -187500.02, -187500.02, -187500.02, -187500.02, -187500.02, -187500.02, -187500.02, 0.000, 0.000, 0.000, 14:46:40.076
32, 72850.62, -187500.02, -187500.02, -187500.02, -187500.02, -187500.02, -187500.02, -187500.02, 0.000, 0.000, 0.000, 14:46:40.076
33, 73209.43, -187500.02, -187500.02, -187500.02, -187500.02, -187500.02, -187500.02, -187500.02, 0.000, 0.000, 0.000, 14:46:40.077
34, 72905.48, -187500.02, -187500.02, -187500.02, -187500.02, -187500.02, -187500.02, -187500.02, 0.000, 0.000, 0.000, 14:46:40.077
35, 72495.40, -187500.02, -187500.02, -187500.02, -187500.02, -187500.02, -187500.02, -187500.02, 0.000, 0.000, 0.000, 14:46:40.077
36, 72806.36, -187500.02, -187500.02, -187500.02, -187500.02, -187500.02, -187500.02, -187500.02, -0.334, -0.764, 0.504, 14:46:40.078
37, 73221.02, -187500.02, -187500.02, -187500.02, -187500.02, -187500.02, -187500.02, -187500.02, 0.000, 0.000, 0.000, 14:46:40.078
38, 72922.20, -187500.02, -187500.02, -187500.02, -187500.02, -187500.02, -187500.02, -187500.02, 0.000, 0.000, 0.000, 14:46:40.079
39, 72463.59, -187500.02, -187500.02, -187500.02, -187500.02, -187500.02, -187500.02, -187500.02, 0.000, 0.000, 0.000, 14:46:40.079
40, 72624.23, -187500.02, -187500.02, -187500.02, -187500.02, -187500.02, -187500.02, -187500.02, 0.000, 0.000, 0.000, 14:46:40.079
41, 73125.09, -187500.02, -187500.02, -187500.02, -187500.02, -187500.02, -187500.02, -187500.02, 0.000, 0.000, 0.000, 14:46:40.080
42, 72915.81, -187500.02, -187500.02, -187500.02, -187500.02, -187500.02, -187500.02, -187500.02, 0.000, 0.000, 0.000, 14:46:40.080
43, 72466.81, -187500.02, -187500.02, -187500.02, -187500.02, -187500.02, -187500.02, -187500.02, 0.000, 0.000, 0.000, 14:46:40.080
44, 72456.73, -187500.02, -187500.02, -187500.02, -187500.02, -187500.02, -187500.02, -187500.02, 0.000, 0.000, 0.000, 14:46:40.080
45, 73007.21, -187500.02, -187500.02, -187500.02, -187500.02, -187500.02, -187500.02, -187500.02, 0.000, 0.000, 0.000, 14:46:40.081
46, 72886.06, -187500.02, -187500.02, -187500.02, -187500.02, -187500.02, -187500.02, -187500.02, -0.340, -0.778, 0.510, 14:46:40.081
47, 72465.09, -187500.02, -187500.02, -187500.02, -187500.02, -187500.02, -187500.02, -187500.02, 0.000, 0.000, 0.000, 14:46:40.082
48, 72347.43, -187500.02, -187500.02, -187500.02, -187500.02, -187500.02, -187500.02, -187500.02, 0.000, 0.000, 0.000, 14:46:40.082
49, 72945.54, -187500.02, -187500.02, -187500.02, -187500.02, -187500.02, -187500.02, -187500.02, 0.000, 0.000, 0.000, 14:46:40.082
50, 73009.65, -187500.02, -187500.02, -187500.02, -187500.02, -187500.02, -187500.02, -187500.02, 0.000, 0.000, 0.000, 14:46:40.082
51, 72560.64, -187500.02, -187500.02, -187500.02, -187500.02, -187500.02, -187500.02, -187500.02, 0.000, 0.000, 0.000, 14:46:40.083
52, 72264.95, -187500.02, -187500.02, -187500.02, -187500.02, -187500.02, -187500.02, -187500.02, 0.000, 0.000, 0.000, 14:46:40.083
53, 72798.51, -187500.02, -187500.02, -187500.02, -187500.02, -187500.02, -187500.02, -187500.02, 0.000, 0.000, 0.000, 14:46:40.083
54, 73012.28, -187500.02, -187500.02, -187500.02, -187500.02, -187500.02, -187500.02, -187500.02, 0.000, 0.000, 0.000, 14:46:40.083
55, 72647.16, -187500.02, -187500.02, -187500.02, -187500.02, -187500.02, -187500.02, -187500.02, 0.000, 0.000, 0.000, 14:46:40.084
56, 72271.66, -187500.02, -187500.02, -187500.02, -187500.02, -187500.02, -187500.02, -187500.02, -0.342, -0.782, 0.520, 14:46:40.084
57, 72700.52, -187500.02, -187500.02, -187500.02, -187500.02, -187500.02, -187500.02, -187500.02, 0.000, 0.000, 0.000, 14:46:40.084
58, 73056.23, -187500.02, -187500.02, -187500.02, -187500.02, -187500.02, -187500.02, -187500.02, 0.000, 0.000, 0.000, 14:46:40.084
59, 72701.82, -187500.02, -187500.02, -187500.02, -187500.02, -187500.02, -187500.02, -187500.02, 0.000, 0.000, 0.000, 14:46:40.085
60, 72273.70, -187500.02, -187500.02, -187500.02, -187500.02, -187500.02, -187500.02, -187500.02, 0.000, 0.000, 0.000, 14:46:40.085
61, 72565.23, -187500.02, -187500.02, -187500.02, -187500.02, -187500.02, -187500.02, -187500.02, 0.000, 0.000, 0.000, 14:46:40.085
62, 73029.77, -187500.02, -187500.02, -187500.02, -187500.02, -187500.02, -187500.02, -187500.02, 0.000, 0.000, 0.000, 14:46:40.093
63, 72772.65, -187500.02, -187500.02, -187500.02, -187500.02, -187500.02, -187500.02, -187500.02, 0.000, 0.000, 0.000, 14:46:40.094
64, 72320.43, -187500.02, -187500.02, -187500.02, -187500.02, -187500.02, -187500.02, -187500.02, 0.000, 0.000, 0.000, 14:46:40.094
65, 72443.01, -187500.02, -187500.02, -187500.02, -187500.02, -187500.02, -187500.02, -187500.02, 0.000, 0.000, 0.000, 14:46:40.094
66, 72993.62, -187500.02, -187500.02, -187500.02, -187500.02, -187500.02, -187500.02, -187500.02, -0.336, -0.790, 0.520, 14:46:40.094
67, 72852.65, -187500.02, -187500.02, -187500.02, -187500.02, -187500.02, -187500.02, -187500.02, 0.000, 0.000, 0.000, 14:46:40.095
68, 72407.16, -187500.02, -187500.02, -187500.02, -187500.02, -187500.02, -187500.02, -187500.02, 0.000, 0.000, 0.000, 14:46:40.095
69, 72347.99, -187500.02, -187500.02, -187500.02, -187500.02, -187500.02, -187500.02, -187500.02, 0.000, 0.000, 0.000, 14:46:40.095
70, 72918.41, -187500.02, -187500.02, -187500.02, -187500.02, -187500.02, -187500.02, -187500.02, 0.000, 0.000, 0.000, 14:46:40.095
71, 72877.62, -187500.02, -187500.02, -187500.02, -187500.02, -187500.02, -187500.02, -187500.02, 0.000, 0.000, 0.000, 14:46:40.095
72, 72458.30, -187500.02, -187500.02, -187500.02, -187500.02, -187500.02, -187500.02, -187500.02, 0.000, 0.000, 0.000, 14:46:40.096
73, 72270.92, -187500.02, -187500.02, -187500.02, -187500.02, -187500.02, -187500.02, -187500.02, 0.000, 0.000, 0.000, 14:46:40.096
74, 72854.64, -187500.02, -187500.02, -187500.02, -187500.02, -187500.02, -187500.02, -187500.02, 0.000, 0.000, 0.000, 14:46:40.096
75, 72956.70, -187500.02, -187500.02, -187500.02, -187500.02, -187500.02, -187500.02, -187500.02, 0.000, 0.000, 0.000, 14:46:40.096
76, 72548.53, -187500.02, -187500.02, -187500.02, -187500.02, -187500.02, -187500.02, -187500.02, -0.338, -0.792, 0.518, 14:46:40.096
77, 72219.94, -187500.02, -187500.02, -187500.02, -187500.02, -187500.02, -187500.02, -187500.02, 0.000, 0.000, 0.000, 14:46:40.097
78, 72722.13, -187500.02, -187500.02, -187500.02, -187500.02, -187500.02, -187500.02, -187500.02, 0.000, 0.000, 0.000, 14:46:40.097
79, 72989.75, -187500.02, -187500.02, -187500.02, -187500.02, -187500.02, -187500.02, -187500.02, 0.000, 0.000, 0.000, 14:46:40.097
80, 72649.47, -187500.02, -187500.02, -187500.02, -187500.02, -187500.02, -187500.02, -187500.02, 0.000, 0.000, 0.000, 14:46:40.097
81, 72265.24, -187500.02, -187500.02, -187500.02, -187500.02, -187500.02, -187500.02, -187500.02, 0.000, 0.000, 0.000, 14:46:40.097
82, 72662.45, -187500.02, -187500.02, -187500.02, -187500.02, -187500.02, -187500.02, -187500.02, 0.000, 0.000, 0.000, 14:46:40.097
83, 73048.72, -187500.02, -187500.02, -187500.02, -187500.02, -187500.02, -187500.02, -187500.02, 0.000, 0.000, 0.000, 14:46:40.097
84, 72736.38, -187500.02, -187500.02, -187500.02, -187500.02, -187500.02, -187500.02, -187500.02, 0.000, 0.000, 0.000, 14:46:40.097
85, 72270.97, -187500.02, -187500.02, -187500.02, -187500.02, -187500.02, -187500.02, -187500.02, 0.000, 0.000, 0.000, 14:46:40.098
86, 72488.72, -187500.02, -187500.02, -187500.02, -187500.02, -187500.02, -187500.02, -187500.02, -0.346, -0.800, 0.518, 14:46:40.098
87, 73016.73, -187500.02, -187500.02, -187500.02, -187500.02, -187500.02, -187500.02, -187500.02, 0.000, 0.000, 0.000, 14:46:40.098
88, 72817.58, -187500.02, -187500.02, -187500.02, -187500.02, -187500.02, -187500.02, -187500.02, 0.000, 0.000, 0.000, 14:46:40.098
89, 72382.73, -187500.02, -187500.02, -187500.02, -187500.02, -187500.02, -187500.02, -187500.02, 0.000, 0.000, 0.000, 14:46:40.099
90, 72433.15, -187500.02, -187500.02, -187500.02, -187500.02, -187500.02, -187500.02, -187500.02, 0.000, 0.000, 0.000, 14:46:40.099
91, 73007.91, -187500.02, -187500.02, -187500.02, -187500.02, -187500.02, -187500.02, -187500.02, 0.000, 0.000, 0.000, 14:46:40.099
92, 72878.84, -187500.02, -187500.02, -187500.02, -187500.02, -187500.02, -187500.02, -187500.02, 0.000, 0.000, 0.000, 14:46:40.099
93, 72422.82, -187500.02, -187500.02, -187500.02, -187500.02, -187500.02, -187500.02, -187500.02, 0.000, 0.000, 0.000, 14:46:40.099
94, 72320.27, -187500.02, -187500.02, -187500.02, -187500.02, -187500.02, -187500.02, -187500.02, 0.000, 0.000, 0.000, 14:46:40.099
95, 72938.68, -187500.02, -187500.02, -187500.02, -187500.02, -187500.02, -187500.02, -187500.02, 0.000, 0.000, 0.000, 14:46:40.100
96, 72976.07, -187500.02, -187500.02, -187500.02, -187500.02, -187500.02, -187500.02, -187500.02, -0.346, -0.796, 0.520, 14:46:40.100
97, 72538.43, -187500.02, -187500.02, -187500.02, -187500.02, -187500.02, -187500.02, -187500.02, 0.000, 0.000, 0.000, 14:46:40.100
98, 72309.34, -187500.02, -187500.02, -187500.02, -187500.02, -187500.02, -187500.02, -187500.02, 0.000, 0.000, 0.000, 14:46:40.100
99, 72885.70, -187500.02, -187500.02, -187500.02, -187500.02, -187500.02, -187500.02, -187500.02, 0.000, 0.000, 0.000, 14:46:40.100
100, 73049.48, -187500.02, -187500.02, -187500.02, -187500.02, -187500.02, -187500.02, -187500.02, 0.000, 0.000, 0.000, 14:46:40.101
101, 72643.97, -187500.02, -187500.02, -187500.02, -187500.02, -187500.02, -187500.02, -187500.02, 0.000, 0.000, 0.000, 14:46:40.101
102, 72313.99, -187500.02, -187500.02, -187500.02, -187500.02, -187500.02, -187500.02, -187500.02, 0.000, 0.000, 0.000, 14:46:40.101
103, 72826.32, -187500.02, -187500.02, -187500.02, -187500.02, -187500.02, -187500.02, -187500.02, 0.000, 0.000, 0.000, 14:46:40.101
104, 73154.02, -187500.02, -187500.02, -187500.02, -187500.02, -187500.02, -187500.02, -187500.02, 0.000, 0.000, 0.000, 14:46:40.101
105, 72865.92, -187500.02, -187500.02, -187500.02, -187500.02, -187500.02, -187500.02, -187500.02, 0.000, 0.000, 0.000, 14:46:40.102
106, 72531.16, -187500.02, -187500.02, -187500.02, -187500.02, -187500.02, -187500.02, -187500.02, -0.344, -0.794, 0.520, 14:46:40.102
107, 72959.02, -187500.02, -187500.02, -187500.02, -187500.02, -187500.02, -187500.02, -187500.02, 0.000, 0.000, 0.000, 14:46:40.102
108, 73414.91, -187500.02, -187500.02, -187500.02, -187500.02, -187500.02, -187500.02, -187500.02, 0.000, 0.000, 0.000, 14:46:40.103
109, 73105.78, -187500.02, -187500.02, -187500.02, -187500.02, -187500.02, -187500.02, -187500.02, 0.000, 0.000, 0.000, 14:46:40.103
110, 72642.48, -187500.02, -187500.02, -187500.02, -187500.02, -187500.02, -187500.02, -187500.02, 0.000, 0.000, 0.000, 14:46:40.103
111, 72798.80, -187500.02, -187500.02, -187500.02, -187500.02, -187500.02, -187500.02, -187500.02, 0.000, 0.000, 0.000, 14:46:40.104
112, 73254.87, -187500.02, -187500.02, -187500.02, -187500.02, -187500.02, -187500.02, -187500.02, 0.000, 0.000, 0.000, 14:46:40.104
113, 72993.04, -187500.02, -187500.02, -187500.02, -187500.02, -187500.02, -187500.02, -187500.02, 0.000, 0.000, 0.000, 14:46:40.104
114, 72484.27, -187500.02, -187500.02, -187500.02, -187500.02, -187500.02, -187500.02, -187500.02, 0.000, 0.000, 0.000, 14:46:40.104
115, 72448.33, -187500.02, -187500.02, -187500.02, -187500.02, -187500.02, -187500.02, -187500.02, 0.000, 0.000, 0.000, 14:46:40.105
116, 73038.55, -187500.02, -187500.02, -187500.02, -187500.02, -187500.02, -187500.02, -187500.02, -0.352, -0.794, 0.520, 14:46:40.105
117, 72953.37, -187500.02, -187500.02, -187500.02, -187500.02, -187500.02, -187500.02, -187500.02, 0.000, 0.000, 0.000, 14:46:40.106
118, 72497.70, -187500.02, -187500.02, -187500.02, -187500.02, -187500.02, -187500.02, -187500.02, 0.000, 0.000, 0.000, 14:46:40.106
119, 72365.07, -187500.02, -187500.02, -187500.02, -187500.02, -187500.02, -187500.02, -187500.02, 0.000, 0.000, 0.000, 14:46:40.106
120, 72981.66, -187500.02, -187500.02, -187500.02, -187500.02, -187500.02, -187500.02, -187500.02, 0.000, 0.000, 0.000, 14:46:40.541
121, 73007.39, -187500.02, -187500.02, -187500.02, -187500.02, -187500.02, -187500.02, -187500.02, 0.000, 0.000, 0.000, 14:46:40.542
122, 72569.98, -187500.02, -187500.02, -187500.02, -187500.02, -187500.02, -187500.02, -187500.02, 0.000, 0.000, 0.000, 14:46:40.542
123, 72329.84, -187500.02, -187500.02, -187500.02, -187500.02, -187500.02, -187500.02, -187500.02, 0.000, 0.000, 0.000, 14:46:40.542
124, 72911.48, -187500.02, -187500.02, -187500.02, -187500.02, -187500.02, -187500.02, -187500.02, 0.000, 0.000, 0.000, 14:46:40.542
125, 73109.23, -187500.02, -187500.02, -187500.02, -187500.02, -187500.02, -187500.02, -187500.02, 0.000, 0.000, 0.000, 14:46:40.542
126, 72752.45, -187500.02, -187500.02, -187500.02, -187500.02, -187500.02, -187500.02, -187500.02, -0.350, -0.796, 0.522, 14:46:40.543
127, 72393.32, -187500.02, -187500.02, -187500.02, -187500.02, -187500.02, -187500.02, -187500.02, 0.000, 0.000, 0.000, 14:46:40.543
128, 72834.79, -187500.02, -187500.02, -187500.02, -187500.02, -187500.02, -187500.02, -187500.02, 0.000, 0.000, 0.000, 14:46:40.543
129, 73160.79, -187500.02, -187500.02, -187500.02, -187500.02, -187500.02, -187500.02, -187500.02, 0.000, 0.000, 0.000, 14:46:40.543
130, 72815.45, -187500.02, -187500.02, -187500.02, -187500.02, -187500.02, -187500.02, -187500.02, 0.000, 0.000, 0.000, 14:46:40.543
131, 72374.30, -187500.02, -187500.02, -187500.02, -187500.02, -187500.02, -187500.02, -187500.02, 0.000, 0.000, 0.000, 14:46:40.544
132, 72672.45, -187500.02, -187500.02, -187500.02, -187500.02, -187500.02, -187500.02, -187500.02, 0.000, 0.000, 0.000, 14:46:40.544
133, 73143.89, -187500.02, -187500.02, -187500.02, -187500.02, -187500.02, -187500.02, -187500.02, 0.000, 0.000, 0.000, 14:46:40.544
134, 72897.73, -187500.02, -187500.02, -187500.02, -187500.02, -187500.02, -187500.02, -187500.02, 0.000, 0.000, 0.000, 14:46:40.544
135, 72474.50, -187500.02, -187500.02, -187500.02, -187500.02, -187500.02, -187500.02, -187500.02, 0.000, 0.000, 0.000, 14:46:40.544
136, 72651.26, -187500.02, -187500.02, -187500.02, -187500.02, -187500.02, -187500.02, -187500.02, -0.348, -0.802, 0.514, 14:46:40.545
137, 73223.26, -187500.02, -187500.02, -187500.02, -187500.02, -187500.02, -187500.02, -187500.02, 0.000, 0.000, 0.000, 14:46:40.545
138, 73074.31, -187500.02, -187500.02, -187500.02, -187500.02, -187500.02, -187500.02, -187500.02, 0.000, 0.000, 0.000, 14:46:40.545
139, 72600.77, -187500.02, -187500.02, -187500.02, -187500.02, -187500.02, -187500.02, -187500.02, 0.000, 0.000, 0.000, 14:46:40.545
140, 72497.86, -187500.02, -187500.02, -187500.02, -187500.02, -187500.02, -187500.02, -187500.02, 0.000, 0.000, 0.000, 14:46:40.545
141, 73030.70, -187500.02, -187500.02, -187500.02, -187500.02, -187500.02, -187500.02, -187500.02, 0.000, 0.000, 0.000, 14:46:40.545
142, 72891.79, -187500.02, -187500.02, -187500.02, -187500.02, -187500.02, -187500.02, -187500.02, 0.000, 0.000, 0.000, 14:46:40.546
143, 72434.09, -187500.02, -187500.02, -187500.02, -187500.02, -187500.02, -187500.02, -187500.02, 0.000, 0.000, 0.000, 14:46:40.546
144, 72290.70, -187500.02, -187500.02, -187500.02, -187500.02, -187500.02, -187500.02, -187500.02, 0.000, 0.000, 0.000, 14:46:40.546
145, 72871.22, -187500.02, -187500.02, -187500.02, -187500.02, -187500.02, -187500.02, -187500.02, 0.000, 0.000, 0.000, 14:46:40.546
146, 72925.52, -187500.02, -187500.02, -187500.02, -187500.02, -187500.02, -187500.02, -187500.02, -0.352, -0.794, 0.520, 14:46:40.547
147, 72486.59, -187500.02, -187500.02, -187500.02, -187500.02, -187500.02, -187500.02, -187500.02, 0.000, 0.000, 0.000, 14:46:40.547
148, 72188.80, -187500.02, -187500.02, -187500.02, -187500.02, -187500.02, -187500.02, -187500.02, 0.000, 0.000, 0.000, 14:46:40.547
149, 72708.84, -187500.02, -187500.02, -187500.02, -187500.02, -187500.02, -187500.02, -187500.02, 0.000, 0.000, 0.000, 14:46:40.547
150, 72977.08, -187500.02, -187500.02, -187500.02, -187500.02, -187500.02, -187500.02, -187500.02, 0.000, 0.000, 0.000, 14:46:40.547
151, 72652.09, -187500.02, -187500.02, -187500.02, -187500.02, -187500.02, -187500.02, -187500.02, 0.000, 0.000, 0.000, 14:46:40.547
152, 72276.27, -187500.02, -187500.02, -187500.02, -187500.02, -187500.02, -187500.02, -187500.02, 0.000, 0.000, 0.000, 14:46:40.547
153, 72673.50, -187500.02, -187500.02, -187500.02, -187500.02, -187500.02, -187500.02, -187500.02, 0.000, 0.000, 0.000, 14:46:40.548
154, 73048.92, -187500.02, -187500.02, -187500.02, -187500.02, -187500.02, -187500.02, -187500.02, 0.000, 0.000, 0.000, 14:46:40.548
155, 72739.97, -187500.02, -187500.02, -187500.02, -187500.02, -187500.02, -187500.02, -187500.02, 0.000, 0.000, 0.000, 14:46:40.548
156, 72330.20, -187500.02, -187500.02, -187500.02, -187500.02, -187500.02, -187500.02, -187500.02, -0.354, -0.792, 0.522, 14:46:40.548
157, 72575.98, -187500.02, -187500.02, -187500.02, -187500.02, -187500.02, -187500.02, -187500.02, 0.000, 0.000, 0.000, 14:46:40.548
158, 73031.95, -187500.02, -187500.02, -187500.02, -187500.02, -187500.02, -187500.02, -187500.02, 0.000, 0.000, 0.000, 14:46:40.548
159, 72793.73, -187500.02, -187500.02, -187500.02, -187500.02, -187500.02, -187500.02, -187500.02, 0.000, 0.000, 0.000, 14:46:40.548
160, 72376.94, -187500.02, -187500.02, -187500.02, -187500.02, -187500.02, -187500.02, -187500.02, 0.000, 0.000, 0.000, 14:46:40.548
161, 72459.13, -187500.02, -187500.02, -187500.02, -187500.02, -187500.02, -187500.02, -187500.02, 0.000, 0.000, 0.000, 14:46:40.549
162, 72994.18, -187500.02, -187500.02, -187500.02, -187500.02, -187500.02, -187500.02, -187500.02, 0.000, 0.000, 0.000, 14:46:40.549
163, 72868.41, -187500.02, -187500.02, -187500.02, -187500.02, -187500.02, -187500.02, -187500.02, 0.000, 0.000, 0.000, 14:46:40.549
164, 72450.41, -187500.02, -187500.02, -187500.02, -187500.02, -187500.02, -187500.02, -187500.02, 0.000, 0.000, 0.000, 14:46:40.549
165, 72363.63, -187500.02, -187500.02, -187500.02, -187500.02, -187500.02, -187500.02, -187500.02, -0.350, -0.796, 0.520, 14:46:40.549
166, 72959.00, -187500.02, -187500.02, -187500.02, -187500.02, -187500.02, -187500.02, -187500.02, 0.000, 0.000, 0.000, 14:46:40.549
167, 72951.17, -187500.02, -187500.02, -187500.02, -187500.02, -187500.02, -187500.02, -187500.02, 0.000, 0.000, 0.000, 14:46:40.549
168, 72514.04, -187500.02, -187500.02, -187500.02, -187500.02, -187500.02, -187500.02, -187500.02, 0.000, 0.000, 0.000, 14:46:40.549
169, 72261.47, -187500.02, -187500.02, -187500.02, -187500.02, -187500.02, -187500.02, -187500.02, 0.000, 0.000, 0.000, 14:46:40.549
170, 72828.38, -187500.02, -187500.02, -187500.02, -187500.02, -187500.02, -187500.02, -187500.02, 0.000, 0.000, 0.000, 14:46:40.549
171, 72958.08, -187500.02, -187500.02, -187500.02, -187500.02, -187500.02, -187500.02, -187500.02, 0.000, 0.000, 0.000, 14:46:40.549
172, 72532.99, -187500.02, -187500.02, -187500.02, -187500.02, -187500.02, -187500.02, -187500.02, 0.000, 0.000, 0.000, 14:46:40.549
173, 72217.19, -187500.02, -187500.02, -187500.02, -187500.02, -187500.02, -187500.02, -187500.02, 0.000, 0.000, 0.000, 14:46:40.549
174, 72725.45, -187500.02, -187500.02, -187500.02, -187500.02, -187500.02, -187500.02, -187500.02, 0.000, 0.000, 0.000, 14:46:40.550
175, 73022.34, -187500.02, -187500.02, -187500.02, -187500.02, -187500.02, -187500.02, -187500.02, -0.340, -0.802, 0.516, 14:46:40.550
176, 72701.82, -187500.02, -187500.02, -187500.02, -187500.02, -187500.02, -187500.02, -187500.02, 0.000, 0.000, 0.000, 14:46:40.550
177, 72307.51, -187500.02, -187500.02, -187500.02, -187500.02, -187500.02, -187500.02, -187500.02, 0.000, 0.000, 0.000, 14:46:40.550
178, 72644.17, -187500.02, -187500.02, -187500.02, -187500.02, -187500.02, -187500.02, -187500.02, 0.000, 0.000, 0.000, 14:46:40.550
179, 73041.54, -187500.02, -187500.02, -187500.02, -187500.02, -187500.02, -187500.02, -187500.02, 0.000, 0.000, 0.000, 14:46:40.550
180, 72755.35, -187500.02, -187500.02, -187500.02, -187500.02, -187500.02, -187500.02, -187500.02, 0.000, 0.000, 0.000, 14:46:40.550
181, 72304.18, -187500.02, -187500.02, -187500.02, -187500.02, -187500.02, -187500.02, -187500.02, 0.000, 0.000, 0.000, 14:46:40.550
182, 72500.30, -187500.02, -187500.02, -187500.02, -187500.02, -187500.02, -187500.02, -187500.02, 0.000, 0.000, 0.000, 14:46:40.550
183, 73051.53, -187500.02, -187500.02, -187500.02, -187500.02, -187500.02, -187500.02, -187500.02, 0.000, 0.000, 0.000, 14:46:40.550
184, 72840.53, -187500.02, -187500.02, -187500.02, -187500.02, -187500.02, -187500.02, -187500.02, 0.000, 0.000, 0.000, 14:46:40.550
185, 72373.25, -187500.02, -187500.02, -187500.02, -187500.02, -187500.02, -187500.02, -187500.02, -0.342, -0.798, 0.514, 14:46:40.550
186, 72399.20, -187500.02, -187500.02, -187500.02, -187500.02, -187500.02, -187500.02, -187500.02, 0.000, 0.000, 0.000, 14:46:40.551
187, 72960.70, -187500.02, -187500.02, -187500.02, -187500.02, -187500.02, -187500.02, -187500.02, 0.000, 0.000, 0.000, 14:46:40.551
188, 72888.57, -187500.02, -187500.02, -187500.02, -187500.02, -187500.02, -187500.02, -187500.02, 0.000, 0.000, 0.000, 14:46:40.551
189, 72473.77, -187500.02, -187500.02, -187500.02, -187500.02, -187500.02, -187500.02, -187500.02, 0.000, 0.000, 0.000, 14:46:40.551
190, 72341.69, -187500.02, -187500.02, -187500.02, -187500.02, -187500.02, -187500.02, -187500.02, 0.000, 0.000, 0.000, 14:46:40.551
191, 72914.09, -187500.02, -187500.02, -187500.02, -187500.02, -187500.02, -187500.02, -187500.02, 0.000, 0.000, 0.000, 14:46:40.551
192, 72935.80, -187500.02, -187500.02, -187500.02, -187500.02, -187500.02, -187500.02, -187500.02, 0.000, 0.000, 0.000, 14:46:40.551
193, 72531.56, -187500.02, -187500.02, -187500.02, -187500.02, -187500.02, -187500.02, -187500.02, 0.000, 0.000, 0.000, 14:46:40.551
194, 72275.62, -187500.02, -187500.02, -187500.02, -187500.02, -187500.02, -187500.02, -187500.02, 0.000, 0.000, 0.000, 14:46:40.551
195, 72820.66, -187500.02, -187500.02, -187500.02, -187500.02, -187500.02, -187500.02, -187500.02, -0.350, -0.798, 0.522, 14:46:40.551
196, 72979.41, -187500.02, -187500.02, -187500.02, -187500.02, -187500.02, -187500.02, -187500.02, 0.000, 0.000, 0.000, 14:46:40.551
197, 72600.63, -187500.02, -187500.02, -187500.02, -187500.02, -187500.02, -187500.02, -187500.02, 0.000, 0.000, 0.000, 14:46:40.551
198, 72235.38, -187500.02, -187500.02, -187500.02, -187500.02, -187500.02, -187500.02, -187500.02, 0.000, 0.000, 0.000, 14:46:40.551
199, 72683.18, -187500.02, -187500.02, -187500.02, -187500.02, -187500.02, -187500.02, -187500.02, 0.000, 0.000, 0.000, 14:46:40.552
200, 72995.72, -187500.02, -187500.02, -187500.02, -187500.02, -187500.02, -187500.02, -187500.02, 0.000, 0.000, 0.000, 14:46:40.552
201, 72688.36, -187500.02, -187500.02, -187500.02, -187500.02, -187500.02, -187500.02, -187500.02, 0.000, 0.000, 0.000, 14:46:40.552
202, 72293.74, -187500.02, -187500.02, -187500.02, -187500.02, -187500.02, -187500.02, -187500.02, 0.000, 0.000, 0.000, 14:46:40.552
203, 72600.66, -187500.02, -187500.02, -187500.02, -187500.02, -187500.02, -187500.02, -187500.02, 0.000, 0.000, 0.000, 14:46:40.552
204, 73029.88, -187500.02, -187500.02, -187500.02, -187500.02, -187500.02, -187500.02, -187500.02, 0.000, 0.000, 0.000, 14:46:40.552
205, 72781.55, -187500.02, -187500.02, -187500.02, -187500.02, -187500.02, -187500.02, -187500.02, -0.352, -0.798, 0.522, 14:46:40.552
206, 72332.99, -187500.02, -187500.02, -187500.02, -187500.02, -187500.02, -187500.02, -187500.02, 0.000, 0.000, 0.000, 14:46:40.552
207, 72462.43, -187500.02, -187500.02, -187500.02, -187500.02, -187500.02, -187500.02, -187500.02, 0.000, 0.000, 0.000, 14:46:40.552
208, 72988.39, -187500.02, -187500.02, -187500.02, -187500.02, -187500.02, -187500.02, -187500.02, 0.000, 0.000, 0.000, 14:46:40.552
209, 72816.95, -187500.02, -187500.02, -187500.02, -187500.02, -187500.02, -187500.02, -187500.02, 0.000, 0.000, 0.000, 14:46:40.552
210, 72383.73, -187500.02, -187500.02, -187500.02, -187500.02, -187500.02, -187500.02, -187500.02, 0.000, 0.000, 0.000, 14:46:40.552
211, 72361.05, -187500.02, -187500.02, -187500.02, -187500.02, -187500.02, -187500.02, -187500.02, 0.000, 0.000, 0.000, 14:46:40.553
212, 72942.63, -187500.02, -187500.02, -187500.02, -187500.02, -187500.02, -187500.02, -187500.02, 0.000, 0.000, 0.000, 14:46:40.553
213, 72879.58, -187500.02, -187500.02, -187500.02, -187500.02, -187500.02, -187500.02, -187500.02, 0.000, 0.000, 0.000, 14:46:40.553
214, 72450.25, -187500.02, -187500.02, -187500.02, -187500.02, -187500.02, -187500.02, -187500.02, 0.000, 0.000, 0.000, 14:46:40.553
215, 72300.09, -187500.02, -187500.02, -187500.02, -187500.02, -187500.02, -187500.02, -187500.02, -0.350, -0.794, 0.524, 14:46:40.553
216, 72875.98, -187500.02, -187500.02, -187500.02, -187500.02, -187500.02, -187500.02, -187500.02, 0.000, 0.000, 0.000, 14:46:40.553
217, 72933.36, -187500.02, -187500.02, -187500.02, -187500.02, -187500.02, -187500.02, -187500.02, 0.000, 0.000, 0.000, 14:46:40.553
218, 72506.35, -187500.02, -187500.02, -187500.02, -187500.02, -187500.02, -187500.02, -187500.02, 0.000, 0.000, 0.000, 14:46:40.553
219, 72234.31, -187500.02, -187500.02, -187500.02, -187500.02, -187500.02, -187500.02, -187500.02, 0.000, 0.000, 0.000, 14:46:40.553
220, 72781.23, -187500.02, -187500.02, -187500.02, -187500.02, -187500.02, -187500.02, -187500.02, 0.000, 0.000, 0.000, 14:46:40.553
221, 72997.48, -187500.02, -187500.02, -187500.02, -187500.02, -187500.02, -187500.02, -187500.02, 0.000, 0.000, 0.000, 14:46:40.553
222, 72599.60, -187500.02, -187500.02, -187500.02, -187500.02, -187500.02, -187500.02, -187500.02, 0.000, 0.000, 0.000, 14:46:40.553
223, 72210.75, -187500.02, -187500.02, -187500.02, -187500.02, -187500.02, -187500.02, -187500.02, 0.000, 0.000, 0.000, 14:46:40.553
224, 72610.78, -187500.02, -187500.02, -187500.02, -187500.02, -187500.02, -187500.02, -187500.02, 0.000, 0.000, 0.000, 14:46:40.554
225, 72974.04, -187500.02, -187500.02, -187500.02, -187500.02, -187500.02, -187500.02, -187500.02, -0.346, -0.792, 0.522, 14:46:40.554
226, 72717.84, -187500.02, -187500.02, -187500.02, -187500.02, -187500.02, -187500.02, -187500.02, 0.000, 0.000, 0.000, 14:46:40.554
227, 72278.81, -187500.02, -187500.02, -187500.02, -187500.02, -187500.02, -187500.02, -187500.02, 0.000, 0.000, 0.000, 14:46:40.554
228, 72506.35, -187500.02, -187500.02, -187500.02, -187500.02, -187500.02, -187500.02, -187500.02, 0.000, 0.000, 0.000, 14:46:40.554
229, 72971.65, -187500.02, -187500.02, -187500.02, -187500.02, -187500.02, -187500.02, -187500.02, 0.000, 0.000, 0.000, 14:46:40.554
230, 72777.26, -187500.02, -187500.02, -187500.02, -187500.02, -187500.02, -187500.02, -187500.02, 0.000, 0.000, 0.000, 14:46:40.554
231, 72323.23, -187500.02, -187500.02, -187500.02, -187500.02, -187500.02, -187500.02, -187500.02, 0.000, 0.000, 0.000, 14:46:40.554
232, 72405.48, -187500.02, -187500.02, -187500.02, -187500.02, -187500.02, -187500.02, -187500.02, 0.000, 0.000, 0.000, 14:46:40.554
233, 72993.55, -187500.02, -187500.02, -187500.02, -187500.02, -187500.02, -187500.02, -187500.02, 0.000, 0.000, 0.000, 14:46:40.554
234, 72851.58, -187500.02, -187500.02, -187500.02, -187500.02, -187500.02, -187500.02, -187500.02, 0.000, 0.000, 0.000, 14:46:40.554
235, 72415.42, -187500.02, -187500.02, -187500.02, -187500.02, -187500.02, -187500.02, -187500.02, -0.352, -0.796, 0.522, 14:46:40.554
236, 72335.07, -187500.02, -187500.02, -187500.02, -187500.02, -187500.02, -187500.02, -187500.02, 0.000, 0.000, 0.000, 14:46:40.554
237, 72925.80, -187500.02, -187500.02, -187500.02, -187500.02, -187500.02, -187500.02, -187500.02, 0.000, 0.000, 0.000, 14:46:40.555
238, 72911.45, -187500.02, -187500.02, -187500.02, -187500.02, -187500.02, -187500.02, -187500.02, 0.000, 0.000, 0.000, 14:46:40.555
239, 72496.54, -187500.02, -187500.02, -187500.02, -187500.02, -187500.02, -187500.02, -187500.02, 0.000, 0.000, 0.000, 14:46:40.555
240, 72299.98, -187500.02, -187500.02, -187500.02, -187500.02, -187500.02, -187500.02, -187500.02, 0.000, 0.000, 0.000, 14:46:41.020
241, 72851.22, -187500.02, -187500.02, -187500.02, -187500.02, -187500.02, -187500.02, -187500.02, 0.000, 0.000, 0.000, 14:46:41.021
242, 72960.92, -187500.02, -187500.02, -187500.02, -187500.02, -187500.02, -187500.02, -187500.02, 0.000, 0.000, 0.000, 14:46:41.021
243, 72625.11, -187500.02, -187500.02, -187500.02, -187500.02, -187500.02, -187500.02, -187500.02, 0.000, 0.000, 0.000, 14:46:41.021
244, 72322.95, -187500.02, -187500.02, -187500.02, -187500.02, -187500.02, -187500.02, -187500.02, 0.000, 0.000, 0.000, 14:46:41.021
245, 72803.16, -187500.02, -187500.02, -187500.02, -187500.02, -187500.02, -187500.02, -187500.02, -0.352, -0.794, 0.522, 14:46:41.021
246, 73023.17, -187500.02, -187500.02, -187500.02, -187500.02, -187500.02, -187500.02, -187500.02, 0.000, 0.000, 0.000, 14:46:41.021
247, 72657.67, -187500.02, -187500.02, -187500.02, -187500.02, -187500.02, -187500.02, -187500.02, 0.000, 0.000, 0.000, 14:46:41.022
248, 72285.18, -187500.02, -187500.02, -187500.02, -187500.02, -187500.02, -187500.02, -187500.02, 0.000, 0.000, 0.000, 14:46:41.022
249, 72643.23, -187500.02, -187500.02, -187500.02, -187500.02, -187500.02, -187500.02, -187500.02, 0.000, 0.000, 0.000, 14:46:41.022
250, 73030.57, -187500.02, -187500.02, -187500.02, -187500.02, -187500.02, -187500.02, -187500.02, 0.000, 0.000, 0.000, 14:46:41.022
251, 72733.55, -187500.02, -187500.02, -187500.02, -187500.02, -187500.02, -187500.02, -187500.02, 0.000, 0.000, 0.000, 14:46:41.022
252, 72308.92, -187500.02, -187500.02, -187500.02, -187500.02, -187500.02, -187500.02, -187500.02, 0.000, 0.000, 0.000, 14:46:41.022
253, 72514.17, -187500.02, -187500.02, -187500.02, -187500.02, -187500.02, -187500.02, -187500.02, 0.000, 0.000, 0.000, 14:46:41.022
254, 73021.90, -187500.02, -187500.02, -187500.02, -187500.02, -187500.02, -187500.02, -187500.02, 0.000, 0.000, 0.000, 14:46:41.023
255, 72842.57, -187500.02, -187500.02, -187500.02, -187500.02, -187500.02, -187500.02, -187500.02, -0.348, -0.794, 0.522, 14:46:41.023
0, 72391.91, -187500.02, -187500.02, -187500.02, -187500.02, -187500.02, -187500.02, -187500.02, 0.000, 0.000, 0.000, 14:46:41.023
1, 72411.85, -187500.02, -187500.02, -187500.02, -187500.02, -187500.02, -187500.02, -187500.02, 0.000, 0.000, 0.000, 14:46:41.023
2, 72959.80, -187500.02, -187500.02, -187500.02, -187500.02, -187500.02, -187500.02, -187500.02, 0.000, 0.000, 0.000, 14:46:41.023
3, 72864.07, -187500.02, -187500.02, -187500.02, -187500.02, -187500.02, -187500.02, -187500.02, 0.000, 0.000, 0.000, 14:46:41.023
4, 72412.05, -187500.02, -187500.02, -187500.02, -187500.02, -187500.02, -187500.02, -187500.02, 0.000, 0.000, 0.000, 14:46:41.023
5, 72281.72, -187500.02, -187500.02, -187500.02, -187500.02, -187500.02, -187500.02, -187500.02, 0.000, 0.000, 0.000, 14:46:41.024
6, 72875.00, -187500.02, -187500.02, -187500.02, -187500.02, -187500.02, -187500.02, -187500.02, 0.000, 0.000, 0.000, 14:46:41.024
7, 72892.45, -187500.02, -187500.02, -187500.02, -187500.02, -187500.02, -187500.02, -187500.02, 0.000, 0.000, 0.000, 14:46:41.024
8, 72455.48, -187500.02, -187500.02, -187500.02, -187500.02, -187500.02, -187500.02, -187500.02, 0.000, 0.000, 0.000, 14:46:41.024
9, 72236.74, -187500.02, -187500.02, -187500.02, -187500.02, -187500.02, -187500.02, -187500.02, -0.350, -0.794, 0.524, 14:46:41.024
10, 72810.42, -187500.02, -187500.02, -187500.02, -187500.02, -187500.02, -187500.02, -187500.02, 0.000, 0.000, 0.000, 14:46:41.024
11, 72979.80, -187500.02, -187500.02, -187500.02, -187500.02, -187500.02, -187500.02, -187500.02, 0.000, 0.000, 0.000, 14:46:41.024
12, 72576.31, -187500.02, -187500.02, -187500.02, -187500.02, -187500.02, -187500.02, -187500.02, 0.000, 0.000, 0.000, 14:46:41.025
13, 72212.63, -187500.02, -187500.02, -187500.02, -187500.02, -187500.02, -187500.02, -187500.02, 0.000, 0.000, 0.000, 14:46:41.025
14, 72709.20, -187500.02, -187500.02, -187500.02, -187500.02, -187500.02, -187500.02, -187500.02, 0.000, 0.000, 0.000, 14:46:41.025
15, 73053.10, -187500.02, -187500.02, -187500.02, -187500.02, -187500.02, -187500.02, -187500.02, 0.000, 0.000, 0.000, 14:46:41.025
16, 72702.42, -187500.02, -187500.02, -187500.02, -187500.02, -187500.02, -187500.02, -187500.02, 0.000, 0.000, 0.000, 14:46:41.025
17, 72262.96, -187500.02, -187500.02, -187500.02, -187500.02, -187500.02, -187500.02, -187500.02, 0.000, 0.000, 0.000, 14:46:41.025
18, 72573.85, -187500.02, -187500.02, -187500.02, -187500.02, -187500.02, -187500.02, -187500.02, 0.000, 0.000, 0.000, 14:46:41.025
19, 73013.89, -187500.02, -187500.02, -187500.02, -187500.02, -187500.02, -187500.02, -187500.02, -0.348, -0.798, 0.524, 14:46:41.025
20, 72739.77, -187500.02, -187500.02, -187500.02, -187500.02, -187500.02, -187500.02, -187500.02, 0.000, 0.000, 0.000, 14:46:41.026
21, 72326.13, -187500.02, -187500.02, -187500.02, -187500.02, -187500.02, -187500.02, -187500.02, 0.000, 0.000, 0.000, 14:46:41.026
22, 72507.13, -187500.02, -187500.02, -187500.02, -187500.02, -187500.02, -187500.02, -187500.02, 0.000, 0.000, 0.000, 14:46:41.026
23, 73051.89, -187500.02, -187500.02, -187500.02, -187500.02, -187500.02, -187500.02, -187500.02, 0.000, 0.000, 0.000, 14:46:41.026
24, 72882.29, -187500.02, -187500.02, -187500.02, -187500.02, -187500.02, -187500.02, -187500.02, 0.000, 0.000, 0.000, 14:46:41.026
25, 72413.41, -187500.02, -187500.02, -187500.02, -187500.02, -187500.02, -187500.02, -187500.02, 0.000, 0.000, 0.000, 14:46:41.026
26, 72374.52, -187500.02, -187500.02, -187500.02, -187500.02, -187500.02, -187500.02, -187500.02, 0.000, 0.000, 0.000, 14:46:41.026
27, 72949.01, -187500.02, -187500.02, -187500.02, -187500.02, -187500.02, -187500.02, -187500.02, 0.000, 0.000, 0.000, 14:46:41.027
28, 72909.17, -187500.02, -187500.02, -187500.02, -187500.02, -187500.02, -187500.02, -187500.02, 0.000, 0.000, 0.000, 14:46:41.027
29, 72488.31, -187500.02, -187500.02, -187500.02, -187500.02, -187500.02, -187500.02, -187500.02, -0.344, -0.792, 0.524, 14:46:41.027
30, 72328.97, -187500.02, -187500.02, -187500.02, -187500.02, -187500.02, -187500.02, -187500.02, 0.000, 0.000, 0.000, 14:46:41.027
31, 72906.88, -187500.02, -187500.02, -187500.02, -187500.02, -187500.02, -187500.02, -187500.02, 0.000, 0.000, 0.000, 14:46:41.027
32, 72969.19, -187500.02, -187500.02, -187500.02, -187500.02, -187500.02, -187500.02, -187500.02, 0.000, 0.000, 0.000, 14:46:41.027
33, 72547.86, -187500.02, -187500.02, -187500.02, -187500.02, -187500.02, -187500.02, -187500.02, 0.000, 0.000, 0.000, 14:46:41.027
34, 72256.19, -187500.02, -187500.02, -187500.02, -187500.02, -187500.02, -187500.02, -187500.02, 0.000, 0.000, 0.000, 14:46:41.028
35, 72786.91, -187500.02, -187500.02, -187500.02, -187500.02, -187500.02, -187500.02, -187500.02, 0.000, 0.000, 0.000, 14:46:41.028
36, 72977.19, -187500.02, -187500.02, -187500.02, -187500.02, -187500.02, -187500.02, -187500.02, 0.000, 0.000, 0.000, 14:46:41.028
37, 72601.01, -187500.02, -187500.02, -187500.02, -187500.02, -187500.02, -187500.02, -187500.02, 0.000, 0.000, 0.000, 14:46:41.028
38, 72237.73, -187500.02, -187500.02, -187500.02, -187500.02, -187500.02, -187500.02, -187500.02, -0.342, -0.796, 0.520, 14:46:41.028
39, 72674.95, -187500.02, -187500.02, -187500.02, -187500.02, -187500.02, -187500.02, -187500.02, 0.000, 0.000, 0.000, 14:46:41.028
40, 73040.27, -187500.02, -187500.02, -187500.02, -187500.02, -187500.02, -187500.02, -187500.02, 0.000, 0.000, 0.000, 14:46:41.028
41, 72709.57, -187500.02, -187500.02, -187500.02, -187500.02, -187500.02, -187500.02, -187500.02, 0.000, 0.000, 0.000, 14:46:41.029
42, 72282.41, -187500.02, -187500.02, -187500.02, -187500.02, -187500.02, -187500.02, -187500.02, 0.000, 0.000, 0.000, 14:46:41.029
43, 72566.32, -187500.02, -187500.02, -187500.02, -187500.02, -187500.02, -187500.02, -187500.02, 0.000, 0.000, 0.000, 14:46:41.029
44, 73033.23, -187500.02, -187500.02, -187500.02, -187500.02, -187500.02, -187500.02, -187500.02, 0.000, 0.000, 0.000, 14:46:41.029
45, 72810.96, -187500.02, -187500.02, -187500.02, -187500.02, -187500.02, -187500.02, -187500.02, 0.000, 0.000, 0.000, 14:46:41.029
46, 72364.06, -187500.02, -187500.02, -187500.02, -187500.02, -187500.02, -187500.02, -187500.02, 0.000, 0.000, 0.000, 14:46:41.029
47, 72467.95, -187500.02, -187500.02, -187500.02, -187500.02, -187500.02, -187500.02, -187500.02, 0.000, 0.000, 0.000, 14:46:41.029
48, 73016.71, -187500.02, -187500.02, -187500.02, -187500.02, -187500.02, -187500.02, -187500.02, -0.350, -0.798, 0.522, 14:46:41.029
49, 72843.26, -187500.02, -187500.02, -187500.02, -187500.02, -187500.02, -187500.02, -187500.02, 0.000, 0.000, 0.000, 14:46:41.030
50, 72412.20, -187500.02, -187500.02, -187500.02, -187500.02, -187500.02, -187500.02, -187500.02, 0.000, 0.000, 0.000, 14:46:41.030
51, 72371.46, -187500.02, -187500.02, -187500.02, -187500.02, -187500.02, -187500.02, -187500.02, 0.000, 0.000, 0.000, 14:46:41.030
52, 72953.81, -187500.02, -187500.02, -187500.02, -187500.02, -187500.02, -187500.02, -187500.02, 0.000, 0.000, 0.000, 14:46:41.030
53, 72928.06, -187500.02, -187500.02, -187500.02, -187500.02, -187500.02, -187500.02, -187500.02, 0.000, 0.000, 0.000, 14:46:41.030
54, 72480.85, -187500.02, -187500.02, -187500.02, -187500.02, -187500.02, -187500.02, -187500.02, 0.000, 0.000, 0.000, 14:46:41.030
55, 72275.10, -187500.02, -187500.02, -187500.02, -187500.02, -187500.02, -187500.02, -187500.02, 0.000, 0.000, 0.000, 14:46:41.030
56, 72865.55, -187500.02, -187500.02, -187500.02, -187500.02, -187500.02, -187500.02, -187500.02, 0.000, 0.000, 0.000, 14:46:41.031
57, 72998.88, -187500.02, -187500.02, -187500.02, -187500.02, -187500.02, -187500.02, -187500.02, 0.000, 0.000, 0.000, 14:46:41.031
58, 72606.31, -187500.02, -187500.02, -187500.02, -187500.02, -187500.02, -187500.02, -187500.02, -0.348, -0.802, 0.524, 14:46:41.031
59, 72274.59, -187500.02, -187500.02, -187500.02, -187500.02, -187500.02, -187500.02, -187500.02, 0.000, 0.000, 0.000, 14:46:41.031
60, 72761.63, -187500.02, -187500.02, -187500.02, -187500.02, -187500.02, -187500.02, -187500.02, 0.000, 0.000, 0.000, 14:46:41.031
61, 73025.36, -187500.02, -187500.02, -187500.02, -187500.02, -187500.02, -187500.02, -187500.02, 0.000, 0.000, 0.000, 14:46:41.031
62, 72648.06, -187500.02, -187500.02, -187500.02, -187500.02, -187500.02, -187500.02, -187500.02, 0.000, 0.000, 0.000, 14:46:41.031
63, 72266.09, -187500.02, -187500.02, -187500.02, -187500.02, -187500.02, -187500.02, -187500.02, 0.000, 0.000, 0.000, 14:46:41.031
64, 72663.13, -187500.02, -187500.02, -187500.02, -187500.02, -187500.02, -187500.02, -187500.02, 0.000, 0.000, 0.000, 14:46:41.032
65, 73045.70, -187500.02, -187500.02, -187500.02, -187500.02, -187500.02, -187500.02, -187500.02, 0.000, 0.000, 0.000, 14:46:41.032
66, 72734.61, -187500.02, -187500.02, -187500.02, -187500.02, -187500.02, -187500.02, -187500.02, 0.000, 0.000, 0.000, 14:46:41.032
67, 72313.05, -187500.02, -187500.02, -187500.02, -187500.02, -187500.02, -187500.02, -187500.02, 0.000, 0.000, 0.000, 14:46:41.032
68, 72530.11, -187500.02, -187500.02, -187500.02, -187500.02, -187500.02, -187500.02, -187500.02, -0.352, -0.796, 0.526, 14:46:41.032
69, 73029.05, -187500.02, -187500.02, -187500.02, -187500.02, -187500.02, -187500.02, -187500.02, 0.000, 0.000, 0.000, 14:46:41.032
70, 72819.03, -187500.02, -187500.02, -187500.02, -187500.02, -187500.02, -187500.02, -187500.02, 0.000, 0.000, 0.000, 14:46:41.032
71, 72377.43, -187500.02, -187500.02, -187500.02, -187500.02, -187500.02, -187500.02, -187500.02, 0.000, 0.000, 0.000, 14:46:41.033
72, 72431.85, -187500.02, -187500.02, -187500.02, -187500.02, -187500.02, -187500.02, -187500.02, 0.000, 0.000, 0.000, 14:46:41.033
73, 73006.02, -187500.02, -187500.02, -187500.02, -187500.02, -187500.02, -187500.02, -187500.02, 0.000, 0.000, 0.000, 14:46:41.033
74, 72895.36, -187500.02, -187500.02, -187500.02, -187500.02, -187500.02, -187500.02, -187500.02, 0.000, 0.000, 0.000, 14:46:41.033
75, 72455.73, -187500.02, -187500.02, -187500.02, -187500.02, -187500.02, -187500.02, -187500.02, 0.000, 0.000, 0.000, 14:46:41.033
76, 72367.44, -187500.02, -187500.02, -187500.02, -187500.02, -187500.02, -187500.02, -187500.02, 0.000, 0.000, 0.000, 14:46:41.033
77, 72959.31, -187500.02, -187500.02, -187500.02, -187500.02, -187500.02, -187500.02, -187500.02, 0.000, 0.000, 0.000, 14:46:41.033
78, 72960.41, -187500.02, -187500.02, -187500.02, -187500.02, -187500.02, -187500.02, -187500.02, -0.350, -0.792, 0.526, 14:46:41.034
79, 72512.12, -187500.02, -187500.02, -187500.02, -187500.02, -187500.02, -187500.02, -187500.02, 0.000, 0.000, 0.000, 14:46:41.034
80, 72271.21, -187500.02, -187500.02, -187500.02, -187500.02, -187500.02, -187500.02, -187500.02, 0.000, 0.000, 0.000, 14:46:41.034
81, 72847.98, -187500.02, -187500.02, -187500.02, -187500.02, -187500.02, -187500.02, -187500.02, 0.000, 0.000, 0.000, 14:46:41.034
82, 72992.63, -187500.02, -187500.02, -187500.02, -187500.02, -187500.02, -187500.02, -187500.02, 0.000, 0.000, 0.000, 14:46:41.034
83, 72597.46, -187500.02, -187500.02, -187500.02, -187500.02, -187500.02, -187500.02, -187500.02, 0.000, 0.000, 0.000, 14:46:41.034
84, 72253.30, -187500.02, -187500.02, -187500.02, -187500.02, -187500.02, -187500.02, -187500.02, 0.000, 0.000, 0.000, 14:46:41.034
85, 72728.55, -187500.02, -187500.02, -187500.02, -187500.02, -187500.02, -187500.02, -187500.02, 0.000, 0.000, 0.000, 14:46:41.034
86, 73033.88, -187500.02, -187500.02, -187500.02, -187500.02, -187500.02, -187500.02, -187500.02, 0.000, 0.000, 0.000, 14:46:41.035
87, 72684.27, -187500.02, -187500.02, -187500.02, -187500.02, -187500.02, -187500.02, -187500.02, 0.000, 0.000, 0.000, 14:46:41.035
88, 72261.45, -187500.02, -187500.02, -187500.02, -187500.02, -187500.02, -187500.02, -187500.02, -0.352, -0.798, 0.522, 14:46:41.035
89, 72590.04, -187500.02, -187500.02, -187500.02, -187500.02, -187500.02, -187500.02, -187500.02, 0.000, 0.000, 0.000, 14:46:41.035
90, 73035.41, -187500.02, -187500.02, -187500.02, -187500.02, -187500.02, -187500.02, -187500.02, 0.000, 0.000, 0.000, 14:46:41.035
91, 72765.95, -187500.02, -187500.02, -187500.02, -187500.02, -187500.02, -187500.02, -187500.02, 0.000, 0.000, 0.000, 14:46:41.035
92, 72334.34, -187500.02, -187500.02, -187500.02, -187500.02, -187500.02, -187500.02, -187500.02, 0.000, 0.000, 0.000, 14:46:41.035
93, 72493.70, -187500.02, -187500.02, -187500.02, -187500.02, -187500.02, -187500.02, -187500.02, 0.000, 0.000, 0.000, 14:46:41.036
94, 73022.48, -187500.02, -187500.02, -187500.02, -187500.02, -187500.02, -187500.02, -187500.02, 0.000, 0.000, 0.000, 14:46:41.036
95, 72832.55, -187500.02, -187500.02, -187500.02, -187500.02, -187500.02, -187500.02, -187500.02, 0.000, 0.000, 0.000, 14:46:41.036
96, 72377.96, -187500.02, -187500.02, -187500.02, -187500.02, -187500.02, -187500.02, -187500.02, 0.000, 0.000, 0.000, 14:46:41.036
97, 72388.20, -187500.02, -187500.02, -187500.02, -187500.02, -187500.02, -187500.02, -187500.02, 0.000, 0.000, 0.000, 14:46:41.036
98, 72974.82, -187500.02, -187500.02, -187500.02, -187500.02, -187500.02, -187500.02, -187500.02, -0.344, -0.794, 0.522, 14:46:41.036
99, 72892.03, -187500.02, -187500.02, -187500.02, -187500.02, -187500.02, -187500.02, -187500.02, 0.000, 0.000, 0.000, 14:46:41.036
100, 72437.73, -187500.02, -187500.02, -187500.02, -187500.02, -187500.02, -187500.02, -187500.02, 0.000, 0.000, 0.000, 14:46:41.037
101, 72309.52, -187500.02, -187500.02, -187500.02, -187500.02, -187500.02, -187500.02, -187500.02, 0.000, 0.000, 0.000, 14:46:41.037
102, 72904.44, -187500.02, -187500.02, -187500.02, -187500.02, -187500.02, -187500.02, -187500.02, 0.000, 0.000, 0.000, 14:46:41.037
103, 72964.54, -187500.02, -187500.02, -187500.02, -187500.02, -187500.02, -187500.02, -187500.02, 0.000, 0.000, 0.000, 14:46:41.037
104, 72560.53, -187500.02, -187500.02, -187500.02, -187500.02, -187500.02, -187500.02, -187500.02, 0.000, 0.000, 0.000, 14:46:41.037
105, 72282.12, -187500.02, -187500.02, -187500.02, -187500.02, -187500.02, -187500.02, -187500.02, 0.000, 0.000, 0.000, 14:46:41.500
106, 72830.12, -187500.02, -187500.02, -187500.02, -187500.02, -187500.02, -187500.02, -187500.02, 0.000, 0.000, 0.000, 14:46:41.500
107, 72995.99, -187500.02, -187500.02, -187500.02, -187500.02, -187500.02, -187500.02, -187500.02, 0.000, 0.000, 0.000, 14:46:41.500
108, 72595.42, -187500.02, -187500.02, -187500.02, -187500.02, -187500.02, -187500.02, -187500.02, -0.348, -0.792, 0.520, 14:46:41.500
109, 72220.92, -187500.02, -187500.02, -187500.02, -187500.02, -187500.02, -187500.02, -187500.02, 0.000, 0.000, 0.000, 14:46:41.500
110, 72673.21, -187500.02, -187500.02, -187500.02, -187500.02, -187500.02, -187500.02, -187500.02, 0.000, 0.000, 0.000, 14:46:41.500
111, 73054.87, -187500.02, -187500.02, -187500.02, -187500.02, -187500.02, -187500.02, -187500.02, 0.000, 0.000, 0.000, 14:46:41.501
112, 72719.70, -187500.02, -187500.02, -187500.02, -187500.02, -187500.02, -187500.02, -187500.02, 0.000, 0.000, 0.000, 14:46:41.501
113, 72274.48, -187500.02, -187500.02, -187500.02, -187500.02, -187500.02, -187500.02, -187500.02, 0.000, 0.000, 0.000, 14:46:41.501
114, 72562.21, -187500.02, -187500.02, -187500.02, -187500.02, -187500.02, -187500.02, -187500.02, 0.000, 0.000, 0.000, 14:46:41.501
115, 73042.88, -187500.02, -187500.02, -187500.02, -187500.02, -187500.02, -187500.02, -187500.02, 0.000, 0.000, 0.000, 14:46:41.501
116, 72793.44, -187500.02, -187500.02, -187500.02, -187500.02, -187500.02, -187500.02, -187500.02, 0.000, 0.000, 0.000, 14:46:41.502
117, 72352.95, -187500.02, -187500.02, -187500.02, -187500.02, -187500.02, -187500.02, -187500.02, 0.000, 0.000, 0.000, 14:46:41.502
118, 72496.41, -187500.02, -187500.02, -187500.02, -187500.02, -187500.02, -187500.02, -187500.02, -0.344, -0.796, 0.518, 14:46:41.502
119, 73022.23, -187500.02, -187500.02, -187500.02, -187500.02, -187500.02, -187500.02, -187500.02, 0.000, 0.000, 0.000, 14:46:41.502
120, 72845.96, -187500.02, -187500.02, -187500.02, -187500.02, -187500.02, -187500.02, -187500.02, 0.000, 0.000, 0.000, 14:46:41.502
121, 72409.46, -187500.02, -187500.02, -187500.02, -187500.02, -187500.02, -187500.02, -187500.02, 0.000, 0.000, 0.000, 14:46:41.502
122, 72377.98, -187500.02, -187500.02, -187500.02, -187500.02, -187500.02, -187500.02, -187500.02, 0.000, 0.000, 0.000, 14:46:41.503
123, 72978.63, -187500.02, -187500.02, -187500.02, -187500.02, -187500.02, -187500.02, -187500.02, 0.000, 0.000, 0.000, 14:46:41.503
124, 72920.38, -187500.02, -187500.02, -187500.02, -187500.02, -187500.02, -187500.02, -187500.02, 0.000, 0.000, 0.000, 14:46:41.503
125, 72478.45, -187500.02, -187500.02, -187500.02, -187500.02, -187500.02, -187500.02, -187500.02, 0.000, 0.000, 0.000, 14:46:41.503
126, 72283.20, -187500.02, -187500.02, -187500.02, -187500.02, -187500.02, -187500.02, -187500.02, 0.000, 0.000, 0.000, 14:46:41.503
127, 72885.77, -187500.02, -187500.02, -187500.02, -187500.02, -187500.02, -187500.02, -187500.02, 0.000, 0.000, 0.000, 14:46:41.503
128, 72996.86, -187500.02, -187500.02, -187500.02, -187500.02, -187500.02, -187500.02, -187500.02, -0.350, -0.796, 0.514, 14:46:41.503
129, 72591.63, -187500.02, -187500.02, -187500.02, -187500.02, -187500.02, -187500.02, -187500.02, 0.000, 0.000, 0.000, 14:46:41.503
130, 72280.66, -187500.02, -187500.02, -187500.02, -187500.02, -187500.02, -187500.02, -187500.02, 0.000, 0.000, 0.000, 14:46:41.503
131, 72775.42, -187500.02, -187500.02, -187500.02, -187500.02, -187500.02, -187500.02, -187500.02, 0.000, 0.000, 0.000, 14:46:41.504
132, 73022.50, -187500.02, -187500.02, -187500.02, -187500.02, -187500.02, -187500.02, -187500.02, 0.000, 0.000, 0.000, 14:46:41.504
133, 72659.13, -187500.02, -187500.02, -187500.02, -187500.02, -187500.02, -187500.02, -187500.02, 0.000, 0.000, 0.000, 14:46:41.504
134, 72263.39, -187500.02, -187500.02, -187500.02, -187500.02, -187500.02, -187500.02, -187500.02, 0.000, 0.000, 0.000, 14:46:41.504
135, 72639.88, -187500.02, -187500.02, -187500.02, -187500.02, -187500.02, -187500.02, -187500.02, 0.000, 0.000, 0.000, 14:46:41.504
136, 73016.73, -187500.02, -187500.02, -187500.02, -187500.02, -187500.02, -187500.02, -187500.02, 0.000, 0.000, 0.000, 14:46:41.504
137, 72726.72, -187500.02, -187500.02, -187500.02, -187500.02, -187500.02, -187500.02, -187500.02, 0.000, 0.000, 0.000, 14:46:41.504
138, 72329.44, -187500.02, -187500.02, -187500.02, -187500.02, -187500.02, -187500.02, -187500.02, -0.354, -0.794, 0.516, 14:46:41.504
139, 72563.46, -187500.02, -187500.02, -187500.02, -187500.02, -187500.02, -187500.02, -187500.02, 0.000, 0.000, 0.000, 14:46:41.505
140, 73043.11, -187500.02, -187500.02, -187500.02, -187500.02, -187500.02, -187500.02, -187500.02, 0.000, 0.000, 0.000, 14:46:41.505
141, 72818.70, -187500.02, -187500.02, -187500.02, -187500.02, -187500.02, -187500.02, -187500.02, 0.000, 0.000, 0.000, 14:46:41.505
142, 72368.64, -187500.02, -187500.02, -187500.02, -187500.02, -187500.02, -187500.02, -187500.02, 0.000, 0.000, 0.000, 14:46:41.505
143, 72442.52, -187500.02, -187500.02, -187500.02, -187500.02, -187500.02, -187500.02, -187500.02, 0.000, 0.000, 0.000, 14:46:41.505
144, 73021.29, -187500.02, -187500.02, -187500.02, -187500.02, -187500.02, -187500.02, -187500.02, 0.000, 0.000, 0.000, 14:46:41.505
145, 72901.35, -187500.02, -187500.02, -187500.02, -187500.02, -187500.02, -187500.02, -187500.02, 0.000, 0.000, 0.000, 14:46:41.505
146, 72451.50, -187500.02, -187500.02, -187500.02, -187500.02, -187500.02, -187500.02, -187500.02, 0.000, 0.000, 0.000, 14:46:41.506
147, 72360.26, -187500.02, -187500.02, -187500.02, -187500.02, -187500.02, -187500.02, -187500.02, 0.000, 0.000, 0.000, 14:46:41.506
148, 72974.55, -187500.02, -187500.02, -187500.02, -187500.02, -187500.02, -187500.02, -187500.02, -0.342, -0.798, 0.516, 14:46:41.506
149, 72967.78, -187500.02, -187500.02, -187500.02, -187500.02, -187500.02, -187500.02, -187500.02, 0.000, 0.000, 0.000, 14:46:41.506
150, 72515.18, -187500.02, -187500.02, -187500.02, -187500.02, -187500.02, -187500.02, -187500.02, 0.000, 0.000, 0.000, 14:46:41.506
151, 72285.72, -187500.02, -187500.02, -187500.02, -187500.02, -187500.02, -187500.02, -187500.02, 0.000, 0.000, 0.000, 14:46:41.506
152, 72869.43, -187500.02, -187500.02, -187500.02, -187500.02, -187500.02, -187500.02, -187500.02, 0.000, 0.000, 0.000, 14:46:41.506
153, 73004.73, -187500.02, -187500.02, -187500.02, -187500.02, -187500.02, -187500.02, -187500.02, 0.000, 0.000, 0.000, 14:46:41.507
154, 72592.18, -187500.02, -187500.02, -187500.02, -187500.02, -187500.02, -187500.02, -187500.02, 0.000, 0.000, 0.000, 14:46:41.507
155, 72255.86, -187500.02, -187500.02, -187500.02, -187500.02, -187500.02, -187500.02, -187500.02, 0.000, 0.000, 0.000, 14:46:41.507
156, 72756.24, -187500.02, -187500.02, -187500.02, -187500.02, -187500.02, -187500.02, -187500.02, 0.000, 0.000, 0.000, 14:46:41.507
157, 73049.48, -187500.02, -187500.02, -187500.02, -187500.02, -187500.02, -187500.02, -187500.02, 0.000, 0.000, 0.000, 14:46:41.507
158, 72711.09, -187500.02, -187500.02, -187500.02, -187500.02, -187500.02, -187500.02, -187500.02, -0.342, -0.792, 0.528, 14:46:41.507
159, 72297.72, -187500.02, -187500.02, -187500.02, -187500.02, -187500.02, -187500.02, -187500.02, 0.000, 0.000, 0.000, 14:46:41.507
160, 72641.98, -187500.02, -187500.02, -187500.02, -187500.02, -187500.02, -187500.02, -187500.02, 0.000, 0.000, 0.000, 14:46:41.507
161, 73047.20, -187500.02, -187500.02, -187500.02, -187500.02, -187500.02, -187500.02, -187500.02, 0.000, 0.000, 0.000, 14:46:41.508
162, 72753.61, -187500.02, -187500.02, -187500.02, -187500.02, -187500.02, -187500.02, -187500.02, 0.000, 0.000, 0.000, 14:46:41.508
163, 72312.63, -187500.02, -187500.02, -187500.02, -187500.02, -187500.02, -187500.02, -187500.02, 0.000, 0.000, 0.000, 14:46:41.508
164, 72517.93, -187500.02, -187500.02, -187500.02, -187500.02, -187500.02, -187500.02, -187500.02, 0.000, 0.000, 0.000, 14:46:41.508
165, 73046.98, -187500.02, -187500.02, -187500.02, -187500.02, -187500.02, -187500.02, -187500.02, 0.000, 0.000, 0.000, 14:46:41.508
166, 72857.14, -187500.02, -187500.02, -187500.02, -187500.02, -187500.02, -187500.02, -187500.02, 0.000, 0.000, 0.000, 14:46:41.508
167, 72385.30, -187500.02, -187500.02, -187500.02, -187500.02, -187500.02, -187500.02, -187500.02, 0.000, 0.000, 0.000, 14:46:41.508
168, 72402.51, -187500.02, -187500.02, -187500.02, -187500.02, -187500.02, -187500.02, -187500.02, -0.346, -0.788, 0.522, 14:46:41.508
169, 72990.42, -187500.02, -187500.02, -187500.02, -187500.02, -187500.02, -187500.02, -187500.02, 0.000, 0.000, 0.000, 14:46:41.508
170, 72922.77, -187500.02, -187500.02, -187500.02, -187500.02, -187500.02, -187500.02, -187500.02, 0.000, 0.000, 0.000, 14:46:41.509
171, 72474.26, -187500.02, -187500.02, -187500.02, -187500.02, -187500.02, -187500.02, -187500.02, 0.000, 0.000, 0.000, 14:46:41.509
172, 72338.58, -187500.02, -187500.02, -187500.02, -187500.02, -187500.02, -187500.02, -187500.02, 0.000, 0.000, 0.000, 14:46:41.509
173, 72942.48, -187500.02, -187500.02, -187500.02, -187500.02, -187500.02, -187500.02, -187500.02, 0.000, 0.000, 0.000, 14:46:41.509
174, 72966.38, -187500.02, -187500.02, -187500.02, -187500.02, -187500.02, -187500.02, -187500.02, 0.000, 0.000, 0.000, 14:46:41.509
175, 72555.28, -187500.02, -187500.02, -187500.02, -187500.02, -187500.02, -187500.02, -187500.02, 0.000, 0.000, 0.000, 14:46:41.509
176, 72293.16, -187500.02, -187500.02, -187500.02, -187500.02, -187500.02, -187500.02, -187500.02, 0.000, 0.000, 0.000, 14:46:41.509
177, 72837.63, -187500.02, -187500.02, -187500.02, -187500.02, -187500.02, -187500.02, -187500.02, -0.346, -0.790, 0.520, 14:46:41.509
178, 73011.86, -187500.02, -187500.02, -187500.02, -187500.02, -187500.02, -187500.02, -187500.02, 0.000, 0.000, 0.000, 14:46:41.510
179, 72630.05, -187500.02, -187500.02, -187500.02, -187500.02, -187500.02, -187500.02, -187500.02, 0.000, 0.000, 0.000, 14:46:41.510
180, 72275.10, -187500.02, -187500.02, -187500.02, -187500.02, -187500.02, -187500.02, -187500.02, 0.000, 0.000, 0.000, 14:46:41.510
181, 72725.78, -187500.02, -187500.02, -187500.02, -187500.02, -187500.02, -187500.02, -187500.02, 0.000, 0.000, 0.000, 14:46:41.510
182, 73047.24, -187500.02, -187500.02, -187500.02, -187500.02, -187500.02, -187500.02, -187500.02, 0.000, 0.000, 0.000, 14:46:41.510
183, 72711.77, -187500.02, -187500.02, -187500.02, -187500.02, -187500.02, -187500.02, -187500.02, 0.000, 0.000, 0.000, 14:46:41.510
184, 72266.30, -187500.02, -187500.02, -187500.02, -187500.02, -187500.02, -187500.02, -187500.02, 0.000, 0.000, 0.000, 14:46:41.510
185, 72574.28, -187500.02, -187500.02, -187500.02, -187500.02, -187500.02, -187500.02, -187500.02, 0.000, 0.000, 0.000, 14:46:41.510
186, 73072.08, -187500.02, -187500.02, -187500.02, -187500.02, -187500.02, -187500.02, -187500.02, 0.000, 0.000, 0.000, 14:46:41.510
187, 72819.73, -187500.02, -187500.02, -187500.02, -187500.02, -187500.02, -187500.02, -187500.02, -0.348, -0.792, 0.518, 14:46:41.511
188, 72360.41, -187500.02, -187500.02, -187500.02, -187500.02, -187500.02, -187500.02, -187500.02, 0.000, 0.000, 0.000, 14:46:41.511
189, 72476.83, -187500.02, -187500.02, -187500.02, -187500.02, -187500.02, -187500.02, -187500.02, 0.000, 0.000, 0.000, 14:46:41.511
190, 73046.30, -187500.02, -187500.02, -187500.02, -187500.02, -187500.02, -187500.02, -187500.02, 0.000, 0.000, 0.000, 14:46:41.511
191, 72882.87, -187500.02, -187500.02, -187500.02, -187500.02, -187500.02, -187500.02, -187500.02, 0.000, 0.000, 0.000, 14:46:41.511
192, 72423.72, -187500.02, -187500.02, -187500.02, -187500.02, -187500.02, -187500.02, -187500.02, 0.000, 0.000, 0.000, 14:46:41.511
193, 72394.57, -187500.02, -187500.02, -187500.02, -187500.02, -187500.02, -187500.02, -187500.02, 0.000, 0.000, 0.000, 14:46:41.511
194, 72982.45, -187500.02, -187500.02, -187500.02, -187500.02, -187500.02, -187500.02, -187500.02, 0.000, 0.000, 0.000, 14:46:41.511
195, 72928.51, -187500.02, -187500.02, -187500.02, -187500.02, -187500.02, -187500.02, -187500.02, 0.000, 0.000, 0.000, 14:46:41.511
196, 72491.42, -187500.02, -187500.02, -187500.02, -187500.02, -187500.02, -187500.02, -187500.02, 0.000, 0.000, 0.000, 14:46:41.512
197, 72307.76, -187500.02, -187500.02, -187500.02, -187500.02, -187500.02, -187500.02, -187500.02, -0.344, -0.792, 0.518, 14:46:41.512
198, 72906.16, -187500.02, -187500.02, -187500.02, -187500.02, -187500.02, -187500.02, -187500.02, 0.000, 0.000, 0.000, 14:46:41.512
199, 72995.45, -187500.02, -187500.02, -187500.02, -187500.02, -187500.02, -187500.02, -187500.02, 0.000, 0.000, 0.000, 14:46:41.512
200, 72576.60, -187500.02, -187500.02, -187500.02, -187500.02, -187500.02, -187500.02, -187500.02, 0.000, 0.000, 0.000, 14:46:41.512
201, 72271.97, -187500.02, -187500.02, -187500.02, -187500.02, -187500.02, -187500.02, -187500.02, 0.000, 0.000, 0.000, 14:46:41.512
202, 72804.03, -187500.02, -187500.02, -187500.02, -187500.02, -187500.02, -187500.02, -187500.02, 0.000, 0.000, 0.000, 14:46:41.512
203, 73036.98, -187500.02, -187500.02, -187500.02, -187500.02, -187500.02, -187500.02, -187500.02, 0.000, 0.000, 0.000, 14:46:41.512
204, 72700.95, -187500.02, -187500.02, -187500.02, -187500.02, -187500.02, -187500.02, -187500.02, 0.000, 0.000, 0.000, 14:46:41.513
205, 72309.61, -187500.02, -187500.02, -187500.02, -187500.02, -187500.02, -187500.02, -187500.02, 0.000, 0.000, 0.000, 14:46:41.513
206, 72684.54, -187500.02, -187500.02, -187500.02, -187500.02, -187500.02, -187500.02, -187500.02, 0.000, 0.000, 0.000, 14:46:41.513
207, 73048.94, -187500.02, -187500.02, -187500.02, -187500.02, -187500.02, -187500.02, -187500.02, -0.350, -0.794, 0.516, 14:46:41.513
208, 72743.15, -187500.02, -187500.02, -187500.02, -187500.02, -187500.02, -187500.02, -187500.02, 0.000, 0.000, 0.000, 14:46:41.513
209, 72302.62, -187500.02, -187500.02, -187500.02, -187500.02, -187500.02, -187500.02, -187500.02, 0.000, 0.000, 0.000, 14:46:41.513
210, 72555.13, -187500.02, -187500.02, -187500.02, -187500.02, -187500.02, -187500.02, -187500.02, 0.000, 0.000, 0.000, 14:46:41.513
211, 73033.70, -187500.02, -187500.02, -187500.02, -187500.02, -187500.02, -187500.02, -187500.02, 0.000, 0.000, 0.000, 14:46:41.513
212, 72813.13, -187500.02, -187500.02, -187500.02, -187500.02, -187500.02, -187500.02, -187500.02, 0.000, 0.000, 0.000, 14:46:41.513
213, 72370.68, -187500.02, -187500.02, -187500.02, -187500.02, -187500.02, -187500.02, -187500.02, 0.000, 0.000, 0.000, 14:46:41.514
214, 72438.27, -187500.02, -187500.02, -187500.02, -187500.02, -187500.02, -187500.02, -187500.02, 0.000, 0.000, 0.000, 14:46:41.514
215, 73005.06, -187500.02, -187500.02, -187500.02, -187500.02, -187500.02, -187500.02, -187500.02, 0.000, 0.000, 0.000, 14:46:41.514
216, 72865.59, -187500.02, -187500.02, -187500.02, -187500.02, -187500.02, -187500.02, -187500.02, 0.000, 0.000, 0.000, 14:46:41.514
217, 72449.73, -187500.02, -187500.02, -187500.02, -187500.02, -187500.02, -187500.02, -187500.02, -0.348, -0.796, 0.522, 14:46:41.514
218, 72396.76, -187500.02, -187500.02, -187500.02, -187500.02, -187500.02, -187500.02, -187500.02, 0.000, 0.000, 0.000, 14:46:41.514
219, 72989.53, -187500.02, -187500.02, -187500.02, -187500.02, -187500.02, -187500.02, -187500.02, 0.000, 0.000, 0.000, 14:46:41.514
220, 72969.13, -187500.02, -187500.02, -187500.02, -187500.02, -187500.02, -187500.02, -187500.02, 0.000, 0.000, 0.000, 14:46:41.514
221, 72542.43, -187500.02, -187500.02, -187500.02, -187500.02, -187500.02, -187500.02, -187500.02, 0.000, 0.000, 0.000, 14:46:41.515
222, 72282.14, -187500.02, -187500.02, -187500.02, -187500.02, -187500.02, -187500.02, -187500.02, 0.000, 0.000, 0.000, 14:46:41.515
223, 72856.72, -187500.02, -187500.02, -187500.02, -187500.02, -187500.02, -187500.02, -187500.02, 0.000, 0.000, 0.000, 14:46:41.515
224, 73017.54, -187500.02, -187500.02, -187500.02, -187500.02, -187500.02, -187500.02, -187500.02, 0.000, 0.000, 0.000, 14:46:41.515
225, 72610.84, -187500.02, -187500.02, -187500.02, -187500.02, -187500.02, -187500.02, -187500.02, 0.000, 0.000, 0.000, 14:46:41.980
226, 72263.77, -187500.02, -187500.02, -187500.02, -187500.02, -187500.02, -187500.02, -187500.02, 0.000, 0.000, 0.000, 14:46:41.980
227, 72756.67, -187500.02, -187500.02, -187500.02, -187500.02, -187500.02, -187500.02, -187500.02, -0.344, -0.796, 0.520, 14:46:41.980
228, 73038.50, -187500.02, -187500.02, -187500.02, -187500.02, -187500.02, -187500.02, -187500.02, 0.000, 0.000, 0.000, 14:46:41.980
229, 72691.11, -187500.02, -187500.02, -187500.02, -187500.02, -187500.02, -187500.02, -187500.02, 0.000, 0.000, 0.000, 14:46:41.980
230, 72291.41, -187500.02, -187500.02, -187500.02, -187500.02, -187500.02, -187500.02, -187500.02, 0.000, 0.000, 0.000, 14:46:41.980
231, 72653.65, -187500.02, -187500.02, -187500.02, -187500.02, -187500.02, -187500.02, -187500.02, 0.000, 0.000, 0.000, 14:46:41.980
232, 73057.52, -187500.02, -187500.02, -187500.02, -187500.02, -187500.02, -187500.02, -187500.02, 0.000, 0.000, 0.000, 14:46:41.980
233, 72760.36, -187500.02, -187500.02, -187500.02, -187500.02, -187500.02, -187500.02, -187500.02, 0.000, 0.000, 0.000, 14:46:41.980
234, 72312.56, -187500.02, -187500.02, -187500.02, -187500.02, -187500.02, -187500.02, -187500.02, 0.000, 0.000, 0.000, 14:46:41.981
235, 72523.98, -187500.02, -187500.02, -187500.02, -187500.02, -187500.02, -187500.02, -187500.02, 0.000, 0.000, 0.000, 14:46:41.981
236, 73057.48, -187500.02, -187500.02, -187500.02, -187500.02, -187500.02, -187500.02, -187500.02, 0.000, 0.000, 0.000, 14:46:41.981
237, 72860.43, -187500.02, -187500.02, -187500.02, -187500.02, -187500.02, -187500.02, -187500.02, -0.346, -0.798, 0.518, 14:46:41.981
238, 72397.45, -187500.02, -187500.02, -187500.02, -187500.02, -187500.02, -187500.02, -187500.02, 0.000, 0.000, 0.000, 14:46:41.981
239, 72426.20, -187500.02, -187500.02, -187500.02, -187500.02, -187500.02, -187500.02, -187500.02, 0.000, 0.000, 0.000, 14:46:41.981
240, 73018.79, -187500.02, -187500.02, -187500.02, -187500.02, -187500.02, -187500.02, -187500.02, 0.000, 0.000, 0.000, 14:46:41.981
241, 72916.82, -187500.02, -187500.02, -187500.02, -187500.02, -187500.02, -187500.02, -187500.02, 0.000, 0.000, 0.000, 14:46:41.981
242, 72457.24, -187500.02, -187500.02, -187500.02, -187500.02, -187500.02, -187500.02, -187500.02, 0.000, 0.000, 0.000, 14:46:41.981
243, 72340.66, -187500.02, -187500.02, -187500.02, -187500.02, -187500.02, -187500.02, -187500.02, 0.000, 0.000, 0.000, 14:46:41.981
244, 72946.10, -187500.02, -187500.02, -187500.02, -187500.02, -187500.02, -187500.02, -187500.02, 0.000, 0.000, 0.000, 14:46:41.981
245, 72948.00, -187500.02, -187500.02, -187500.02, -187500.02, -187500.02, -187500.02, -187500.02, 0.000, 0.000, 0.000, 14:46:41.981
246, 72535.84, -187500.02, -187500.02, -187500.02, -187500.02, -187500.02, -187500.02, -187500.02, 0.000, 0.000, 0.000, 14:46:41.982
247, 72294.10, -187500.02, -187500.02, -187500.02, -187500.02, -187500.02, -187500.02, -187500.02, -0.346, -0.794, 0.518, 14:46:41.982
248, 72857.84, -187500.02, -187500.02, -187500.02, -187500.02, -187500.02, -187500.02, -187500.02, 0.000, 0.000, 0.000, 14:46:41.982
249, 73006.36, -187500.02, -187500.02, -187500.02, -187500.02, -187500.02, -187500.02, -187500.02, 0.000, 0.000, 0.000, 14:46:41.982
250, 72624.34, -187500.02, -187500.02, -187500.02, -187500.02, -187500.02, -187500.02, -187500.02, 0.000, 0.000, 0.000, 14:46:41.982
251, 72249.09, -187500.02, -187500.02, -187500.02, -187500.02, -187500.02, -187500.02, -187500.02, 0.000, 0.000, 0.000, 14:46:41.982
252, 72707.09, -187500.02, -187500.02, -187500.02, -187500.02, -187500.02, -187500.02, -187500.02, 0.000, 0.000, 0.000, 14:46:41.982
253, 73035.35, -187500.02, -187500.02, -187500.02, -187500.02, -187500.02, -187500.02, -187500.02, 0.000, 0.000, 0.000, 14:46:41.982
254, 72721.42, -187500.02, -187500.02, -187500.02, -187500.02, -187500.02, -187500.02, -187500.02, 0.000, 0.000, 0.000, 14:46:41.982
255, 72289.98, -187500.02, -187500.02, -187500.02, -187500.02, -187500.02, -187500.02, -187500.02, 0.000, 0.000, 0.000, 14:46:41.982
0, 72616.91, -187500.02, -187500.02, -187500.02, -187500.02, -187500.02, -187500.02, -187500.02, 0.000, 0.000, 0.000, 14:46:41.982
1, 73067.73, -187500.02, -187500.02, -187500.02, -187500.02, -187500.02, -187500.02, -187500.02, -0.346, -0.798, 0.518, 14:46:41.982
2, 72784.54, -187500.02, -187500.02, -187500.02, -187500.02, -187500.02, -187500.02, -187500.02, 0.000, 0.000, 0.000, 14:46:41.982
3, 72333.59, -187500.02, -187500.02, -187500.02, -187500.02, -187500.02, -187500.02, -187500.02, 0.000, 0.000, 0.000, 14:46:41.983
4, 72475.28, -187500.02, -187500.02, -187500.02, -187500.02, -187500.02, -187500.02, -187500.02, 0.000, 0.000, 0.000, 14:46:41.983
5, 73019.33, -187500.02, -187500.02, -187500.02, -187500.02, -187500.02, -187500.02, -187500.02, 0.000, 0.000, 0.000, 14:46:41.983
6, 72858.66, -187500.02, -187500.02, -187500.02, -187500.02, -187500.02, -187500.02, -187500.02, 0.000, 0.000, 0.000, 14:46:41.983
7, 72398.73, -187500.02, -187500.02, -187500.02, -187500.02, -187500.02, -187500.02, -187500.02, 0.000, 0.000, 0.000, 14:46:41.983
8, 72392.96, -187500.02, -187500.02, -187500.02, -187500.02, -187500.02, -187500.02, -187500.02, 0.000, 0.000, 0.000, 14:46:41.984
9, 73005.06, -187500.02, -187500.02, -187500.02, -187500.02, -187500.02, -187500.02, -187500.02, 0.000, 0.000, 0.000, 14:46:41.984
10, 72951.71, -187500.02, -187500.02, -187500.02, -187500.02, -187500.02, -187500.02, -187500.02, 0.000, 0.000, 0.000, 14:46:41.984
11, 72503.42, -187500.02, -187500.02, -187500.02, -187500.02, -187500.02, -187500.02, -187500.02, -0.348, -0.792, 0.518, 14:46:41.984
12, 72341.73, -187500.02, -187500.02, -187500.02, -187500.02, -187500.02, -187500.02, -187500.02, 0.000, 0.000, 0.000, 14:46:41.984
13, 72940.73, -187500.02, -187500.02, -187500.02, -187500.02, -187500.02, -187500.02, -187500.02, 0.000, 0.000, 0.000, 14:46:41.984
14, 72991.50, -187500.02, -187500.02, -187500.02, -187500.02, -187500.02, -187500.02, -187500.02, 0.000, 0.000, 0.000, 14:46:41.984
15, 72581.68, -187500.02, -187500.02, -187500.02, -187500.02, -187500.02, -187500.02, -187500.02, 0.000, 0.000, 0.000, 14:46:41.984
16, 72291.95, -187500.02, -187500.02, -187500.02, -187500.02, -187500.02, -187500.02, -187500.02, 0.000, 0.000, 0.000, 14:46:41.984
17, 72827.08, -187500.02, -187500.02, -187500.02, -187500.02, -187500.02, -187500.02, -187500.02, 0.000, 0.000, 0.000, 14:46:41.984
18, 73027.37, -187500.02, -187500.02, -187500.02, -187500.02, -187500.02, -187500.02, -187500.02, 0.000, 0.000, 0.000, 14:46:41.984
19, 72632.57, -187500.02, -187500.02, -187500.02, -187500.02, -187500.02, -187500.02, -187500.02, 0.000, 0.000, 0.000, 14:46:41.984
20, 72281.65, -187500.02, -187500.02, -187500.02, -187500.02, -187500.02, -187500.02, -187500.02, 0.000, 0.000, 0.000, 14:46:41.984
21, 72705.71, -187500.02, -187500.02, -187500.02, -187500.02, -187500.02, -187500.02, -187500.02, -0.346, -0.798, 0.520, 14:46:41.985
22, 73045.27, -187500.02, -187500.02, -187500.02, -187500.02, -187500.02, -187500.02, -187500.02, 0.000, 0.000, 0.000, 14:46:41.985
23, 72709.51, -187500.02, -187500.02, -187500.02, -187500.02, -187500.02, -187500.02, -187500.02, 0.000, 0.000, 0.000, 14:46:41.985
24, 72270.92, -187500.02, -187500.02, -187500.02, -187500.02, -187500.02, -187500.02, -187500.02, 0.000, 0.000, 0.000, 14:46:41.985
25, 72565.07, -187500.02, -187500.02, -187500.02, -187500.02, -187500.02, -187500.02, -187500.02, 0.000, 0.000, 0.000, 14:46:41.985
26, 73058.89, -187500.02, -187500.02, -187500.02, -187500.02, -187500.02, -187500.02, -187500.02, 0.000, 0.000, 0.000, 14:46:41.985
27, 72805.35, -187500.02, -187500.02, -187500.02, -187500.02, -187500.02, -187500.02, -187500.02, 0.000, 0.000, 0.000, 14:46:41.985
28, 72356.15, -187500.02, -187500.02, -187500.02, -187500.02, -187500.02, -187500.02, -187500.02, 0.000, 0.000, 0.000, 14:46:41.985
29, 72473.96, -187500.02, -187500.02, -187500.02, -187500.02, -187500.02, -187500.02, -187500.02, 0.000, 0.000, 0.000, 14:46:41.985
30, 73041.90, -187500.02, -187500.02, -187500.02, -187500.02, -187500.02, -187500.02, -187500.02, 0.000, 0.000, 0.000, 14:46:41.985
31, 72875.45, -187500.02, -187500.02, -187500.02, -187500.02, -187500.02, -187500.02, -187500.02, -0.344, -0.796, 0.522, 14:46:41.985
32, 72421.30, -187500.02, -187500.02, -187500.02, -187500.02, -187500.02, -187500.02, -187500.02, 0.000, 0.000, 0.000, 14:46:41.985
33, 72373.36, -187500.02, -187500.02, -187500.02, -187500.02, -187500.02, -187500.02, -187500.02, 0.000, 0.000, 0.000, 14:46:41.986
34, 72970.58, -187500.02, -187500.02, -187500.02, -187500.02, -187500.02, -187500.02, -187500.02, 0.000, 0.000, 0.000, 14:46:41.986
35, 72930.50, -187500.02, -187500.02, -187500.02, -187500.02, -187500.02, -187500.02, -187500.02, 0.000, 0.000, 0.000, 14:46:41.986
36, 72497.61, -187500.02, -187500.02, -187500.02, -187500.02, -187500.02, -187500.02, -187500.02, 0.000, 0.000, 0.000, 14:46:41.986
37, 72314.69, -187500.02, -187500.02, -187500.02, -187500.02, -187500.02, -187500.02, -187500.02, 0.000, 0.000, 0.000, 14:46:41.986
38, 72902.54, -187500.02, -187500.02, -187500.02, -187500.02, -187500.02, -187500.02, -187500.02, 0.000, 0.000, 0.000, 14:46:41.986
39, 73005.58, -187500.02, -187500.02, -187500.02, -187500.02, -187500.02, -187500.02, -187500.02, 0.000, 0.000, 0.000, 14:46:41.986
40, 72597.13, -187500.02, -187500.02, -187500.02, -187500.02, -187500.02, -187500.02, -187500.02, 0.000, 0.000, 0.000, 14:46:41.986
41, 72287.20, -187500.02, -187500.02, -187500.02, -187500.02, -187500.02, -187500.02, -187500.02, -0.342, -0.798, 0.522, 14:46:41.987
42, 72782.40, -187500.02, -187500.02, -187500.02, -187500.02, -187500.02, -187500.02, -187500.02, 0.000, 0.000, 0.000, 14:46:41.987
43, 73047.51, -187500.02, -187500.02, -187500.02, -187500.02, -187500.02, -187500.02, -187500.02, 0.000, 0.000, 0.000, 14:46:41.987
44, 72689.57, -187500.02, -187500.02, -187500.02, -187500.02, -187500.02, -187500.02, -187500.02, 0.000, 0.000, 0.000, 14:46:41.987
45, 72293.48, -187500.02, -187500.02, -187500.02, -187500.02, -187500.02, -187500.02, -187500.02, 0.000, 0.000, 0.000, 14:46:41.987
46, 72677.21, -187500.02, -187500.02, -187500.02, -187500.02, -187500.02, -187500.02, -187500.02, 0.000, 0.000, 0.000, 14:46:41.987
47, 73065.23, -187500.02, -187500.02, -187500.02, -187500.02, -187500.02, -187500.02, -187500.02, 0.000, 0.000, 0.000, 14:46:41.988
48, 72753.45, -187500.02, -187500.02, -187500.02, -187500.02, -187500.02, -187500.02, -187500.02, 0.000, 0.000, 0.000, 14:46:41.988
49, 72312.05, -187500.02, -187500.02, -187500.02, -187500.02, -187500.02, -187500.02, -187500.02, 0.000, 0.000, 0.000, 14:46:41.988
50, 72540.69, -187500.02, -187500.02, -187500.02, -187500.02, -187500.02, -187500.02, -187500.02, -0.342, -0.798, 0.524, 14:46:41.988
51, 73064.30, -187500.02, -187500.02, -187500.02, -187500.02, -187500.02, -187500.02, -187500.02, 0.000, 0.000, 0.000, 14:46:41.988
52, 72839.26, -187500.02, -187500.02, -187500.02, -187500.02, -187500.02, -187500.02, -187500.02, 0.000, 0.000, 0.000, 14:46:41.989
53, 72367.52, -187500.02, -187500.02, -187500.02, -187500.02, -187500.02, -187500.02, -187500.02, 0.000, 0.000, 0.000, 14:46:41.989
54, 72422.58, -187500.02, -187500.02, -187500.02, -187500.02, -187500.02, -187500.02, -187500.02, 0.000, 0.000, 0.000, 14:46:41.989
55, 72993.71, -187500.02, -187500.02, -187500.02, -187500.02, -187500.02, -187500.02, -187500.02, 0.000, 0.000, 0.000, 14:46:41.989
56, 72892.95, -187500.02, -187500.02, -187500.02, -187500.02, -187500.02, -187500.02, -187500.02, 0.000, 0.000, 0.000, 14:46:41.989
57, 72461.52, -187500.02, -187500.02, -187500.02, -187500.02, -187500.02, -187500.02, -187500.02, 0.000, 0.000, 0.000, 14:46:41.990
58, 72357.40, -187500.02, -187500.02, -187500.02, -187500.02, -187500.02, -187500.02, -187500.02, 0.000, 0.000, 0.000, 14:46:41.990
59, 72940.31, -187500.02, -187500.02, -187500.02, -187500.02, -187500.02, -187500.02, -187500.02, 0.000, 0.000, 0.000, 14:46:41.990
60, 72958.05, -187500.02, -187500.02, -187500.02, -187500.02, -187500.02, -187500.02, -187500.02, -0.350, -0.790, 0.524, 14:46:41.990
61, 72535.41, -187500.02, -187500.02, -187500.02, -187500.02, -187500.02, -187500.02, -187500.02, 0.000, 0.000, 0.000, 14:46:41.990
62, 72289.79, -187500.02, -187500.02, -187500.02, -187500.02, -187500.02, -187500.02, -187500.02, 0.000, 0.000, 0.000, 14:46:41.991
63, 72843.86, -187500.02, -187500.02, -187500.02, -187500.02, -187500.02, -187500.02, -187500.02, 0.000, 0.000, 0.000, 14:46:41.991
64, 73005.89, -187500.02, -187500.02, -187500.02, -187500.02, -187500.02, -187500.02, -187500.02, 0.000, 0.000, 0.000, 14:46:41.991
65, 72630.74, -187500.02, -187500.02, -187500.02, -187500.02, -187500.02, -187500.02, -187500.02, 0.000, 0.000, 0.000, 14:46:41.991
66, 72273.78, -187500.02, -187500.02, -187500.02, -187500.02, -187500.02, -187500.02, -187500.02, 0.000, 0.000, 0.000, 14:46:41.991
67, 72737.45, -187500.02, -187500.02, -187500.02, -187500.02, -187500.02, -187500.02, -187500.02, 0.000, 0.000, 0.000, 14:46:41.992
68, 73038.26, -187500.02, -187500.02, -187500.02, -187500.02, -187500.02, -187500.02, -187500.02, 0.000, 0.000, 0.000, 14:46:41.992
69, 72685.48, -187500.02, -187500.02, -187500.02, -187500.02, -187500.02, -187500.02, -187500.02, 0.000, 0.000, 0.000, 14:46:41.992
70, 72277.13, -187500.02, -187500.02, -187500.02, -187500.02, -187500.02, -187500.02, -187500.02, -0.346, -0.792, 0.520, 14:46:41.992
71, 72614.84, -187500.02, -187500.02, -187500.02, -187500.02, -187500.02, -187500.02, -187500.02, 0.000, 0.000, 0.000, 14:46:41.992
72, 73046.34, -187500.02, -187500.02, -187500.02, -187500.02, -187500.02, -187500.02, -187500.02, 0.000, 0.000, 0.000, 14:46:41.992
73, 72780.72, -187500.02, -187500.02, -187500.02, -187500.02, -187500.02, -187500.02, -187500.02, 0.000, 0.000, 0.000, 14:46:41.993
74, 72347.03, -187500.02, -187500.02, -187500.02, -187500.02, -187500.02, -187500.02, -187500.02, 0.000, 0.000, 0.000, 14:46:41.993
75, 72513.28, -187500.02, -187500.02, -187500.02, -187500.02, -187500.02, -187500.02, -187500.02, 0.000, 0.000, 0.000, 14:46:41.993
76, 73042.39, -187500.02, -187500.02, -187500.02, -187500.02, -187500.02, -187500.02, -187500.02, 0.000, 0.000, 0.000, 14:46:41.993
77, 72844.80, -187500.02, -187500.02, -187500.02, -187500.02, -187500.02, -187500.02, -187500.02, 0.000, 0.000, 0.000, 14:46:41.993
78, 72404.61, -187500.02, -187500.02, -187500.02, -187500.02, -187500.02, -187500.02, -187500.02, 0.000, 0.000, 0.000, 14:46:41.994
79, 72388.27, -187500.02, -187500.02, -187500.02, -187500.02, -187500.02, -187500.02, -187500.02, 0.000, 0.000, 0.000, 14:46:41.994
80, 72971.60, -187500.02, -187500.02, -187500.02, -187500.02, -187500.02, -187500.02, -187500.02, -0.346, -0.796, 0.518, 14:46:41.994
81, 72929.52, -187500.02, -187500.02, -187500.02, -187500.02, -187500.02, -187500.02, -187500.02, 0.000, 0.000, 0.000, 14:46:41.994
82, 72479.17, -187500.02, -187500.02, -187500.02, -187500.02, -187500.02, -187500.02, -187500.02, 0.000, 0.000, 0.000, 14:46:41.994
83, 72328.81, -187500.02, -187500.02, -187500.02, -187500.02, -187500.02, -187500.02, -187500.02, 0.000, 0.000, 0.000, 14:46:41.995
84, 72919.95, -187500.02, -187500.02, -187500.02, -187500.02, -187500.02, -187500.02, -187500.02, 0.000, 0.000, 0.000, 14:46:41.995
85, 72995.84, -187500.02, -187500.02, -187500.02, -187500.02, -187500.02, -187500.02, -187500.02, 0.000, 0.000, 0.000, 14:46:41.995
86, 72559.55, -187500.02, -187500.02, -187500.02, -187500.02, -187500.02, -187500.02, -187500.02, 0.000, 0.000, 0.000, 14:46:41.995
87, 72267.57, -187500.02, -187500.02, -187500.02, -187500.02, -187500.02, -187500.02, -187500.02, 0.000, 0.000, 0.000, 14:46:41.995
88, 72812.84, -187500.02, -187500.02, -187500.02, -187500.02, -187500.02, -187500.02, -187500.02, 0.000, 0.000, 0.000, 14:46:41.995
89, 73035.53, -187500.02, -187500.02, -187500.02, -187500.02, -187500.02, -187500.02, -187500.02, 0.000, 0.000, 0.000, 14:46:42.460
90, 72656.00, -187500.02, -187500.02, -187500.02, -187500.02, -187500.02, -187500.02, -187500.02, -0.346, -0.790, 0.518, 14:46:42.460
91, 72273.18, -187500.02, -187500.02, -187500.02, -187500.02, -187500.02, -187500.02, -187500.02, 0.000, 0.000, 0.000, 14:46:42.460
92, 72715.09, -187500.02, -187500.02, -187500.02, -187500.02, -187500.02, -187500.02, -187500.02, 0.000, 0.000, 0.000, 14:46:42.460
93, 73049.21, -187500.02, -187500.02, -187500.02, -187500.02, -187500.02, -187500.02, -187500.02, 0.000, 0.000, 0.000, 14:46:42.460
94, 72731.84, -187500.02, -187500.02, -187500.02, -187500.02, -187500.02, -187500.02, -187500.02, 0.000, 0.000, 0.000, 14:46:42.460
95, 72293.88, -187500.02, -187500.02, -187500.02, -187500.02, -187500.02, -187500.02, -187500.02, 0.000, 0.000, 0.000, 14:46:42.461
96, 72586.51, -187500.02, -187500.02, -187500.02, -187500.02, -187500.02, -187500.02, -187500.02, 0.000, 0.000, 0.000, 14:46:42.461
97, 73054.84, -187500.02, -187500.02, -187500.02, -187500.02, -187500.02, -187500.02, -187500.02, 0.000, 0.000, 0.000, 14:46:42.461
98, 72790.64, -187500.02, -187500.02, -187500.02, -187500.02, -187500.02, -187500.02, -187500.02, 0.000, 0.000, 0.000, 14:46:42.461
99, 72345.87, -187500.02, -187500.02, -187500.02, -187500.02, -187500.02, -187500.02, -187500.02, 0.000, 0.000, 0.000, 14:46:42.461
100, 72480.36, -187500.02, -187500.02, -187500.02, -187500.02, -187500.02, -187500.02, -187500.02, -0.344, -0.796, 0.526, 14:46:42.461
101, 73020.09, -187500.02, -187500.02, -187500.02, -187500.02, -187500.02, -187500.02, -187500.02, 0.000, 0.000, 0.000, 14:46:42.461
102, 72875.38, -187500.02, -187500.02, -187500.02, -187500.02, -187500.02, -187500.02, -187500.02, 0.000, 0.000, 0.000, 14:46:42.462
103, 72454.49, -187500.02, -187500.02, -187500.02, -187500.02, -187500.02, -187500.02, -187500.02, 0.000, 0.000, 0.000, 14:46:42.462
104, 72411.36, -187500.02, -187500.02, -187500.02, -187500.02, -187500.02, -187500.02, -187500.02, 0.000, 0.000, 0.000, 14:46:42.462
105, 73000.77, -187500.02, -187500.02, -187500.02, -187500.02, -187500.02, -187500.02, -187500.02, 0.000, 0.000, 0.000, 14:46:42.462
106, 72939.77, -187500.02, -187500.02, -187500.02, -187500.02, -187500.02, -187500.02, -187500.02, 0.000, 0.000, 0.000, 14:46:42.462
107, 72484.88, -187500.02, -187500.02, -187500.02, -187500.02, -187500.02, -187500.02, -187500.02, 0.000, 0.000, 0.000, 14:46:42.462
108, 72284.66, -187500.02, -187500.02, -187500.02, -187500.02, -187500.02, -187500.02, -187500.02, 0.000, 0.000, 0.000, 14:46:42.462
109, 72913.04, -187500.02, -187500.02, -187500.02, -187500.02, -187500.02, -187500.02, -187500.02, 0.000, 0.000, 0.000, 14:46:42.462
110, 72996.50, -187500.02, -187500.02, -187500.02, -187500.02, -187500.02, -187500.02, -187500.02, -0.350, -0.794, 0.528, 14:46:42.463
111, 72588.85, -187500.02, -187500.02, -187500.02, -187500.02, -187500.02, -187500.02, -187500.02, 0.000, 0.000, 0.000, 14:46:42.463
112, 72296.45, -187500.02, -187500.02, -187500.02, -187500.02, -187500.02, -187500.02, -187500.02, 0.000, 0.000, 0.000, 14:46:42.463
113, 72800.99, -187500.02, -187500.02, -187500.02, -187500.02, -187500.02, -187500.02, -187500.02, 0.000, 0.000, 0.000, 14:46:42.463
114, 73040.00, -187500.02, -187500.02, -187500.02, -187500.02, -187500.02, -187500.02, -187500.02, 0.000, 0.000, 0.000, 14:46:42.463
115, 72687.85, -187500.02, -187500.02, -187500.02, -187500.02, -187500.02, -187500.02, -187500.02, 0.000, 0.000, 0.000, 14:46:42.463
116, 72285.61, -187500.02, -187500.02, -187500.02, -187500.02, -187500.02, -187500.02, -187500.02, 0.000, 0.000, 0.000, 14:46:42.463
117, 72676.27, -187500.02, -187500.02, -187500.02, -187500.02, -187500.02, -187500.02, -187500.02, 0.000, 0.000, 0.000, 14:46:42.463
118, 73061.08, -187500.02, -187500.02, -187500.02, -187500.02, -187500.02, -187500.02, -187500.02, 0.000, 0.000, 0.000, 14:46:42.464
119, 72741.56, -187500.02, -187500.02, -187500.02, -187500.02, -187500.02, -187500.02, -187500.02, 0.000, 0.000, 0.000, 14:46:42.464
120, 72288.83, -187500.02, -187500.02, -187500.02, -187500.02, -187500.02, -187500.02, -187500.02, -0.342, -0.790, 0.522, 14:46:42.464
121, 72557.80, -187500.02, -187500.02, -187500.02, -187500.02, -187500.02, -187500.02, -187500.02, 0.000, 0.000, 0.000, 14:46:42.464
122, 73059.45, -187500.02, -187500.02, -187500.02, -187500.02, -187500.02, -187500.02, -187500.02, 0.000, 0.000, 0.000, 14:46:42.464
123, 72843.51, -187500.02, -187500.02, -187500.02, -187500.02, -187500.02, -187500.02, -187500.02, 0.000, 0.000, 0.000, 14:46:42.464
124, 72376.31, -187500.02, -187500.02, -187500.02, -187500.02, -187500.02, -187500.02, -187500.02, 0.000, 0.000, 0.000, 14:46:42.464
125, 72442.07, -187500.02, -187500.02, -187500.02, -187500.02, -187500.02, -187500.02, -187500.02, 0.000, 0.000, 0.000, 14:46:42.465
126, 73029.23, -187500.02, -187500.02, -187500.02, -187500.02, -187500.02, -187500.02, -187500.02, 0.000, 0.000, 0.000, 14:46:42.465
127, 72925.20, -187500.02, -187500.02, -187500.02, -187500.02, -187500.02, -187500.02, -187500.02, 0.000, 0.000, 0.000, 14:46:42.465
128, 72479.46, -187500.02, -187500.02, -187500.02, -187500.02, -187500.02, -187500.02, -187500.02, 0.000, 0.000, 0.000, 14:46:42.465
129, 72370.50, -187500.02, -187500.02, -187500.02, -187500.02, -187500.02, -187500.02, -187500.02, 0.000, 0.000, 0.000, 14:46:42.465
130, 72973.19, -187500.02, -187500.02, -187500.02, -187500.02, -187500.02, -187500.02, -187500.02, -0.340, -0.792, 0.520, 14:46:42.465
131, 72973.44, -187500.02, -187500.02, -187500.02, -187500.02, -187500.02, -187500.02, -187500.02, 0.000, 0.000, 0.000, 14:46:42.465
132, 72536.08, -187500.02, -187500.02, -187500.02, -187500.02, -187500.02, -187500.02, -187500.02, 0.000, 0.000, 0.000, 14:46:42.465
133, 72282.88, -187500.02, -187500.02, -187500.02, -187500.02, -187500.02, -187500.02, -187500.02, 0.000, 0.000, 0.000, 14:46:42.465
134, 72858.57, -187500.02, -187500.02, -187500.02, -187500.02, -187500.02, -187500.02, -187500.02, 0.000, 0.000, 0.000, 14:46:42.465
135, 73023.88, -187500.02, -187500.02, -187500.02, -187500.02, -187500.02, -187500.02, -187500.02, 0.000, 0.000, 0.000, 14:46:42.466
136, 72634.02, -187500.02, -187500.02, -187500.02, -187500.02, -187500.02, -187500.02, -187500.02, 0.000, 0.000, 0.000, 14:46:42.466
137, 72306.57, -187500.02, -187500.02, -187500.02, -187500.02, -187500.02, -187500.02, -187500.02, 0.000, 0.000, 0.000, 14:46:42.466
138, 72772.90, -187500.02, -187500.02, -187500.02, -187500.02, -187500.02, -187500.02, -187500.02, 0.000, 0.000, 0.000, 14:46:42.466
139, 73038.03, -187500.02, -187500.02, -187500.02, -187500.02, -187500.02, -187500.02, -187500.02, 0.000, 0.000, 0.000, 14:46:42.466
140, 72710.05, -187500.02, -187500.02, -187500.02, -187500.02, -187500.02, -187500.02, -187500.02, -0.338, -0.802, 0.518, 14:46:42.466
141, 72312.31, -187500.02, -187500.02, -187500.02, -187500.02, -187500.02, -187500.02, -187500.02, 0.000, 0.000, 0.000, 14:46:42.466
142, 72670.57, -187500.02, -187500.02, -187500.02, -187500.02, -187500.02, -187500.02, -187500.02, 0.000, 0.000, 0.000, 14:46:42.466
143, 73048.59, -187500.02, -187500.02, -187500.02, -187500.02, -187500.02, -187500.02, -187500.02, 0.000, 0.000, 0.000, 14:46:42.466
144, 72785.80, -187500.02, -187500.02, -187500.02, -187500.02, -187500.02, -187500.02, -187500.02, 0.000, 0.000, 0.000, 14:46:42.467
145, 72349.82, -187500.02, -187500.02, -187500.02, -187500.02, -187500.02, -187500.02, -187500.02, 0.000, 0.000, 0.000, 14:46:42.467
146, 72531.43, -187500.02, -187500.02, -187500.02, -187500.02, -187500.02, -187500.02, -187500.02, 0.000, 0.000, 0.000, 14:46:42.467
147, 73043.45, -187500.02, -187500.02, -187500.02, -187500.02, -187500.02, -187500.02, -187500.02, 0.000, 0.000, 0.000, 14:46:42.467
148, 72830.77, -187500.02, -187500.02, -187500.02, -187500.02, -187500.02, -187500.02, -187500.02, 0.000, 0.000, 0.000, 14:46:42.467
149, 72382.19, -187500.02, -187500.02, -187500.02, -187500.02, -187500.02, -187500.02, -187500.02, 0.000, 0.000, 0.000, 14:46:42.467
150, 72423.77, -187500.02, -187500.02, -187500.02, -187500.02, -187500.02, -187500.02, -187500.02, -0.344, -0.798, 0.522, 14:46:42.467
151, 73024.66, -187500.02, -187500.02, -187500.02, -187500.02, -187500.02, -187500.02, -187500.02, 0.000, 0.000, 0.000, 14:46:42.467
152, 72934.21, -187500.02, -187500.02, -187500.02, -187500.02, -187500.02, -187500.02, -187500.02, 0.000, 0.000, 0.000, 14:46:42.467
153, 72476.24, -187500.02, -187500.02, -187500.02, -187500.02, -187500.02, -187500.02, -187500.02, 0.000, 0.000, 0.000, 14:46:42.467
154, 72345.45, -187500.02, -187500.02, -187500.02, -187500.02, -187500.02, -187500.02, -187500.02, 0.000, 0.000, 0.000, 14:46:42.468
155, 72956.52, -187500.02, -187500.02, -187500.02, -187500.02, -187500.02, -187500.02, -187500.02, 0.000, 0.000, 0.000, 14:46:42.468
156, 73005.63, -187500.02, -187500.02, -187500.02, -187500.02, -187500.02, -187500.02, -187500.02, 0.000, 0.000, 0.000, 14:46:42.468
157, 72567.13, -187500.02, -187500.02, -187500.02, -187500.02, -187500.02, -187500.02, -187500.02, 0.000, 0.000, 0.000, 14:46:42.468
158, 72320.52, -187500.02, -187500.02, -187500.02, -187500.02, -187500.02, -187500.02, -187500.02, 0.000, 0.000, 0.000, 14:46:42.468
159, 72868.12, -187500.02, -187500.02, -187500.02, -187500.02, -187500.02, -187500.02, -187500.02, 0.000, 0.000, 0.000, 14:46:42.468
160, 73043.58, -187500.02, -187500.02, -187500.02, -187500.02, -187500.02, -187500.02, -187500.02, -0.342, -0.796, 0.522, 14:46:42.468
161, 72653.63, -187500.02, -187500.02, -187500.02, -187500.02, -187500.02, -187500.02, -187500.02, 0.000, 0.000, 0.000, 14:46:42.468
162, 72278.14, -187500.02, -187500.02, -187500.02, -187500.02, -187500.02, -187500.02, -187500.02, 0.000, 0.000, 0.000, 14:46:42.468
163, 72734.34, -187500.02, -187500.02, -187500.02, -187500.02, -187500.02, -187500.02, -187500.02, 0.000, 0.000, 0.000, 14:46:42.468
164, 73079.27, -187500.02, -187500.02, -187500.02, -187500.02, -187500.02, -187500.02, -187500.02, 0.000, 0.000, 0.000, 14:46:42.469
165, 72730.96, -187500.02, -187500.02, -187500.02, -187500.02, -187500.02, -187500.02, -187500.02, 0.000, 0.000, 0.000, 14:46:42.469
166, 72317.97, -187500.02, -187500.02, -187500.02, -187500.02, -187500.02, -187500.02, -187500.02, 0.000, 0.000, 0.000, 14:46:42.469
167, 72612.99, -187500.02, -187500.02, -187500.02, -187500.02, -187500.02, -187500.02, -187500.02, 0.000, 0.000, 0.000, 14:46:42.469
168, 73061.84, -187500.02, -187500.02, -187500.02, -187500.02, -187500.02, -187500.02, -187500.02, 0.000, 0.000, 0.000, 14:46:42.469
169, 72822.74, -187500.02, -187500.02, -187500.02, -187500.02, -187500.02, -187500.02, -187500.02, 0.000, 0.000, 0.000, 14:46:42.469
170, 72389.67, -187500.02, -187500.02, -187500.02, -187500.02, -187500.02, -187500.02, -187500.02, -0.342, -0.796, 0.520, 14:46:42.469
171, 72522.78, -187500.02, -187500.02, -187500.02, -187500.02, -187500.02, -187500.02, -187500.02, 0.000, 0.000, 0.000, 14:46:42.469
172, 73066.24, -187500.02, -187500.02, -187500.02, -187500.02, -187500.02, -187500.02, -187500.02, 0.000, 0.000, 0.000, 14:46:42.469
173, 72905.53, -187500.02, -187500.02, -187500.02, -187500.02, -187500.02, -187500.02, -187500.02, 0.000, 0.000, 0.000, 14:46:42.470
174, 72437.55, -187500.02, -187500.02, -187500.02, -187500.02, -187500.02, -187500.02, -187500.02, 0.000, 0.000, 0.000, 14:46:42.470
175, 72408.56, -187500.02, -187500.02, -187500.02, -187500.02, -187500.02, -187500.02, -187500.02, 0.000, 0.000, 0.000, 14:46:42.470
176, 72998.54, -187500.02, -187500.02, -187500.02, -187500.02, -187500.02, -187500.02, -187500.02, 0.000, 0.000, 0.000, 14:46:42.470
177, 72936.51, -187500.02, -187500.02, -187500.02, -187500.02, -187500.02, -187500.02, -187500.02, 0.000, 0.000, 0.000, 14:46:42.470
178, 72502.15, -187500.02, -187500.02, -187500.02, -187500.02, -187500.02, -187500.02, -187500.02, 0.000, 0.000, 0.000, 14:46:42.470
179, 72331.98, -187500.02, -187500.02, -187500.02, -187500.02, -187500.02, -187500.02, -187500.02, 0.000, 0.000, 0.000, 14:46:42.470
180, 72928.46, -187500.02, -187500.02, -187500.02, -187500.02, -187500.02, -187500.02, -187500.02, -0.340, -0.796, 0.518, 14:46:42.470
181, 73006.25, -187500.02, -187500.02, -187500.02, -187500.02, -187500.02, -187500.02, -187500.02, 0.000, 0.000, 0.000, 14:46:42.470
182, 72599.09, -187500.02, -187500.02, -187500.02, -187500.02, -187500.02, -187500.02, -187500.02, 0.000, 0.000, 0.000, 14:46:42.470
183, 72282.34, -187500.02, -187500.02, -187500.02, -187500.02, -187500.02, -187500.02, -187500.02, 0.000, 0.000, 0.000, 14:46:42.471
184, 72808.44, -187500.02, -187500.02, -187500.02, -187500.02, -187500.02, -187500.02, -187500.02, 0.000, 0.000, 0.000, 14:46:42.471
185, 73041.12, -187500.02, -187500.02, -187500.02, -187500.02, -187500.02, -187500.02, -187500.02, 0.000, 0.000, 0.000, 14:46:42.471
186, 72677.16, -187500.02, -187500.02, -187500.02, -187500.02, -187500.02, -187500.02, -187500.02, 0.000, 0.000, 0.000, 14:46:42.471
187, 72300.52, -187500.02, -187500.02, -187500.02, -187500.02, -187500.02, -187500.02, -187500.02, 0.000, 0.000, 0.000, 14:46:42.471
188, 72710.80, -187500.02, -187500.02, -187500.02, -187500.02, -187500.02, -187500.02, -187500.02, 0.000, 0.000, 0.000, 14:46:42.471
189, 73086.47, -187500.02, -187500.02, -187500.02, -187500.02, -187500.02, -187500.02, -187500.02, -0.342, -0.800, 0.518, 14:46:42.471
190, 72778.87, -187500.02, -187500.02, -187500.02, -187500.02, -187500.02, -187500.02, -187500.02, 0.000, 0.000, 0.000, 14:46:42.471
191, 72339.25, -187500.02, -187500.02, -187500.02, -187500.02, -187500.02, -187500.02, -187500.02, 0.000, 0.000, 0.000, 14:46:42.471
192, 72585.12, -187500.02, -187500.02, -187500.02, -187500.02, -187500.02, -187500.02, -187500.02, 0.000, 0.000, 0.000, 14:46:42.471
193, 73069.70, -187500.02, -187500.02, -187500.02, -187500.02, -187500.02, -187500.02, -187500.02, 0.000, 0.000, 0.000, 14:46:42.472
194, 72828.48, -187500.02, -187500.02, -187500.02, -187500.02, -187500.02, -187500.02, -187500.02, 0.000, 0.000, 0.000, 14:46:42.472
195, 72378.70, -187500.02, -187500.02, -187500.02, -187500.02, -187500.02, -187500.02, -187500.02, 0.000, 0.000, 0.000, 14:46:42.472
196, 72468.00, -187500.02, -187500.02, -187500.02, -187500.02, -187500.02, -187500.02, -187500.02, 0.000, 0.000, 0.000, 14:46:42.472
197, 73056.02, -187500.02, -187500.02, -187500.02, -187500.02, -187500.02, -187500.02, -187500.02, 0.000, 0.000, 0.000, 14:46:42.472
198, 72902.76, -187500.02, -187500.02, -187500.02, -187500.02, -187500.02, -187500.02, -187500.02, 0.000, 0.000, 0.000, 14:46:42.472
199, 72453.02, -187500.02, -187500.02, -187500.02, -187500.02, -187500.02, -187500.02, -187500.02, -0.348, -0.796, 0.524, 14:46:42.472
200, 72401.61, -187500.02, -187500.02, -187500.02, -187500.02, -187500.02, -187500.02, -187500.02, 0.000, 0.000, 0.000, 14:46:42.472
201, 72987.07, -187500.02, -187500.02, -187500.02, -187500.02, -187500.02, -187500.02, -187500.02, 0.000, 0.000, 0.000, 14:46:42.473
202, 72972.20, -187500.02, -187500.02, -187500.02, -187500.02, -187500.02, -187500.02, -187500.02, 0.000, 0.000, 0.000, 14:46:42.473
203, 72542.61, -187500.02, -187500.02, -187500.02, -187500.02, -187500.02, -187500.02, -187500.02, 0.000, 0.000, 0.000, 14:46:42.473
204, 72315.34, -187500.02, -187500.02, -187500.02, -187500.02, -187500.02, -187500.02, -187500.02, 0.000, 0.000, 0.000, 14:46:42.473
205, 72888.79, -187500.02, -187500.02, -187500.02, -187500.02, -187500.02, -187500.02, -187500.02, 0.000, 0.000, 0.000, 14:46:42.473
206, 73014.30, -187500.02, -187500.02, -187500.02, -187500.02, -187500.02, -187500.02, -187500.02, 0.000, 0.000, 0.000, 14:46:42.473
207, 72607.25, -187500.02, -187500.02, -187500.02, -187500.02, -187500.02, -187500.02, -187500.02, 0.000, 0.000, 0.000, 14:46:42.473
208, 72282.50, -187500.02, -187500.02, -187500.02, -187500.02, -187500.02, -187500.02, -187500.02, 0.000, 0.000, 0.000, 14:46:42.473
209, 72778.91, -187500.02, -187500.02, -187500.02, -187500.02, -187500.02, -187500.02, -187500.02, -0.352, -0.794, 0.524, 14:46:42.940
210, 73047.80, -187500.02, -187500.02, -187500.02, -187500.02, -187500.02, -187500.02, -187500.02, 0.000, 0.000, 0.000, 14:46:42.940
211, 72703.16, -187500.02, -187500.02, -187500.02, -187500.02, -187500.02, -187500.02, -187500.02, 0.000, 0.000, 0.000, 14:46:42.941
212, 72294.34, -187500.02, -187500.02, -187500.02, -187500.02, -187500.02, -187500.02, -187500.02, 0.000, 0.000, 0.000, 14:46:42.941
213, 72660.53, -187500.02, -187500.02, -187500.02, -187500.02, -187500.02, -187500.02, -187500.02, 0.000, 0.000, 0.000, 14:46:42.941
214, 73066.30, -187500.02, -187500.02, -187500.02, -187500.02, -187500.02, -187500.02, -187500.02, 0.000, 0.000, 0.000, 14:46:42.941
215, 72770.55, -187500.02, -187500.02, -187500.02, -187500.02, -187500.02, -187500.02, -187500.02, 0.000, 0.000, 0.000, 14:46:42.941
216, 72331.34, -187500.02, -187500.02, -187500.02, -187500.02, -187500.02, -187500.02, -187500.02, 0.000, 0.000, 0.000, 14:46:42.941
217, 72518.35, -187500.02, -187500.02, -187500.02, -187500.02, -187500.02, -187500.02, -187500.02, 0.000, 0.000, 0.000, 14:46:42.941
218, 73042.59, -187500.02, -187500.02, -187500.02, -187500.02, -187500.02, -187500.02, -187500.02, 0.000, 0.000, 0.000, 14:46:42.941
219, 72860.38, -187500.02, -187500.02, -187500.02, -187500.02, -187500.02, -187500.02, -187500.02, -0.350, -0.790, 0.522, 14:46:42.941
220, 72392.45, -187500.02, -187500.02, -187500.02, -187500.02, -187500.02, -187500.02, -187500.02, 0.000, 0.000, 0.000, 14:46:42.942
221, 72424.39, -187500.02, -187500.02, -187500.02, -187500.02, -187500.02, -187500.02, -187500.02, 0.000, 0.000, 0.000, 14:46:42.942
222, 73000.05, -187500.02, -187500.02, -187500.02, -187500.02, -187500.02, -187500.02, -187500.02, 0.000, 0.000, 0.000, 14:46:42.942
223, 72897.87, -187500.02, -187500.02, -187500.02, -187500.02, -187500.02, -187500.02, -187500.02, 0.000, 0.000, 0.000, 14:46:42.942
224, 72494.48, -187500.02, -187500.02, -187500.02, -187500.02, -187500.02, -187500.02, -187500.02, 0.000, 0.000, 0.000, 14:46:42.942
225, 72391.33, -187500.02, -187500.02, -187500.02, -187500.02, -187500.02, -187500.02, -187500.02, 0.000, 0.000, 0.000, 14:46:42.942
226, 72980.92, -187500.02, -187500.02, -187500.02, -187500.02, -187500.02, -187500.02, -187500.02, 0.000, 0.000, 0.000, 14:46:42.942
227, 72989.64, -187500.02, -187500.02, -187500.02, -187500.02, -187500.02, -187500.02, -187500.02, 0.000, 0.000, 0.000, 14:46:42.942
228, 72556.46, -187500.02, -187500.02, -187500.02, -187500.02, -187500.02, -187500.02, -187500.02, 0.000, 0.000, 0.000, 14:46:42.942
229, 72304.67, -187500.02, -187500.02, -187500.02, -187500.02, -187500.02, -187500.02, -187500.02, -0.354, -0.800, 0.520, 14:46:42.943
230, 72869.01, -187500.02, -187500.02, -187500.02, -187500.02, -187500.02, -187500.02, -187500.02, 0.000, 0.000, 0.000, 14:46:42.943
231, 73041.03, -187500.02, -187500.02, -187500.02, -187500.02, -187500.02, -187500.02, -187500.02, 0.000, 0.000, 0.000, 14:46:42.943
232, 72635.63, -187500.02, -187500.02, -187500.02, -187500.02, -187500.02, -187500.02, -187500.02, 0.000, 0.000, 0.000, 14:46:42.943
233, 72274.45, -187500.02, -187500.02, -187500.02, -187500.02, -187500.02, -187500.02, -187500.02, 0.000, 0.000, 0.000, 14:46:42.943
234, 72744.02, -187500.02, -187500.02, -187500.02, -187500.02, -187500.02, -187500.02, -187500.02, 0.000, 0.000, 0.000, 14:46:42.943
235, 73048.36, -187500.02, -187500.02, -187500.02, -187500.02, -187500.02, -187500.02, -187500.02, 0.000, 0.000, 0.000, 14:46:42.943
236, 72719.95, -187500.02, -187500.02, -187500.02, -187500.02, -187500.02, -187500.02, -187500.02, 0.000, 0.000, 0.000, 14:46:42.943
237, 72328.88, -187500.02, -187500.02, -187500.02, -187500.02, -187500.02, -187500.02, -187500.02, 0.000, 0.000, 0.000, 14:46:42.943
238, 72643.32, -187500.02, -187500.02, -187500.02, -187500.02, -187500.02, -187500.02, -187500.02, 0.000, 0.000, 0.000, 14:46:42.943
239, 73072.19, -187500.02, -187500.02, -187500.02, -187500.02, -187500.02, -187500.02, -187500.02, -0.350, -0.796, 0.526, 14:46:42.944
240, 72792.88, -187500.02, -187500.02, -187500.02, -187500.02, -187500.02, -187500.02, -187500.02, 0.000, 0.000, 0.000, 14:46:42.944
241, 72340.48, -187500.02, -187500.02, -187500.02, -187500.02, -187500.02, -187500.02, -187500.02, 0.000, 0.000, 0.000, 14:46:42.944
242, 72511.31, -187500.02, -187500.02, -187500.02, -187500.02, -187500.02, -187500.02, -187500.02, 0.000, 0.000, 0.000, 14:46:42.944
243, 73063.47, -187500.02, -187500.02, -187500.02, -187500.02, -187500.02, -187500.02, -187500.02, 0.000, 0.000, 0.000, 14:46:42.944
244, 72857.77, -187500.02, -187500.02, -187500.02, -187500.02, -187500.02, -187500.02, -187500.02, 0.000, 0.000, 0.000, 14:46:42.944
245, 72403.76, -187500.02, -187500.02, -187500.02, -187500.02, -187500.02, -187500.02, -187500.02, 0.000, 0.000, 0.000, 14:46:42.944
246, 72418.13, -187500.02, -187500.02, -187500.02, -187500.02, -187500.02, -187500.02, -187500.02, 0.000, 0.000, 0.000, 14:46:42.944
247, 73033.72, -187500.02, -187500.02, -187500.02, -187500.02, -187500.02, -187500.02, -187500.02, 0.000, 0.000, 0.000, 14:46:42.944
248, 72948.40, -187500.02, -187500.02, -187500.02, -187500.02, -187500.02, -187500.02, -187500.02, 0.000, 0.000, 0.000, 14:46:42.945
249, 72478.41, -187500.02, -187500.02, -187500.02, -187500.02, -187500.02, -187500.02, -187500.02, -0.350, -0.800, 0.518, 14:46:42.945
250, 72311.89, -187500.02, -187500.02, -187500.02, -187500.02, -187500.02, -187500.02, -187500.02, 0.000, 0.000, 0.000, 14:46:42.945
251, 72921.55, -187500.02, -187500.02, -187500.02, -187500.02, -187500.02, -187500.02, -187500.02, 0.000, 0.000, 0.000, 14:46:42.945
252, 73000.82, -187500.02, -187500.02, -187500.02, -187500.02, -187500.02, -187500.02, -187500.02, 0.000, 0.000, 0.000, 14:46:42.945
253, 72601.21, -187500.02, -187500.02, -187500.02, -187500.02, -187500.02, -187500.02, -187500.02, 0.000, 0.000, 0.000, 14:46:42.945
254, 72310.71, -187500.02, -187500.02, -187500.02, -187500.02, -187500.02, -187500.02, -187500.02, 0.000, 0.000, 0.000, 14:46:42.945
255, 72868.52, -187500.02, -187500.02, -187500.02, -187500.02, -187500.02, -187500.02, -187500.02, 0.000, 0.000, 0.000, 14:46:42.945
0, 73064.92, -187500.02, -187500.02, -187500.02, -187500.02, -187500.02, -187500.02, -187500.02, 0.000, 0.000, 0.000, 14:46:42.945
1, 72670.52, -187500.02, -187500.02, -187500.02, -187500.02, -187500.02, -187500.02, -187500.02, 0.000, 0.000, 0.000, 14:46:42.946
2, 72292.27, -187500.02, -187500.02, -187500.02, -187500.02, -187500.02, -187500.02, -187500.02, 0.000, 0.000, 0.000, 14:46:42.946
3, 72716.39, -187500.02, -187500.02, -187500.02, -187500.02, -187500.02, -187500.02, -187500.02, -0.350, -0.796, 0.518, 14:46:42.946
4, 73065.46, -187500.02, -187500.02, -187500.02, -187500.02, -187500.02, -187500.02, -187500.02, 0.000, 0.000, 0.000, 14:46:42.946
5, 72738.34, -187500.02, -187500.02, -187500.02, -187500.02, -187500.02, -187500.02, -187500.02, 0.000, 0.000, 0.000, 14:46:42.946
6, 72319.80, -187500.02, -187500.02, -187500.02, -187500.02, -187500.02, -187500.02, -187500.02, 0.000, 0.000, 0.000, 14:46:42.946
7, 72594.22, -187500.02, -187500.02, -187500.02, -187500.02, -187500.02, -187500.02, -187500.02, 0.000, 0.000, 0.000, 14:46:42.946
8, 73078.84, -187500.02, -187500.02, -187500.02, -187500.02, -187500.02, -187500.02, -187500.02, 0.000, 0.000, 0.000, 14:46:42.946
9, 72838.59, -187500.02, -187500.02, -187500.02, -187500.02, -187500.02, -187500.02, -187500.02, 0.000, 0.000, 0.000, 14:46:42.946
10, 72386.75, -187500.02, -187500.02, -187500.02, -187500.02, -187500.02, -187500.02, -187500.02, 0.000, 0.000, 0.000, 14:46:42.946
11, 72461.56, -187500.02, -187500.02, -187500.02, -187500.02, -187500.02, -187500.02, -187500.02, 0.000, 0.000, 0.000, 14:46:42.947
12, 73026.74, -187500.02, -187500.02, -187500.02, -187500.02, -187500.02, -187500.02, -187500.02, 0.000, 0.000, 0.000, 14:46:42.947
13, 72907.09, -187500.02, -187500.02, -187500.02, -187500.02, -187500.02, -187500.02, -187500.02, -0.354, -0.798, 0.520, 14:46:42.947
14, 72470.63, -187500.02, -187500.02, -187500.02, -187500.02, -187500.02, -187500.02, -187500.02, 0.000, 0.000, 0.000, 14:46:42.947
15, 72391.38, -187500.02, -187500.02, -187500.02, -187500.02, -187500.02, -187500.02, -187500.02, 0.000, 0.000, 0.000, 14:46:42.947
16, 72996.23, -187500.02, -187500.02, -187500.02, -187500.02, -187500.02, -187500.02, -187500.02, 0.000, 0.000, 0.000, 14:46:42.947
17, 72975.36, -187500.02, -187500.02, -187500.02, -187500.02, -187500.02, -187500.02, -187500.02, 0.000, 0.000, 0.000, 14:46:42.947
18, 72524.13, -187500.02, -187500.02, -187500.02, -187500.02, -187500.02, -187500.02, -187500.02, 0.000, 0.000, 0.000, 14:46:42.947
19, 72304.49, -187500.02, -187500.02, -187500.02, -187500.02, -187500.02, -187500.02, -187500.02, 0.000, 0.000, 0.000, 14:46:42.947
20, 72891.54, -187500.02, -187500.02, -187500.02, -187500.02, -187500.02, -187500.02, -187500.02, 0.000, 0.000, 0.000, 14:46:42.948
21, 73023.26, -187500.02, -187500.02, -187500.02, -187500.02, -187500.02, -187500.02, -187500.02, 0.000, 0.000, 0.000, 14:46:42.948
22, 72623.14, -187500.02, -187500.02, -187500.02, -187500.02, -187500.02, -187500.02, -187500.02, 0.000, 0.000, 0.000, 14:46:42.948
23, 72285.77, -187500.02, -187500.02, -187500.02, -187500.02, -187500.02, -187500.02, -187500.02, -0.348, -0.798, 0.518, 14:46:42.948
24, 72809.45, -187500.02, -187500.02, -187500.02, -187500.02, -187500.02, -187500.02, -187500.02, 0.000, 0.000, 0.000, 14:46:42.948
25, 73064.97, -187500.02, -187500.02, -187500.02, -187500.02, -187500.02, -187500.02, -187500.02, 0.000, 0.000, 0.000, 14:46:42.950
26, 72684.07, -187500.02, -187500.02, -187500.02, -187500.02, -187500.02, -187500.02, -187500.02, 0.000, 0.000, 0.000, 14:46:42.950
27, 72294.50, -187500.02, -187500.02, -187500.02, -187500.02, -187500.02, -187500.02, -187500.02, 0.000, 0.000, 0.000, 14:46:42.950
28, 72670.33, -187500.02, -187500.02, -187500.02, -187500.02, -187500.02, -187500.02, -187500.02, 0.000, 0.000, 0.000, 14:46:42.950
29, 73072.05, -187500.02, -187500.02, -187500.02, -187500.02, -187500.02, -187500.02, -187500.02, 0.000, 0.000, 0.000, 14:46:42.951
30, 72797.57, -187500.02, -187500.02, -187500.02, -187500.02, -187500.02, -187500.02, -187500.02, 0.000, 0.000, 0.000, 14:46:42.951
31, 72360.30, -187500.02, -187500.02, -187500.02, -187500.02, -187500.02, -187500.02, -187500.02, 0.000, 0.000, 0.000, 14:46:42.951
32, 72579.40, -187500.02, -187500.02, -187500.02, -187500.02, -187500.02, -187500.02, -187500.02, 0.000, 0.000, 0.000, 14:46:42.951
33, 73083.48, -187500.02, -187500.02, -187500.02, -187500.02, -187500.02, -187500.02, -187500.02, -0.348, -0.796, 0.518, 14:46:42.951
34, 72863.63, -187500.02, -187500.02, -187500.02, -187500.02, -187500.02, -187500.02, -187500.02, 0.000, 0.000, 0.000, 14:46:42.951
35, 72399.06, -187500.02, -187500.02, -187500.02, -187500.02, -187500.02, -187500.02, -187500.02, 0.000, 0.000, 0.000, 14:46:42.951
36, 72448.75, -187500.02, -187500.02, -187500.02, -187500.02, -187500.02, -187500.02, -187500.02, 0.000, 0.000, 0.000, 14:46:42.951
37, 73043.35, -187500.02, -187500.02, -187500.02, -187500.02, -187500.02, -187500.02, -187500.02, 0.000, 0.000, 0.000, 14:46:42.951
38, 72929.07, -187500.02, -187500.02, -187500.02, -187500.02, -187500.02, -187500.02, -187500.02, 0.000, 0.000, 0.000, 14:46:42.952
39, 72463.64, -187500.02, -187500.02, -187500.02, -187500.02, -187500.02, -187500.02, -187500.02, 0.000, 0.000, 0.000, 14:46:42.952
40, 72359.10, -187500.02, -187500.02, -187500.02, -187500.02, -187500.02, -187500.02, -187500.02, 0.000, 0.000, 0.000, 14:46:42.952
41, 72991.16, -187500.02, -187500.02, -187500.02, -187500.02, -187500.02, -187500.02, -187500.02, 0.000, 0.000, 0.000, 14:46:42.952
42, 72997.80, -187500.02, -187500.02, -187500.02, -187500.02, -187500.02, -187500.02, -187500.02, 0.000, 0.000, 0.000, 14:46:42.952
43, 72547.66, -187500.02, -187500.02, -187500.02, -187500.02, -187500.02, -187500.02, -187500.02, -0.354, -0.798, 0.520, 14:46:42.952
44, 72295.51, -187500.02, -187500.02, -187500.02, -187500.02, -187500.02, -187500.02, -187500.02, 0.000, 0.000, 0.000, 14:46:42.952
45, 72867.60, -187500.02, -187500.02, -187500.02, -187500.02, -187500.02, -187500.02, -187500.02, 0.000, 0.000, 0.000, 14:46:42.952
46, 73043.09, -187500.02, -187500.02, -187500.02, -187500.02, -187500.02, -187500.02, -187500.02, 0.000, 0.000, 0.000, 14:46:42.952
47, 72637.11, -187500.02, -187500.02, -187500.02, -187500.02, -187500.02, -187500.02, -187500.02, 0.000, 0.000, 0.000, 14:46:42.952
48, 72294.21, -187500.02, -187500.02, -187500.02, -187500.02, -187500.02, -187500.02, -187500.02, 0.000, 0.000, 0.000, 14:46:42.953
49, 72783.52, -187500.02, -187500.02, -187500.02, -187500.02, -187500.02, -187500.02, -187500.02, 0.000, 0.000, 0.000, 14:46:42.953
50, 73086.73, -187500.02, -187500.02, -187500.02, -187500.02, -187500.02, -187500.02, -187500.02, 0.000, 0.000, 0.000, 14:46:42.953
51, 72719.12, -187500.02, -187500.02, -187500.02, -187500.02, -187500.02, -187500.02, -187500.02, 0.000, 0.000, 0.000, 14:46:42.953
52, 72280.13, -187500.02, -187500.02, -187500.02, -187500.02, -187500.02, -187500.02, -187500.02, 0.000, 0.000, 0.000, 14:46:42.953
53, 72622.16, -187500.02, -187500.02, -187500.02, -187500.02, -187500.02, -187500.02, -187500.02, -0.354, -0.798, 0.522, 14:46:42.953
54, 73081.10, -187500.02, -187500.02, -187500.02, -187500.02, -187500.02, -187500.02, -187500.02, 0.000, 0.000, 0.000, 14:46:42.953
55, 72795.31, -187500.02, -187500.02, -187500.02, -187500.02, -187500.02, -187500.02, -187500.02, 0.000, 0.000, 0.000, 14:46:42.953
56, 72328.52, -187500.02, -187500.02, -187500.02, -187500.02, -187500.02, -187500.02, -187500.02, 0.000, 0.000, 0.000, 14:46:42.953
57, 72524.16, -187500.02, -187500.02, -187500.02, -187500.02, -187500.02, -187500.02, -187500.02, 0.000, 0.000, 0.000, 14:46:42.953
58, 73088.10, -187500.02, -187500.02, -187500.02, -187500.02, -187500.02, -187500.02, -187500.02, 0.000, 0.000, 0.000, 14:46:42.954
59, 72901.02, -187500.02, -187500.02, -187500.02, -187500.02, -187500.02, -187500.02, -187500.02, 0.000, 0.000, 0.000, 14:46:42.954
60, 72434.36, -187500.02, -187500.02, -187500.02, -187500.02, -187500.02, -187500.02, -187500.02, 0.000, 0.000, 0.000, 14:46:42.954
61, 72427.52, -187500.02, -187500.02, -187500.02, -187500.02, -187500.02, -187500.02, -187500.02, 0.000, 0.000, 0.000, 14:46:42.954
62, 73037.07, -187500.02, -187500.02, -187500.02, -187500.02, -187500.02, -187500.02, -187500.02, 0.000, 0.000, 0.000, 14:46:42.954
63, 72958.30, -187500.02, -187500.02, -187500.02, -187500.02, -187500.02, -187500.02, -187500.02, -0.354, -0.796, 0.524, 14:46:42.954
64, 72512.27, -187500.02, -187500.02, -187500.02, -187500.02, -187500.02, -187500.02, -187500.02, 0.000, 0.000, 0.000, 14:46:42.954
65, 72365.13, -187500.02, -187500.02, -187500.02, -187500.02, -187500.02, -187500.02, -187500.02, 0.000, 0.000, 0.000, 14:46:42.954
66, 72976.27, -187500.02, -187500.02, -187500.02, -187500.02, -187500.02, -187500.02, -187500.02, 0.000, 0.000, 0.000, 14:46:42.955
67, 73020.73, -187500.02, -187500.02, -187500.02, -187500.02, -187500.02, -187500.02, -187500.02, 0.000, 0.000, 0.000, 14:46:42.955
68, 72597.19, -187500.02, -187500.02, -187500.02, -187500.02, -187500.02, -187500.02, -187500.02, 0.000, 0.000, 0.000, 14:46:42.955
69, 72310.38, -187500.02, -187500.02, -187500.02, -187500.02, -187500.02, -187500.02, -187500.02, 0.000, 0.000, 0.000, 14:46:42.955
70, 72847.35, -187500.02, -187500.02, -187500.02, -187500.02, -187500.02, -187500.02, -187500.02, 0.000, 0.000, 0.000, 14:46:42.955
71, 73054.08, -187500.02, -187500.02, -187500.02, -187500.02, -187500.02, -187500.02, -187500.02, 0.000, 0.000, 0.000, 14:46:42.955
72, 72670.46, -187500.02, -187500.02, -187500.02, -187500.02, -187500.02, -187500.02, -187500.02, -0.352, -0.800, 0.524, 14:46:42.956
73, 72296.24, -187500.02, -187500.02, -187500.02, -187500.02, -187500.02, -187500.02, -187500.02, 0.000, 0.000, 0.000, 14:46:42.956
74, 72735.70, -187500.02, -187500.02, -187500.02, -187500.02, -187500.02, -187500.02, -187500.02, 0.000, 0.000, 0.000, 14:46:43.422
75, 73088.26, -187500.02, -187500.02, -187500.02, -187500.02, -187500.02, -187500.02, -187500.02, 0.000, 0.000, 0.000, 14:46:43.422
76, 72773.43, -187500.02, -187500.02, -187500.02, -187500.02, -187500.02, -187500.02, -187500.02, 0.000, 0.000, 0.000, 14:46:43.422
77, 72331.07, -187500.02, -187500.02, -187500.02, -187500.02, -187500.02, -187500.02, -187500.02, 0.000, 0.000, 0.000, 14:46:43.423
78, 72615.20, -187500.02, -187500.02, -187500.02, -187500.02, -187500.02, -187500.02, -187500.02, 0.000, 0.000, 0.000, 14:46:43.423
79, 73083.41, -187500.02, -187500.02, -187500.02, -187500.02, -187500.02, -187500.02, -187500.02, 0.000, 0.000, 0.000, 14:46:43.423
80, 72834.95, -187500.02, -187500.02, -187500.02, -187500.02, -187500.02, -187500.02, -187500.02, 0.000, 0.000, 0.000, 14:46:43.423
81, 72371.55, -187500.02, -187500.02, -187500.02, -187500.02, -187500.02, -187500.02, -187500.02, 0.000, 0.000, 0.000, 14:46:43.423
82, 72496.61, -187500.02, -187500.02, -187500.02, -187500.02, -187500.02, -187500.02, -187500.02, -0.348, -0.798, 0.524, 14:46:43.424
83, 73059.78, -187500.02, -187500.02, -187500.02, -187500.02, -187500.02, -187500.02, -187500.02, 0.000, 0.000, 0.000, 14:46:43.424
84, 72883.80, -187500.02, -187500.02, -187500.02, -187500.02, -187500.02, -187500.02, -187500.02, 0.000, 0.000, 0.000, 14:46:43.424
85, 72426.34, -187500.02, -187500.02, -187500.02, -187500.02, -187500.02, -187500.02, -187500.02, 0.000, 0.000, 0.000, 14:46:43.424
86, 72380.18, -187500.02, -187500.02, -187500.02, -187500.02, -187500.02, -187500.02, -187500.02, 0.000, 0.000, 0.000, 14:46:43.424
87, 72997.22, -187500.02, -187500.02, -187500.02, -187500.02, -187500.02, -187500.02, -187500.02, 0.000, 0.000, 0.000, 14:46:43.425
88, 72964.77, -187500.02, -187500.02, -187500.02, -187500.02, -187500.02, -187500.02, -187500.02, 0.000, 0.000, 0.000, 14:46:43.425
89, 72533.06, -187500.02, -187500.02, -187500.02, -187500.02, -187500.02, -187500.02, -187500.02, 0.000, 0.000, 0.000, 14:46:43.425
90, 72342.40, -187500.02, -187500.02, -187500.02, -187500.02, -187500.02, -187500.02, -187500.02, 0.000, 0.000, 0.000, 14:46:43.425
91, 72932.51, -187500.02, -187500.02, -187500.02, -187500.02, -187500.02, -187500.02, -187500.02, 0.000, 0.000, 0.000, 14:46:43.425
92, 73022.41, -187500.02, -187500.02, -187500.02, -187500.02, -187500.02, -187500.02, -187500.02, -0.354, -0.800, 0.520, 14:46:43.425
93, 72630.47, -187500.02, -187500.02, -187500.02, -187500.02, -187500.02, -187500.02, -187500.02, 0.000, 0.000, 0.000, 14:46:43.425
94, 72332.34, -187500.02, -187500.02, -187500.02, -187500.02, -187500.02, -187500.02, -187500.02, 0.000, 0.000, 0.000, 14:46:43.425
95, 72843.98, -187500.02, -187500.02, -187500.02, -187500.02, -187500.02, -187500.02, -187500.02, 0.000, 0.000, 0.000, 14:46:43.426
96, 73083.63, -187500.02, -187500.02, -187500.02, -187500.02, -187500.02, -187500.02, -187500.02, 0.000, 0.000, 0.000, 14:46:43.426
97, 72685.28, -187500.02, -187500.02, -187500.02, -187500.02, -187500.02, -187500.02, -187500.02, 0.000, 0.000, 0.000, 14:46:43.426
98, 72294.23, -187500.02, -187500.02, -187500.02, -187500.02, -187500.02, -187500.02, -187500.02, 0.000, 0.000, 0.000, 14:46:43.426
99, 72713.93, -187500.02, -187500.02, -187500.02, -187500.02, -187500.02, -187500.02, -187500.02, 0.000, 0.000, 0.000, 14:46:43.426
100, 73102.88, -187500.02, -187500.02, -187500.02, -187500.02, -187500.02, -187500.02, -187500.02, 0.000, 0.000, 0.000, 14:46:43.426
101, 72799.49, -187500.02, -187500.02, -187500.02, -187500.02, -187500.02, -187500.02, -187500.02, 0.000, 0.000, 0.000, 14:46:43.426
102, 72348.70, -187500.02, -187500.02, -187500.02, -187500.02, -187500.02, -187500.02, -187500.02, -0.352, -0.796, 0.514, 14:46:43.426
103, 72586.70, -187500.02, -187500.02, -187500.02, -187500.02, -187500.02, -187500.02, -187500.02, 0.000, 0.000, 0.000, 14:46:43.426
104, 73079.16, -187500.02, -187500.02, -187500.02, -187500.02, -187500.02, -187500.02, -187500.02, 0.000, 0.000, 0.000, 14:46:43.427
105, 72835.80, -187500.02, -187500.02, -187500.02, -187500.02, -187500.02, -187500.02, -187500.02, 0.000, 0.000, 0.000, 14:46:43.427
106, 72371.82, -187500.02, -187500.02, -187500.02, -187500.02, -187500.02, -187500.02, -187500.02, 0.000, 0.000, 0.000, 14:46:43.427
107, 72463.28, -187500.02, -187500.02, -187500.02, -187500.02, -187500.02, -187500.02, -187500.02, 0.000, 0.000, 0.000, 14:46:43.427
108, 73049.05, -187500.02, -187500.02, -187500.02, -187500.02, -187500.02, -187500.02, -187500.02, 0.000, 0.000, 0.000, 14:46:43.428
109, 72925.45, -187500.02, -187500.02, -187500.02, -187500.02, -187500.02, -187500.02, -187500.02, 0.000, 0.000, 0.000, 14:46:43.428
110, 72464.60, -187500.02, -187500.02, -187500.02, -187500.02, -187500.02, -187500.02, -187500.02, 0.000, 0.000, 0.000, 14:46:43.428
111, 72383.20, -187500.02, -187500.02, -187500.02, -187500.02, -187500.02, -187500.02, -187500.02, 0.000, 0.000, 0.000, 14:46:43.429
112, 73012.44, -187500.02, -187500.02, -187500.02, -187500.02, -187500.02, -187500.02, -187500.02, -0.346, -0.792, 0.522, 14:46:43.429
113, 72985.46, -187500.02, -187500.02, -187500.02, -187500.02, -187500.02, -187500.02, -187500.02, 0.000, 0.000, 0.000, 14:46:43.429
114, 72538.65, -187500.02, -187500.02, -187500.02, -187500.02, -187500.02, -187500.02, -187500.02, 0.000, 0.000, 0.000, 14:46:43.429
115, 72319.38, -187500.02, -187500.02, -187500.02, -187500.02, -187500.02, -187500.02, -187500.02, 0.000, 0.000, 0.000, 14:46:43.430
116, 72905.64, -187500.02, -187500.02, -187500.02, -187500.02, -187500.02, -187500.02, -187500.02, 0.000, 0.000, 0.000, 14:46:43.430
117, 73036.96, -187500.02, -187500.02, -187500.02, -187500.02, -187500.02, -187500.02, -187500.02, 0.000, 0.000, 0.000, 14:46:43.430
118, 72605.66, -187500.02, -187500.02, -187500.02, -187500.02, -187500.02, -187500.02, -187500.02, 0.000, 0.000, 0.000, 14:46:43.430
119, 72271.08, -187500.02, -187500.02, -187500.02, -187500.02, -187500.02, -187500.02, -187500.02, 0.000, 0.000, 0.000, 14:46:43.430
120, 72784.90, -187500.02, -187500.02, -187500.02, -187500.02, -187500.02, -187500.02, -187500.02, 0.000, 0.000, 0.000, 14:46:43.431
121, 73085.35, -187500.02, -187500.02, -187500.02, -187500.02, -187500.02, -187500.02, -187500.02, 0.000, 0.000, 0.000, 14:46:43.431
122, 72739.81, -187500.02, -187500.02, -187500.02, -187500.02, -187500.02, -187500.02, -187500.02, -0.348, -0.790, 0.526, 14:46:43.431
123, 72329.02, -187500.02, -187500.02, -187500.02, -187500.02, -187500.02, -187500.02, -187500.02, 0.000, 0.000, 0.000, 14:46:43.431
124, 72677.16, -187500.02, -187500.02, -187500.02, -187500.02, -187500.02, -187500.02, -187500.02, 0.000, 0.000, 0.000, 14:46:43.432
125, 73102.25, -187500.02, -187500.02, -187500.02, -187500.02, -187500.02, -187500.02, -187500.02, 0.000, 0.000, 0.000, 14:46:43.432
126, 72801.35, -187500.02, -187500.02, -187500.02, -187500.02, -187500.02, -187500.02, -187500.02, 0.000, 0.000, 0.000, 14:46:43.432
127, 72336.55, -187500.02, -187500.02, -187500.02, -187500.02, -187500.02, -187500.02, -187500.02, 0.000, 0.000, 0.000, 14:46:43.432
128, 72538.20, -187500.02, -187500.02, -187500.02, -187500.02, -187500.02, -187500.02, -187500.02, 0.000, 0.000, 0.000, 14:46:43.433
129, 73086.42, -187500.02, -187500.02, -187500.02, -187500.02, -187500.02, -187500.02, -187500.02, 0.000, 0.000, 0.000, 14:46:43.433
130, 72877.28, -187500.02, -187500.02, -187500.02, -187500.02, -187500.02, -187500.02, -187500.02, 0.000, 0.000, 0.000, 14:46:43.433
131, 72427.14, -187500.02, -187500.02, -187500.02, -187500.02, -187500.02, -187500.02, -187500.02, 0.000, 0.000, 0.000, 14:46:43.433
132, 72431.12, -187500.02, -187500.02, -187500.02, -187500.02, -187500.02, -187500.02, -187500.02, -0.348, -0.798, 0.518, 14:46:43.434
133, 73033.74, -187500.02, -187500.02, -187500.02, -187500.02, -187500.02, -187500.02, -187500.02, 0.000, 0.000, 0.000, 14:46:43.434
