%OpenBCI Raw EEG Data
%
%Sample Rate = 250.0 Hz
%First Column = SampleIndex
%Last Column = Timestamp 
%Other Columns = EEG data in microvolts followed by Accel Data (in G) interleaved with Aux Data
0, 55323.23, -187500.02, -187500.02, -187500.02, -187500.02, -187500.02, -187500.02, -187500.02, -0.826, 0.338, 0.078, 14:35:29.582
1, 55071.07, -187500.02, -187500.02, -187500.02, -187500.02, -187500.02, -187500.02, -187500.02, 0.000, 0.000, 0.000, 14:35:29.582
2, 55559.42, -187500.02, -187500.02, -187500.02, -187500.02, -187500.02, -187500.02, -187500.02, 0.000, 0.000, 0.000, 14:35:29.582
3, 55721.73, -187500.02, -187500.02, -187500.02, -187500.02, -187500.02, -187500.02, -187500.02, 0.000, 0.000, 0.000, 14:35:29.583
4, 55381.50, -187500.02, -187500.02, -187500.02, -187500.02, -187500.02, -187500.02, -187500.02, 0.000, 0.000, 0.000, 14:35:29.583
5, 55050.36, -187500.02, -187500.02, -187500.02, -187500.02, -187500.02, -187500.02, -187500.02, 0.000, 0.000, 0.000, 14:35:29.583
6, 55460.00, -187500.02, -187500.02, -187500.02, -187500.02, -187500.02, -187500.02, -187500.02, 0.000, 0.000, 0.000, 14:35:29.583
7, 55706.51, -187500.02, -187500.02, -187500.02, -187500.02, -187500.02, -187500.02, -187500.02, -0.882, 0.250, -0.118, 14:35:29.583
8, 55402.46, -187500.02, -187500.02, -187500.02, -187500.02, -187500.02, -187500.02, -187500.02, 0.000, 0.000, 0.000, 14:35:29.583
9, 55038.00, -187500.02, -187500.02, -187500.02, -187500.02, -187500.02, -187500.02, -187500.02, 0.000, 0.000, 0.000, 14:35:29.583
10, 55305.99, -187500.02, -187500.02, -187500.02, -187500.02, -187500.02, -187500.02, -187500.02, 0.000, 0.000, 0.000, 14:35:29.583
11, 55716.50, -187500.02, -187500.02, -187500.02, -187500.02, -187500.02, -187500.02, -187500.02, 0.000, 0.000, 0.000, 14:35:29.583
12, 55529.24, -187500.02, -187500.02, -187500.02, -187500.02, -187500.02, -187500.02, -187500.02, 0.000, 0.000, 0.000, 14:35:29.583
13, 55138.24, -187500.02, -187500.02, -187500.02, -187500.02, -187500.02, -187500.02, -187500.02, 0.000, 0.000, 0.000, 14:35:29.583
14, 55287.55, -187500.02, -187500.02, -187500.02, -187500.02, -187500.02, -187500.02, -187500.02, 0.000, 0.000, 0.000, 14:35:29.584
15, 55763.93, -187500.02, -187500.02, -187500.02, -187500.02, -187500.02, -187500.02, -187500.02, 0.000, 0.000, 0.000, 14:35:29.584
16, 55566.03, -187500.02, -187500.02, -187500.02, -187500.02, -187500.02, -187500.02, -187500.02, -0.916, 0.212, -0.214, 14:35:29.584
17, 55196.18, -187500.02, -187500.02, -187500.02, -187500.02, -187500.02, -187500.02, -187500.02, 0.000, 0.000, 0.000, 14:35:29.584
18, 55229.62, -187500.02, -187500.02, -187500.02, -187500.02, -187500.02, -187500.02, -187500.02, 0.000, 0.000, 0.000, 14:35:29.584
19, 55799.12, -187500.02, -187500.02, -187500.02, -187500.02, -187500.02, -187500.02, -187500.02, 0.000, 0.000, 0.000, 14:35:29.584
20, 55681.50, -187500.02, -187500.02, -187500.02, -187500.02, -187500.02, -187500.02, -187500.02, 0.000, 0.000, 0.000, 14:35:29.584
21, 55284.56, -187500.02, -187500.02, -187500.02, -187500.02, -187500.02, -187500.02, -187500.02, 0.000, 0.000, 0.000, 14:35:29.584
22, 55178.36, -187500.02, -187500.02, -187500.02, -187500.02, -187500.02, -187500.02, -187500.02, 0.000, 0.000, 0.000, 14:35:29.584
23, 55702.58, -187500.02, -187500.02, -187500.02, -187500.02, -187500.02, -187500.02, -187500.02, 0.000, 0.000, 0.000, 14:35:29.584
24, 55802.22, -187500.02, -187500.02, -187500.02, -187500.02, -187500.02, -187500.02, -187500.02, 0.000, 0.000, 0.000, 14:35:29.584
25, 55439.79, -187500.02, -187500.02, -187500.02, -187500.02, -187500.02, -187500.02, -187500.02, 0.000, 0.000, 0.000, 14:35:29.585
26, 55223.36, -187500.02, -187500.02, -187500.02, -187500.02, -187500.02, -187500.02, -187500.02, -0.934, 0.192, -0.256, 14:35:29.585
27, 55817.85, -187500.02, -187500.02, -187500.02, -187500.02, -187500.02, -187500.02, -187500.02, 0.000, 0.000, 0.000, 14:35:29.585
28, 56022.03, -187500.02, -187500.02, -187500.02, -187500.02, -187500.02, -187500.02, -187500.02, 0.000, 0.000, 0.000, 14:35:29.585
29, 55596.14, -187500.02, -187500.02, -187500.02, -187500.02, -187500.02, -187500.02, -187500.02, 0.000, 0.000, 0.000, 14:35:29.585
30, 55197.59, -187500.02, -187500.02, -187500.02, -187500.02, -187500.02, -187500.02, -187500.02, 0.000, 0.000, 0.000, 14:35:29.585
31, 55598.35, -187500.02, -187500.02, -187500.02, -187500.02, -187500.02, -187500.02, -187500.02, 0.000, 0.000, 0.000, 14:35:29.585
32, 55854.35, -187500.02, -187500.02, -187500.02, -187500.02, -187500.02, -187500.02, -187500.02, 0.000, 0.000, 0.000, 14:35:29.585
33, 55512.43, -187500.02, -187500.02, -187500.02, -187500.02, -187500.02, -187500.02, -187500.02, 0.000, 0.000, 0.000, 14:35:29.585
34, 55194.68, -187500.02, -187500.02, -187500.02, -187500.02, -187500.02, -187500.02, -187500.02, 0.000, 0.000, 0.000, 14:35:29.585
35, 55524.70, -187500.02, -187500.02, -187500.02, -187500.02, -187500.02, -187500.02, -187500.02, 0.000, 0.000, 0.000, 14:35:29.586
36, 55916.93, -187500.02, -187500.02, -187500.02, -187500.02, -187500.02, -187500.02, -187500.02, -0.940, 0.178, -0.284, 14:35:29.586
37, 55615.63, -187500.02, -187500.02, -187500.02, -187500.02, -187500.02, -187500.02, -187500.02, 0.000, 0.000, 0.000, 14:35:29.586
38, 55162.67, -187500.02, -187500.02, -187500.02, -187500.02, -187500.02, -187500.02, -187500.02, 0.000, 0.000, 0.000, 14:35:29.586
39, 55222.64, -187500.02, -187500.02, -187500.02, -187500.02, -187500.02, -187500.02, -187500.02, 0.000, 0.000, 0.000, 14:35:29.586
40, 55737.56, -187500.02, -187500.02, -187500.02, -187500.02, -187500.02, -187500.02, -187500.02, 0.000, 0.000, 0.000, 14:35:29.586
41, 55585.99, -187500.02, -187500.02, -187500.02, -187500.02, -187500.02, -187500.02, -187500.02, 0.000, 0.000, 0.000, 14:35:29.586
42, 55147.32, -187500.02, -187500.02, -187500.02, -187500.02, -187500.02, -187500.02, -187500.02, 0.000, 0.000, 0.000, 14:35:29.586
43, 55139.25, -187500.02, -187500.02, -187500.02, -187500.02, -187500.02, -187500.02, -187500.02, 0.000, 0.000, 0.000, 14:35:29.586
44, 55673.12, -187500.02, -187500.02, -187500.02, -187500.02, -187500.02, -187500.02, -187500.02, 0.000, 0.000, 0.000, 14:35:29.586
45, 55625.69, -187500.02, -187500.02, -187500.02, -187500.02, -187500.02, -187500.02, -187500.02, 0.000, 0.000, 0.000, 14:35:29.587
46, 55251.75, -187500.02, -187500.02, -187500.02, -187500.02, -187500.02, -187500.02, -187500.02, -0.956, 0.182, -0.300, 14:35:29.587
47, 55076.33, -187500.02, -187500.02, -187500.02, -187500.02, -187500.02, -187500.02, -187500.02, 0.000, 0.000, 0.000, 14:35:29.587
48, 55591.31, -187500.02, -187500.02, -187500.02, -187500.02, -187500.02, -187500.02, -187500.02, 0.000, 0.000, 0.000, 14:35:29.587
49, 55658.03, -187500.02, -187500.02, -187500.02, -187500.02, -187500.02, -187500.02, -187500.02, 0.000, 0.000, 0.000, 14:35:29.587
50, 55292.09, -187500.02, -187500.02, -187500.02, -187500.02, -187500.02, -187500.02, -187500.02, 0.000, 0.000, 0.000, 14:35:29.587
51, 55050.18, -187500.02, -187500.02, -187500.02, -187500.02, -187500.02, -187500.02, -187500.02, 0.000, 0.000, 0.000, 14:35:29.587
52, 55522.25, -187500.02, -187500.02, -187500.02, -187500.02, -187500.02, -187500.02, -187500.02, 0.000, 0.000, 0.000, 14:35:29.587
53, 55738.97, -187500.02, -187500.02, -187500.02, -187500.02, -187500.02, -187500.02, -187500.02, 0.000, 0.000, 0.000, 14:35:29.588
54, 55446.18, -187500.02, -187500.02, -187500.02, -187500.02, -187500.02, -187500.02, -187500.02, 0.000, 0.000, 0.000, 14:35:29.588
55, 55112.11, -187500.02, -187500.02, -187500.02, -187500.02, -187500.02, -187500.02, -187500.02, 0.000, 0.000, 0.000, 14:35:29.588
56, 55427.18, -187500.02, -187500.02, -187500.02, -187500.02, -187500.02, -187500.02, -187500.02, -0.952, 0.176, -0.308, 14:35:29.588
57, 55758.79, -187500.02, -187500.02, -187500.02, -187500.02, -187500.02, -187500.02, -187500.02, 0.000, 0.000, 0.000, 14:35:29.588
58, 55475.87, -187500.02, -187500.02, -187500.02, -187500.02, -187500.02, -187500.02, -187500.02, 0.000, 0.000, 0.000, 14:35:29.588
59, 55041.91, -187500.02, -187500.02, -187500.02, -187500.02, -187500.02, -187500.02, -187500.02, 0.000, 0.000, 0.000, 14:35:29.588
60, 55333.35, -187500.02, -187500.02, -187500.02, -187500.02, -187500.02, -187500.02, -187500.02, 0.000, 0.000, 0.000, 14:35:29.588
61, 55787.47, -187500.02, -187500.02, -187500.02, -187500.02, -187500.02, -187500.02, -187500.02, 0.000, 0.000, 0.000, 14:35:29.588
62, 55533.31, -187500.02, -187500.02, -187500.02, -187500.02, -187500.02, -187500.02, -187500.02, 0.000, 0.000, 0.000, 14:35:29.589
63, 55125.68, -187500.02, -187500.02, -187500.02, -187500.02, -187500.02, -187500.02, -187500.02, 0.000, 0.000, 0.000, 14:35:29.589
64, 55223.67, -187500.02, -187500.02, -187500.02, -187500.02, -187500.02, -187500.02, -187500.02, 0.000, 0.000, 0.000, 14:35:29.589
65, 55727.21, -187500.02, -187500.02, -187500.02, -187500.02, -187500.02, -187500.02, -187500.02, 0.000, 0.000, 0.000, 14:35:29.589
66, 55569.16, -187500.02, -187500.02, -187500.02, -187500.02, -187500.02, -187500.02, -187500.02, -0.948, 0.170, -0.312, 14:35:29.589
67, 55163.95, -187500.02, -187500.02, -187500.02, -187500.02, -187500.02, -187500.02, -187500.02, 0.000, 0.000, 0.000, 14:35:29.589
68, 55157.89, -187500.02, -187500.02, -187500.02, -187500.02, -187500.02, -187500.02, -187500.02, 0.000, 0.000, 0.000, 14:35:29.589
69, 55709.69, -187500.02, -187500.02, -187500.02, -187500.02, -187500.02, -187500.02, -187500.02, 0.000, 0.000, 0.000, 14:35:29.589
70, 55670.95, -187500.02, -187500.02, -187500.02, -187500.02, -187500.02, -187500.02, -187500.02, 0.000, 0.000, 0.000, 14:35:29.590
71, 55304.56, -187500.02, -187500.02, -187500.02, -187500.02, -187500.02, -187500.02, -187500.02, 0.000, 0.000, 0.000, 14:35:29.590
72, 55145.93, -187500.02, -187500.02, -187500.02, -187500.02, -187500.02, -187500.02, -187500.02, 0.000, 0.000, 0.000, 14:35:29.590
73, 55665.86, -187500.02, -187500.02, -187500.02, -187500.02, -187500.02, -187500.02, -187500.02, 0.000, 0.000, 0.000, 14:35:29.590
74, 55732.06, -187500.02, -187500.02, -187500.02, -187500.02, -187500.02, -187500.02, -187500.02, 0.000, 0.000, 0.000, 14:35:29.590
75, 55352.44, -187500.02, -187500.02, -187500.02, -187500.02, -187500.02, -187500.02, -187500.02, 0.000, 0.000, 0.000, 14:35:29.590
76, 55048.05, -187500.02, -187500.02, -187500.02, -187500.02, -187500.02, -187500.02, -187500.02, -0.952, 0.170, -0.312, 14:35:29.590
77, 55507.38, -187500.02, -187500.02, -187500.02, -187500.02, -187500.02, -187500.02, -187500.02, 0.000, 0.000, 0.000, 14:35:29.590
78, 55751.13, -187500.02, -187500.02, -187500.02, -187500.02, -187500.02, -187500.02, -187500.02, 0.000, 0.000, 0.000, 14:35:29.590
79, 55423.12, -187500.02, -187500.02, -187500.02, -187500.02, -187500.02, -187500.02, -187500.02, 0.000, 0.000, 0.000, 14:35:29.590
80, 55115.38, -187500.02, -187500.02, -187500.02, -187500.02, -187500.02, -187500.02, -187500.02, 0.000, 0.000, 0.000, 14:35:29.590
81, 55494.91, -187500.02, -187500.02, -187500.02, -187500.02, -187500.02, -187500.02, -187500.02, 0.000, 0.000, 0.000, 14:35:29.591
82, 55909.55, -187500.02, -187500.02, -187500.02, -187500.02, -187500.02, -187500.02, -187500.02, 0.000, 0.000, 0.000, 14:35:29.591
83, 55731.59, -187500.02, -187500.02, -187500.02, -187500.02, -187500.02, -187500.02, -187500.02, 0.000, 0.000, 0.000, 14:35:29.591
84, 55313.17, -187500.02, -187500.02, -187500.02, -187500.02, -187500.02, -187500.02, -187500.02, 0.000, 0.000, 0.000, 14:35:29.591
85, 55484.65, -187500.02, -187500.02, -187500.02, -187500.02, -187500.02, -187500.02, -187500.02, 0.000, 0.000, 0.000, 14:35:29.591
86, 55963.78, -187500.02, -187500.02, -187500.02, -187500.02, -187500.02, -187500.02, -187500.02, -0.952, 0.170, -0.314, 14:35:29.591
87, 55764.58, -187500.02, -187500.02, -187500.02, -187500.02, -187500.02, -187500.02, -187500.02, 0.000, 0.000, 0.000, 14:35:29.591
88, 55347.41, -187500.02, -187500.02, -187500.02, -187500.02, -187500.02, -187500.02, -187500.02, 0.000, 0.000, 0.000, 14:35:29.591
89, 55379.17, -187500.02, -187500.02, -187500.02, -187500.02, -187500.02, -187500.02, -187500.02, 0.000, 0.000, 0.000, 14:35:29.591
90, 55911.34, -187500.02, -187500.02, -187500.02, -187500.02, -187500.02, -187500.02, -187500.02, 0.000, 0.000, 0.000, 14:35:29.591
91, 55801.75, -187500.02, -187500.02, -187500.02, -187500.02, -187500.02, -187500.02, -187500.02, 0.000, 0.000, 0.000, 14:35:29.591
92, 55408.70, -187500.02, -187500.02, -187500.02, -187500.02, -187500.02, -187500.02, -187500.02, 0.000, 0.000, 0.000, 14:35:29.592
93, 55363.04, -187500.02, -187500.02, -187500.02, -187500.02, -187500.02, -187500.02, -187500.02, 0.000, 0.000, 0.000, 14:35:29.592
94, 55846.03, -187500.02, -187500.02, -187500.02, -187500.02, -187500.02, -187500.02, -187500.02, 0.000, 0.000, 0.000, 14:35:29.592
95, 55860.67, -187500.02, -187500.02, -187500.02, -187500.02, -187500.02, -187500.02, -187500.02, 0.000, 0.000, 0.000, 14:35:29.592
96, 55472.73, -187500.02, -187500.02, -187500.02, -187500.02, -187500.02, -187500.02, -187500.02, -0.952, 0.172, -0.314, 14:35:29.592
97, 55200.45, -187500.02, -187500.02, -187500.02, -187500.02, -187500.02, -187500.02, -187500.02, 0.000, 0.000, 0.000, 14:35:29.592
98, 55672.25, -187500.02, -187500.02, -187500.02, -187500.02, -187500.02, -187500.02, -187500.02, 0.000, 0.000, 0.000, 14:35:29.592
99, 55782.15, -187500.02, -187500.02, -187500.02, -187500.02, -187500.02, -187500.02, -187500.02, 0.000, 0.000, 0.000, 14:35:29.592
100, 55415.11, -187500.02, -187500.02, -187500.02, -187500.02, -187500.02, -187500.02, -187500.02, 0.000, 0.000, 0.000, 14:35:29.592
101, 55088.13, -187500.02, -187500.02, -187500.02, -187500.02, -187500.02, -187500.02, -187500.02, 0.000, 0.000, 0.000, 14:35:29.592
102, 55505.48, -187500.02, -187500.02, -187500.02, -187500.02, -187500.02, -187500.02, -187500.02, 0.000, 0.000, 0.000, 14:35:29.592
103, 55786.91, -187500.02, -187500.02, -187500.02, -187500.02, -187500.02, -187500.02, -187500.02, 0.000, 0.000, 0.000, 14:35:29.593
104, 55527.97, -187500.02, -187500.02, -187500.02, -187500.02, -187500.02, -187500.02, -187500.02, 0.000, 0.000, 0.000, 14:35:29.593
105, 55154.52, -187500.02, -187500.02, -187500.02, -187500.02, -187500.02, -187500.02, -187500.02, 0.000, 0.000, 0.000, 14:35:29.593
106, 55401.97, -187500.02, -187500.02, -187500.02, -187500.02, -187500.02, -187500.02, -187500.02, -0.956, 0.172, -0.308, 14:35:29.593
107, 55751.91, -187500.02, -187500.02, -187500.02, -187500.02, -187500.02, -187500.02, -187500.02, 0.000, 0.000, 0.000, 14:35:29.593
108, 55450.23, -187500.02, -187500.02, -187500.02, -187500.02, -187500.02, -187500.02, -187500.02, 0.000, 0.000, 0.000, 14:35:29.593
109, 55023.80, -187500.02, -187500.02, -187500.02, -187500.02, -187500.02, -187500.02, -187500.02, 0.000, 0.000, 0.000, 14:35:29.593
110, 55178.39, -187500.02, -187500.02, -187500.02, -187500.02, -187500.02, -187500.02, -187500.02, 0.000, 0.000, 0.000, 14:35:29.593
111, 55675.76, -187500.02, -187500.02, -187500.02, -187500.02, -187500.02, -187500.02, -187500.02, 0.000, 0.000, 0.000, 14:35:29.593
112, 55519.63, -187500.02, -187500.02, -187500.02, -187500.02, -187500.02, -187500.02, -187500.02, 0.000, 0.000, 0.000, 14:35:29.593
113, 55133.50, -187500.02, -187500.02, -187500.02, -187500.02, -187500.02, -187500.02, -187500.02, 0.000, 0.000, 0.000, 14:35:29.594
114, 55133.53, -187500.02, -187500.02, -187500.02, -187500.02, -187500.02, -187500.02, -187500.02, 0.000, 0.000, 0.000, 14:35:29.594
115, 55652.33, -187500.02, -187500.02, -187500.02, -187500.02, -187500.02, -187500.02, -187500.02, 0.000, 0.000, 0.000, 14:35:29.594
116, 55585.57, -187500.02, -187500.02, -187500.02, -187500.02, -187500.02, -187500.02, -187500.02, -0.962, 0.166, -0.310, 14:35:29.594
117, 55178.23, -187500.02, -187500.02, -187500.02, -187500.02, -187500.02, -187500.02, -187500.02, 0.000, 0.000, 0.000, 14:35:29.594
118, 55138.29, -187500.02, -187500.02, -187500.02, -187500.02, -187500.02, -187500.02, -187500.02, 0.000, 0.000, 0.000, 14:35:29.594
119, 55759.91, -187500.02, -187500.02, -187500.02, -187500.02, -187500.02, -187500.02, -187500.02, 0.000, 0.000, 0.000, 14:35:29.594
120, 55821.78, -187500.02, -187500.02, -187500.02, -187500.02, -187500.02, -187500.02, -187500.02, 0.000, 0.000, 0.000, 14:35:30.062
121, 55393.57, -187500.02, -187500.02, -187500.02, -187500.02, -187500.02, -187500.02, -187500.02, 0.000, 0.000, 0.000, 14:35:30.062
122, 55098.57, -187500.02, -187500.02, -187500.02, -187500.02, -187500.02, -187500.02, -187500.02, 0.000, 0.000, 0.000, 14:35:30.062
123, 55592.50, -187500.02, -187500.02, -187500.02, -187500.02, -187500.02, -187500.02, -187500.02, 0.000, 0.000, 0.000, 14:35:30.063
124, 55767.36, -187500.02, -187500.02, -187500.02, -187500.02, -187500.02, -187500.02, -187500.02, 0.000, 0.000, 0.000, 14:35:30.063
125, 55468.89, -187500.02, -187500.02, -187500.02, -187500.02, -187500.02, -187500.02, -187500.02, 0.000, 0.000, 0.000, 14:35:30.063
126, 55121.39, -187500.02, -187500.02, -187500.02, -187500.02, -187500.02, -187500.02, -187500.02, -0.960, 0.168, -0.310, 14:35:30.063
127, 55489.90, -187500.02, -187500.02, -187500.02, -187500.02, -187500.02, -187500.02, -187500.02, 0.000, 0.000, 0.000, 14:35:30.064
128, 55805.98, -187500.02, -187500.02, -187500.02, -187500.02, -187500.02, -187500.02, -187500.02, 0.000, 0.000, 0.000, 14:35:30.064
129, 55571.38, -187500.02, -187500.02, -187500.02, -187500.02, -187500.02, -187500.02, -187500.02, 0.000, 0.000, 0.000, 14:35:30.064
130, 55208.05, -187500.02, -187500.02, -187500.02, -187500.02, -187500.02, -187500.02, -187500.02, 0.000, 0.000, 0.000, 14:35:30.064
131, 55428.37, -187500.02, -187500.02, -187500.02, -187500.02, -187500.02, -187500.02, -187500.02, 0.000, 0.000, 0.000, 14:35:30.064
132, 55839.19, -187500.02, -187500.02, -187500.02, -187500.02, -187500.02, -187500.02, -187500.02, 0.000, 0.000, 0.000, 14:35:30.064
133, 55622.74, -187500.02, -187500.02, -187500.02, -187500.02, -187500.02, -187500.02, -187500.02, 0.000, 0.000, 0.000, 14:35:30.065
134, 55184.87, -187500.02, -187500.02, -187500.02, -187500.02, -187500.02, -187500.02, -187500.02, 0.000, 0.000, 0.000, 14:35:30.065
135, 55290.93, -187500.02, -187500.02, -187500.02, -187500.02, -187500.02, -187500.02, -187500.02, 0.000, 0.000, 0.000, 14:35:30.065
136, 55808.08, -187500.02, -187500.02, -187500.02, -187500.02, -187500.02, -187500.02, -187500.02, -0.954, 0.170, -0.316, 14:35:30.065
137, 55721.62, -187500.02, -187500.02, -187500.02, -187500.02, -187500.02, -187500.02, -187500.02, 0.000, 0.000, 0.000, 14:35:30.065
138, 55346.63, -187500.02, -187500.02, -187500.02, -187500.02, -187500.02, -187500.02, -187500.02, 0.000, 0.000, 0.000, 14:35:30.065
139, 55300.76, -187500.02, -187500.02, -187500.02, -187500.02, -187500.02, -187500.02, -187500.02, 0.000, 0.000, 0.000, 14:35:30.066
140, 55834.72, -187500.02, -187500.02, -187500.02, -187500.02, -187500.02, -187500.02, -187500.02, 0.000, 0.000, 0.000, 14:35:30.066
141, 55771.36, -187500.02, -187500.02, -187500.02, -187500.02, -187500.02, -187500.02, -187500.02, 0.000, 0.000, 0.000, 14:35:30.066
142, 55373.23, -187500.02, -187500.02, -187500.02, -187500.02, -187500.02, -187500.02, -187500.02, 0.000, 0.000, 0.000, 14:35:30.066
143, 55217.39, -187500.02, -187500.02, -187500.02, -187500.02, -187500.02, -187500.02, -187500.02, 0.000, 0.000, 0.000, 14:35:30.066
144, 55816.15, -187500.02, -187500.02, -187500.02, -187500.02, -187500.02, -187500.02, -187500.02, 0.000, 0.000, 0.000, 14:35:30.066
145, 55896.77, -187500.02, -187500.02, -187500.02, -187500.02, -187500.02, -187500.02, -187500.02, 0.000, 0.000, 0.000, 14:35:30.066
146, 55491.20, -187500.02, -187500.02, -187500.02, -187500.02, -187500.02, -187500.02, -187500.02, -0.954, 0.172, -0.318, 14:35:30.067
147, 55246.87, -187500.02, -187500.02, -187500.02, -187500.02, -187500.02, -187500.02, -187500.02, 0.000, 0.000, 0.000, 14:35:30.067
148, 55710.94, -187500.02, -187500.02, -187500.02, -187500.02, -187500.02, -187500.02, -187500.02, 0.000, 0.000, 0.000, 14:35:30.067
149, 55892.64, -187500.02, -187500.02, -187500.02, -187500.02, -187500.02, -187500.02, -187500.02, 0.000, 0.000, 0.000, 14:35:30.067
150, 55550.81, -187500.02, -187500.02, -187500.02, -187500.02, -187500.02, -187500.02, -187500.02, 0.000, 0.000, 0.000, 14:35:30.067
151, 55207.98, -187500.02, -187500.02, -187500.02, -187500.02, -187500.02, -187500.02, -187500.02, 0.000, 0.000, 0.000, 14:35:30.067
152, 55561.03, -187500.02, -187500.02, -187500.02, -187500.02, -187500.02, -187500.02, -187500.02, 0.000, 0.000, 0.000, 14:35:30.067
153, 55912.77, -187500.02, -187500.02, -187500.02, -187500.02, -187500.02, -187500.02, -187500.02, 0.000, 0.000, 0.000, 14:35:30.067
154, 55612.01, -187500.02, -187500.02, -187500.02, -187500.02, -187500.02, -187500.02, -187500.02, 0.000, 0.000, 0.000, 14:35:30.068
155, 55234.06, -187500.02, -187500.02, -187500.02, -187500.02, -187500.02, -187500.02, -187500.02, -0.952, 0.168, -0.312, 14:35:30.068
156, 55465.43, -187500.02, -187500.02, -187500.02, -187500.02, -187500.02, -187500.02, -187500.02, 0.000, 0.000, 0.000, 14:35:30.068
157, 55865.97, -187500.02, -187500.02, -187500.02, -187500.02, -187500.02, -187500.02, -187500.02, 0.000, 0.000, 0.000, 14:35:30.068
158, 55663.91, -187500.02, -187500.02, -187500.02, -187500.02, -187500.02, -187500.02, -187500.02, 0.000, 0.000, 0.000, 14:35:30.068
159, 55259.90, -187500.02, -187500.02, -187500.02, -187500.02, -187500.02, -187500.02, -187500.02, 0.000, 0.000, 0.000, 14:35:30.068
160, 55330.47, -187500.02, -187500.02, -187500.02, -187500.02, -187500.02, -187500.02, -187500.02, 0.000, 0.000, 0.000, 14:35:30.069
161, 55809.98, -187500.02, -187500.02, -187500.02, -187500.02, -187500.02, -187500.02, -187500.02, 0.000, 0.000, 0.000, 14:35:30.069
162, 55624.53, -187500.02, -187500.02, -187500.02, -187500.02, -187500.02, -187500.02, -187500.02, 0.000, 0.000, 0.000, 14:35:30.069
163, 55195.71, -187500.02, -187500.02, -187500.02, -187500.02, -187500.02, -187500.02, -187500.02, 0.000, 0.000, 0.000, 14:35:30.069
164, 55147.12, -187500.02, -187500.02, -187500.02, -187500.02, -187500.02, -187500.02, -187500.02, 0.000, 0.000, 0.000, 14:35:30.070
165, 55719.72, -187500.02, -187500.02, -187500.02, -187500.02, -187500.02, -187500.02, -187500.02, -0.960, 0.160, -0.320, 14:35:30.070
166, 55680.96, -187500.02, -187500.02, -187500.02, -187500.02, -187500.02, -187500.02, -187500.02, 0.000, 0.000, 0.000, 14:35:30.070
167, 55245.20, -187500.02, -187500.02, -187500.02, -187500.02, -187500.02, -187500.02, -187500.02, 0.000, 0.000, 0.000, 14:35:30.070
168, 55126.42, -187500.02, -187500.02, -187500.02, -187500.02, -187500.02, -187500.02, -187500.02, 0.000, 0.000, 0.000, 14:35:30.071
169, 55687.09, -187500.02, -187500.02, -187500.02, -187500.02, -187500.02, -187500.02, -187500.02, 0.000, 0.000, 0.000, 14:35:30.071
170, 55757.86, -187500.02, -187500.02, -187500.02, -187500.02, -187500.02, -187500.02, -187500.02, 0.000, 0.000, 0.000, 14:35:30.071
171, 55409.77, -187500.02, -187500.02, -187500.02, -187500.02, -187500.02, -187500.02, -187500.02, 0.000, 0.000, 0.000, 14:35:30.071
172, 55086.66, -187500.02, -187500.02, -187500.02, -187500.02, -187500.02, -187500.02, -187500.02, 0.000, 0.000, 0.000, 14:35:30.071
173, 55517.93, -187500.02, -187500.02, -187500.02, -187500.02, -187500.02, -187500.02, -187500.02, 0.000, 0.000, 0.000, 14:35:30.071
174, 55727.05, -187500.02, -187500.02, -187500.02, -187500.02, -187500.02, -187500.02, -187500.02, 0.000, 0.000, 0.000, 14:35:30.071
175, 55381.09, -187500.02, -187500.02, -187500.02, -187500.02, -187500.02, -187500.02, -187500.02, -0.956, 0.162, -0.316, 14:35:30.072
176, 55033.99, -187500.02, -187500.02, -187500.02, -187500.02, -187500.02, -187500.02, -187500.02, 0.000, 0.000, 0.000, 14:35:30.072
177, 55416.36, -187500.02, -187500.02, -187500.02, -187500.02, -187500.02, -187500.02, -187500.02, 0.000, 0.000, 0.000, 14:35:30.072
178, 55802.09, -187500.02, -187500.02, -187500.02, -187500.02, -187500.02, -187500.02, -187500.02, 0.000, 0.000, 0.000, 14:35:30.073
179, 55500.74, -187500.02, -187500.02, -187500.02, -187500.02, -187500.02, -187500.02, -187500.02, 0.000, 0.000, 0.000, 14:35:30.073
180, 55083.66, -187500.02, -187500.02, -187500.02, -187500.02, -187500.02, -187500.02, -187500.02, 0.000, 0.000, 0.000, 14:35:30.073
181, 55310.02, -187500.02, -187500.02, -187500.02, -187500.02, -187500.02, -187500.02, -187500.02, 0.000, 0.000, 0.000, 14:35:30.073
182, 55749.85, -187500.02, -187500.02, -187500.02, -187500.02, -187500.02, -187500.02, -187500.02, 0.000, 0.000, 0.000, 14:35:30.074
183, 55565.52, -187500.02, -187500.02, -187500.02, -187500.02, -187500.02, -187500.02, -187500.02, 0.000, 0.000, 0.000, 14:35:30.074
184, 55141.95, -187500.02, -187500.02, -187500.02, -187500.02, -187500.02, -187500.02, -187500.02, 0.000, 0.000, 0.000, 14:35:30.074
185, 55211.11, -187500.02, -187500.02, -187500.02, -187500.02, -187500.02, -187500.02, -187500.02, -0.952, 0.168, -0.308, 14:35:30.075
186, 55759.87, -187500.02, -187500.02, -187500.02, -187500.02, -187500.02, -187500.02, -187500.02, 0.000, 0.000, 0.000, 14:35:30.075
187, 55584.65, -187500.02, -187500.02, -187500.02, -187500.02, -187500.02, -187500.02, -187500.02, 0.000, 0.000, 0.000, 14:35:30.075
188, 55142.38, -187500.02, -187500.02, -187500.02, -187500.02, -187500.02, -187500.02, -187500.02, 0.000, 0.000, 0.000, 14:35:30.075
189, 55072.89, -187500.02, -187500.02, -187500.02, -187500.02, -187500.02, -187500.02, -187500.02, 0.000, 0.000, 0.000, 14:35:30.076
190, 55612.25, -187500.02, -187500.02, -187500.02, -187500.02, -187500.02, -187500.02, -187500.02, 0.000, 0.000, 0.000, 14:35:30.076
191, 55658.21, -187500.02, -187500.02, -187500.02, -187500.02, -187500.02, -187500.02, -187500.02, 0.000, 0.000, 0.000, 14:35:30.076
192, 55267.93, -187500.02, -187500.02, -187500.02, -187500.02, -187500.02, -187500.02, -187500.02, 0.000, 0.000, 0.000, 14:35:30.076
193, 55033.93, -187500.02, -187500.02, -187500.02, -187500.02, -187500.02, -187500.02, -187500.02, 0.000, 0.000, 0.000, 14:35:30.076
194, 55558.46, -187500.02, -187500.02, -187500.02, -187500.02, -187500.02, -187500.02, -187500.02, 0.000, 0.000, 0.000, 14:35:30.076
195, 55689.19, -187500.02, -187500.02, -187500.02, -187500.02, -187500.02, -187500.02, -187500.02, -0.954, 0.162, -0.316, 14:35:30.077
196, 55295.18, -187500.02, -187500.02, -187500.02, -187500.02, -187500.02, -187500.02, -187500.02, 0.000, 0.000, 0.000, 14:35:30.077
197, 54971.01, -187500.02, -187500.02, -187500.02, -187500.02, -187500.02, -187500.02, -187500.02, 0.000, 0.000, 0.000, 14:35:30.077
198, 55481.92, -187500.02, -187500.02, -187500.02, -187500.02, -187500.02, -187500.02, -187500.02, 0.000, 0.000, 0.000, 14:35:30.077
199, 55801.24, -187500.02, -187500.02, -187500.02, -187500.02, -187500.02, -187500.02, -187500.02, 0.000, 0.000, 0.000, 14:35:30.077
200, 55462.43, -187500.02, -187500.02, -187500.02, -187500.02, -187500.02, -187500.02, -187500.02, 0.000, 0.000, 0.000, 14:35:30.077
201, 55057.95, -187500.02, -187500.02, -187500.02, -187500.02, -187500.02, -187500.02, -187500.02, 0.000, 0.000, 0.000, 14:35:30.077
202, 55371.77, -187500.02, -187500.02, -187500.02, -187500.02, -187500.02, -187500.02, -187500.02, 0.000, 0.000, 0.000, 14:35:30.077
203, 55753.25, -187500.02, -187500.02, -187500.02, -187500.02, -187500.02, -187500.02, -187500.02, 0.000, 0.000, 0.000, 14:35:30.077
204, 55536.10, -187500.02, -187500.02, -187500.02, -187500.02, -187500.02, -187500.02, -187500.02, 0.000, 0.000, 0.000, 14:35:30.077
205, 55135.27, -187500.02, -187500.02, -187500.02, -187500.02, -187500.02, -187500.02, -187500.02, -0.956, 0.172, -0.312, 14:35:30.078
206, 55297.23, -187500.02, -187500.02, -187500.02, -187500.02, -187500.02, -187500.02, -187500.02, 0.000, 0.000, 0.000, 14:35:30.078
207, 55790.49, -187500.02, -187500.02, -187500.02, -187500.02, -187500.02, -187500.02, -187500.02, 0.000, 0.000, 0.000, 14:35:30.078
208, 55579.09, -187500.02, -187500.02, -187500.02, -187500.02, -187500.02, -187500.02, -187500.02, 0.000, 0.000, 0.000, 14:35:30.078
209, 55144.01, -187500.02, -187500.02, -187500.02, -187500.02, -187500.02, -187500.02, -187500.02, 0.000, 0.000, 0.000, 14:35:30.078
210, 55186.28, -187500.02, -187500.02, -187500.02, -187500.02, -187500.02, -187500.02, -187500.02, 0.000, 0.000, 0.000, 14:35:30.078
211, 55755.62, -187500.02, -187500.02, -187500.02, -187500.02, -187500.02, -187500.02, -187500.02, 0.000, 0.000, 0.000, 14:35:30.078
212, 55732.64, -187500.02, -187500.02, -187500.02, -187500.02, -187500.02, -187500.02, -187500.02, 0.000, 0.000, 0.000, 14:35:30.079
213, 55306.24, -187500.02, -187500.02, -187500.02, -187500.02, -187500.02, -187500.02, -187500.02, 0.000, 0.000, 0.000, 14:35:30.079
214, 55180.44, -187500.02, -187500.02, -187500.02, -187500.02, -187500.02, -187500.02, -187500.02, 0.000, 0.000, 0.000, 14:35:30.079
215, 55717.00, -187500.02, -187500.02, -187500.02, -187500.02, -187500.02, -187500.02, -187500.02, -0.954, 0.168, -0.312, 14:35:30.079
216, 55717.82, -187500.02, -187500.02, -187500.02, -187500.02, -187500.02, -187500.02, -187500.02, 0.000, 0.000, 0.000, 14:35:30.079
217, 55335.00, -187500.02, -187500.02, -187500.02, -187500.02, -187500.02, -187500.02, -187500.02, 0.000, 0.000, 0.000, 14:35:30.079
218, 55075.77, -187500.02, -187500.02, -187500.02, -187500.02, -187500.02, -187500.02, -187500.02, 0.000, 0.000, 0.000, 14:35:30.079
219, 55585.48, -187500.02, -187500.02, -187500.02, -187500.02, -187500.02, -187500.02, -187500.02, 0.000, 0.000, 0.000, 14:35:30.079
220, 55769.14, -187500.02, -187500.02, -187500.02, -187500.02, -187500.02, -187500.02, -187500.02, 0.000, 0.000, 0.000, 14:35:30.079
221, 55392.85, -187500.02, -187500.02, -187500.02, -187500.02, -187500.02, -187500.02, -187500.02, 0.000, 0.000, 0.000, 14:35:30.079
222, 55052.48, -187500.02, -187500.02, -187500.02, -187500.02, -187500.02, -187500.02, -187500.02, 0.000, 0.000, 0.000, 14:35:30.080
223, 55461.34, -187500.02, -187500.02, -187500.02, -187500.02, -187500.02, -187500.02, -187500.02, 0.000, 0.000, 0.000, 14:35:30.080
224, 55780.36, -187500.02, -187500.02, -187500.02, -187500.02, -187500.02, -187500.02, -187500.02, 0.000, 0.000, 0.000, 14:35:30.080
225, 55480.56, -187500.02, -187500.02, -187500.02, -187500.02, -187500.02, -187500.02, -187500.02, -0.956, 0.166, -0.310, 14:35:30.080
226, 55109.88, -187500.02, -187500.02, -187500.02, -187500.02, -187500.02, -187500.02, -187500.02, 0.000, 0.000, 0.000, 14:35:30.080
227, 55393.68, -187500.02, -187500.02, -187500.02, -187500.02, -187500.02, -187500.02, -187500.02, 0.000, 0.000, 0.000, 14:35:30.080
228, 55818.25, -187500.02, -187500.02, -187500.02, -187500.02, -187500.02, -187500.02, -187500.02, 0.000, 0.000, 0.000, 14:35:30.080
229, 55532.97, -187500.02, -187500.02, -187500.02, -187500.02, -187500.02, -187500.02, -187500.02, 0.000, 0.000, 0.000, 14:35:30.080
230, 55133.66, -187500.02, -187500.02, -187500.02, -187500.02, -187500.02, -187500.02, -187500.02, 0.000, 0.000, 0.000, 14:35:30.080
231, 55240.41, -187500.02, -187500.02, -187500.02, -187500.02, -187500.02, -187500.02, -187500.02, 0.000, 0.000, 0.000, 14:35:30.080
232, 55814.96, -187500.02, -187500.02, -187500.02, -187500.02, -187500.02, -187500.02, -187500.02, 0.000, 0.000, 0.000, 14:35:30.081
233, 55678.17, -187500.02, -187500.02, -187500.02, -187500.02, -187500.02, -187500.02, -187500.02, 0.000, 0.000, 0.000, 14:35:30.081
234, 55216.72, -187500.02, -187500.02, -187500.02, -187500.02, -187500.02, -187500.02, -187500.02, 0.000, 0.000, 0.000, 14:35:30.084
235, 55208.43, -187500.02, -187500.02, -187500.02, -187500.02, -187500.02, -187500.02, -187500.02, -0.956, 0.164, -0.312, 14:35:30.084
236, 55783.85, -187500.02, -187500.02, -187500.02, -187500.02, -187500.02, -187500.02, -187500.02, 0.000, 0.000, 0.000, 14:35:30.084
237, 55732.42, -187500.02, -187500.02, -187500.02, -187500.02, -187500.02, -187500.02, -187500.02, 0.000, 0.000, 0.000, 14:35:30.084
238, 55338.87, -187500.02, -187500.02, -187500.02, -187500.02, -187500.02, -187500.02, -187500.02, 0.000, 0.000, 0.000, 14:35:30.084
239, 55179.37, -187500.02, -187500.02, -187500.02, -187500.02, -187500.02, -187500.02, -187500.02, 0.000, 0.000, 0.000, 14:35:30.084
240, 55735.91, -187500.02, -187500.02, -187500.02, -187500.02, -187500.02, -187500.02, -187500.02, 0.000, 0.000, 0.000, 14:35:30.542
241, 55802.31, -187500.02, -187500.02, -187500.02, -187500.02, -187500.02, -187500.02, -187500.02, 0.000, 0.000, 0.000, 14:35:30.542
242, 55391.51, -187500.02, -187500.02, -187500.02, -187500.02, -187500.02, -187500.02, -187500.02, 0.000, 0.000, 0.000, 14:35:30.543
243, 55085.78, -187500.02, -187500.02, -187500.02, -187500.02, -187500.02, -187500.02, -187500.02, 0.000, 0.000, 0.000, 14:35:30.543
244, 55559.35, -187500.02, -187500.02, -187500.02, -187500.02, -187500.02, -187500.02, -187500.02, 0.000, 0.000, 0.000, 14:35:30.543
245, 55782.69, -187500.02, -187500.02, -187500.02, -187500.02, -187500.02, -187500.02, -187500.02, -0.952, 0.158, -0.314, 14:35:30.543
246, 55432.39, -187500.02, -187500.02, -187500.02, -187500.02, -187500.02, -187500.02, -187500.02, 0.000, 0.000, 0.000, 14:35:30.543
247, 55091.66, -187500.02, -187500.02, -187500.02, -187500.02, -187500.02, -187500.02, -187500.02, 0.000, 0.000, 0.000, 14:35:30.543
248, 55502.40, -187500.02, -187500.02, -187500.02, -187500.02, -187500.02, -187500.02, -187500.02, 0.000, 0.000, 0.000, 14:35:30.543
249, 55821.89, -187500.02, -187500.02, -187500.02, -187500.02, -187500.02, -187500.02, -187500.02, 0.000, 0.000, 0.000, 14:35:30.543
250, 55496.70, -187500.02, -187500.02, -187500.02, -187500.02, -187500.02, -187500.02, -187500.02, 0.000, 0.000, 0.000, 14:35:30.543
251, 55087.75, -187500.02, -187500.02, -187500.02, -187500.02, -187500.02, -187500.02, -187500.02, 0.000, 0.000, 0.000, 14:35:30.544
252, 55361.63, -187500.02, -187500.02, -187500.02, -187500.02, -187500.02, -187500.02, -187500.02, 0.000, 0.000, 0.000, 14:35:30.544
253, 55816.46, -187500.02, -187500.02, -187500.02, -187500.02, -187500.02, -187500.02, -187500.02, 0.000, 0.000, 0.000, 14:35:30.544
254, 55572.67, -187500.02, -187500.02, -187500.02, -187500.02, -187500.02, -187500.02, -187500.02, 0.000, 0.000, 0.000, 14:35:30.544
255, 55144.93, -187500.02, -187500.02, -187500.02, -187500.02, -187500.02, -187500.02, -187500.02, -0.960, 0.160, -0.310, 14:35:30.544
0, 55260.02, -187500.02, -187500.02, -187500.02, -187500.02, -187500.02, -187500.02, -187500.02, 0.000, 0.000, 0.000, 14:35:30.544
1, 55764.43, -187500.02, -187500.02, -187500.02, -187500.02, -187500.02, -187500.02, -187500.02, 0.000, 0.000, 0.000, 14:35:30.544
2, 55637.87, -187500.02, -187500.02, -187500.02, -187500.02, -187500.02, -187500.02, -187500.02, 0.000, 0.000, 0.000, 14:35:30.544
3, 55207.64, -187500.02, -187500.02, -187500.02, -187500.02, -187500.02, -187500.02, -187500.02, 0.000, 0.000, 0.000, 14:35:30.544
4, 55152.44, -187500.02, -187500.02, -187500.02, -187500.02, -187500.02, -187500.02, -187500.02, 0.000, 0.000, 0.000, 14:35:30.544
5, 55723.70, -187500.02, -187500.02, -187500.02, -187500.02, -187500.02, -187500.02, -187500.02, 0.000, 0.000, 0.000, 14:35:30.545
6, 55687.71, -187500.02, -187500.02, -187500.02, -187500.02, -187500.02, -187500.02, -187500.02, 0.000, 0.000, 0.000, 14:35:30.545
7, 55268.17, -187500.02, -187500.02, -187500.02, -187500.02, -187500.02, -187500.02, -187500.02, 0.000, 0.000, 0.000, 14:35:30.545
8, 55078.07, -187500.02, -187500.02, -187500.02, -187500.02, -187500.02, -187500.02, -187500.02, 0.000, 0.000, 0.000, 14:35:30.545
9, 55594.89, -187500.02, -187500.02, -187500.02, -187500.02, -187500.02, -187500.02, -187500.02, -0.956, 0.160, -0.306, 14:35:30.545
10, 55746.16, -187500.02, -187500.02, -187500.02, -187500.02, -187500.02, -187500.02, -187500.02, 0.000, 0.000, 0.000, 14:35:30.545
11, 55384.69, -187500.02, -187500.02, -187500.02, -187500.02, -187500.02, -187500.02, -187500.02, 0.000, 0.000, 0.000, 14:35:30.545
12, 55088.62, -187500.02, -187500.02, -187500.02, -187500.02, -187500.02, -187500.02, -187500.02, 0.000, 0.000, 0.000, 14:35:30.545
13, 55531.95, -187500.02, -187500.02, -187500.02, -187500.02, -187500.02, -187500.02, -187500.02, 0.000, 0.000, 0.000, 14:35:30.545
14, 55760.20, -187500.02, -187500.02, -187500.02, -187500.02, -187500.02, -187500.02, -187500.02, 0.000, 0.000, 0.000, 14:35:30.545
15, 55424.70, -187500.02, -187500.02, -187500.02, -187500.02, -187500.02, -187500.02, -187500.02, 0.000, 0.000, 0.000, 14:35:30.545
16, 55075.55, -187500.02, -187500.02, -187500.02, -187500.02, -187500.02, -187500.02, -187500.02, 0.000, 0.000, 0.000, 14:35:30.546
17, 55430.83, -187500.02, -187500.02, -187500.02, -187500.02, -187500.02, -187500.02, -187500.02, 0.000, 0.000, 0.000, 14:35:30.546
18, 55795.56, -187500.02, -187500.02, -187500.02, -187500.02, -187500.02, -187500.02, -187500.02, 0.000, 0.000, 0.000, 14:35:30.546
19, 55510.53, -187500.02, -187500.02, -187500.02, -187500.02, -187500.02, -187500.02, -187500.02, -0.952, 0.166, -0.310, 14:35:30.546
20, 55087.86, -187500.02, -187500.02, -187500.02, -187500.02, -187500.02, -187500.02, -187500.02, 0.000, 0.000, 0.000, 14:35:30.546
21, 55297.34, -187500.02, -187500.02, -187500.02, -187500.02, -187500.02, -187500.02, -187500.02, 0.000, 0.000, 0.000, 14:35:30.546
22, 55788.68, -187500.02, -187500.02, -187500.02, -187500.02, -187500.02, -187500.02, -187500.02, 0.000, 0.000, 0.000, 14:35:30.546
23, 55604.61, -187500.02, -187500.02, -187500.02, -187500.02, -187500.02, -187500.02, -187500.02, 0.000, 0.000, 0.000, 14:35:30.546
24, 55179.59, -187500.02, -187500.02, -187500.02, -187500.02, -187500.02, -187500.02, -187500.02, 0.000, 0.000, 0.000, 14:35:30.546
25, 55216.77, -187500.02, -187500.02, -187500.02, -187500.02, -187500.02, -187500.02, -187500.02, 0.000, 0.000, 0.000, 14:35:30.546
26, 55714.18, -187500.02, -187500.02, -187500.02, -187500.02, -187500.02, -187500.02, -187500.02, 0.000, 0.000, 0.000, 14:35:30.547
27, 55599.18, -187500.02, -187500.02, -187500.02, -187500.02, -187500.02, -187500.02, -187500.02, 0.000, 0.000, 0.000, 14:35:30.547
28, 55240.30, -187500.02, -187500.02, -187500.02, -187500.02, -187500.02, -187500.02, -187500.02, 0.000, 0.000, 0.000, 14:35:30.547
29, 55178.77, -187500.02, -187500.02, -187500.02, -187500.02, -187500.02, -187500.02, -187500.02, -0.960, 0.164, -0.310, 14:35:30.547
30, 55715.52, -187500.02, -187500.02, -187500.02, -187500.02, -187500.02, -187500.02, -187500.02, 0.000, 0.000, 0.000, 14:35:30.547
31, 55702.18, -187500.02, -187500.02, -187500.02, -187500.02, -187500.02, -187500.02, -187500.02, 0.000, 0.000, 0.000, 14:35:30.547
32, 55326.80, -187500.02, -187500.02, -187500.02, -187500.02, -187500.02, -187500.02, -187500.02, 0.000, 0.000, 0.000, 14:35:30.547
33, 55094.77, -187500.02, -187500.02, -187500.02, -187500.02, -187500.02, -187500.02, -187500.02, 0.000, 0.000, 0.000, 14:35:30.547
34, 55628.55, -187500.02, -187500.02, -187500.02, -187500.02, -187500.02, -187500.02, -187500.02, 0.000, 0.000, 0.000, 14:35:30.547
35, 55776.74, -187500.02, -187500.02, -187500.02, -187500.02, -187500.02, -187500.02, -187500.02, 0.000, 0.000, 0.000, 14:35:30.547
36, 55395.73, -187500.02, -187500.02, -187500.02, -187500.02, -187500.02, -187500.02, -187500.02, 0.000, 0.000, 0.000, 14:35:30.547
37, 55058.09, -187500.02, -187500.02, -187500.02, -187500.02, -187500.02, -187500.02, -187500.02, 0.000, 0.000, 0.000, 14:35:30.548
38, 55514.31, -187500.02, -187500.02, -187500.02, -187500.02, -187500.02, -187500.02, -187500.02, -0.960, 0.166, -0.310, 14:35:30.548
39, 55804.19, -187500.02, -187500.02, -187500.02, -187500.02, -187500.02, -187500.02, -187500.02, 0.000, 0.000, 0.000, 14:35:30.548
40, 55492.63, -187500.02, -187500.02, -187500.02, -187500.02, -187500.02, -187500.02, -187500.02, 0.000, 0.000, 0.000, 14:35:30.548
41, 55129.91, -187500.02, -187500.02, -187500.02, -187500.02, -187500.02, -187500.02, -187500.02, 0.000, 0.000, 0.000, 14:35:30.548
42, 55433.22, -187500.02, -187500.02, -187500.02, -187500.02, -187500.02, -187500.02, -187500.02, 0.000, 0.000, 0.000, 14:35:30.548
43, 55811.68, -187500.02, -187500.02, -187500.02, -187500.02, -187500.02, -187500.02, -187500.02, 0.000, 0.000, 0.000, 14:35:30.548
44, 55536.64, -187500.02, -187500.02, -187500.02, -187500.02, -187500.02, -187500.02, -187500.02, 0.000, 0.000, 0.000, 14:35:30.548
45, 55120.94, -187500.02, -187500.02, -187500.02, -187500.02, -187500.02, -187500.02, -187500.02, 0.000, 0.000, 0.000, 14:35:30.548
46, 55318.91, -187500.02, -187500.02, -187500.02, -187500.02, -187500.02, -187500.02, -187500.02, 0.000, 0.000, 0.000, 14:35:30.548
47, 55807.61, -187500.02, -187500.02, -187500.02, -187500.02, -187500.02, -187500.02, -187500.02, 0.000, 0.000, 0.000, 14:35:30.549
48, 55632.51, -187500.02, -187500.02, -187500.02, -187500.02, -187500.02, -187500.02, -187500.02, -0.958, 0.166, -0.304, 14:35:30.549
49, 55208.65, -187500.02, -187500.02, -187500.02, -187500.02, -187500.02, -187500.02, -187500.02, 0.000, 0.000, 0.000, 14:35:30.549
50, 55206.66, -187500.02, -187500.02, -187500.02, -187500.02, -187500.02, -187500.02, -187500.02, 0.000, 0.000, 0.000, 14:35:30.549
51, 55757.30, -187500.02, -187500.02, -187500.02, -187500.02, -187500.02, -187500.02, -187500.02, 0.000, 0.000, 0.000, 14:35:30.549
52, 55686.71, -187500.02, -187500.02, -187500.02, -187500.02, -187500.02, -187500.02, -187500.02, 0.000, 0.000, 0.000, 14:35:30.549
53, 55281.63, -187500.02, -187500.02, -187500.02, -187500.02, -187500.02, -187500.02, -187500.02, 0.000, 0.000, 0.000, 14:35:30.549
54, 55179.14, -187500.02, -187500.02, -187500.02, -187500.02, -187500.02, -187500.02, -187500.02, 0.000, 0.000, 0.000, 14:35:30.549
55, 55709.78, -187500.02, -187500.02, -187500.02, -187500.02, -187500.02, -187500.02, -187500.02, 0.000, 0.000, 0.000, 14:35:30.549
56, 55716.35, -187500.02, -187500.02, -187500.02, -187500.02, -187500.02, -187500.02, -187500.02, 0.000, 0.000, 0.000, 14:35:30.549
57, 55302.89, -187500.02, -187500.02, -187500.02, -187500.02, -187500.02, -187500.02, -187500.02, 0.000, 0.000, 0.000, 14:35:30.550
58, 55103.33, -187500.02, -187500.02, -187500.02, -187500.02, -187500.02, -187500.02, -187500.02, -0.958, 0.168, -0.306, 14:35:30.550
59, 55648.00, -187500.02, -187500.02, -187500.02, -187500.02, -187500.02, -187500.02, -187500.02, 0.000, 0.000, 0.000, 14:35:30.550
60, 55782.75, -187500.02, -187500.02, -187500.02, -187500.02, -187500.02, -187500.02, -187500.02, 0.000, 0.000, 0.000, 14:35:30.550
61, 55421.59, -187500.02, -187500.02, -187500.02, -187500.02, -187500.02, -187500.02, -187500.02, 0.000, 0.000, 0.000, 14:35:30.550
62, 55113.21, -187500.02, -187500.02, -187500.02, -187500.02, -187500.02, -187500.02, -187500.02, 0.000, 0.000, 0.000, 14:35:30.550
63, 55528.46, -187500.02, -187500.02, -187500.02, -187500.02, -187500.02, -187500.02, -187500.02, 0.000, 0.000, 0.000, 14:35:30.550
64, 55847.38, -187500.02, -187500.02, -187500.02, -187500.02, -187500.02, -187500.02, -187500.02, 0.000, 0.000, 0.000, 14:35:30.550
65, 55514.87, -187500.02, -187500.02, -187500.02, -187500.02, -187500.02, -187500.02, -187500.02, 0.000, 0.000, 0.000, 14:35:30.550
66, 55134.38, -187500.02, -187500.02, -187500.02, -187500.02, -187500.02, -187500.02, -187500.02, 0.000, 0.000, 0.000, 14:35:30.550
67, 55422.91, -187500.02, -187500.02, -187500.02, -187500.02, -187500.02, -187500.02, -187500.02, 0.000, 0.000, 0.000, 14:35:30.550
68, 55805.13, -187500.02, -187500.02, -187500.02, -187500.02, -187500.02, -187500.02, -187500.02, -0.956, 0.170, -0.310, 14:35:30.551
69, 55566.08, -187500.02, -187500.02, -187500.02, -187500.02, -187500.02, -187500.02, -187500.02, 0.000, 0.000, 0.000, 14:35:30.551
70, 55152.05, -187500.02, -187500.02, -187500.02, -187500.02, -187500.02, -187500.02, -187500.02, 0.000, 0.000, 0.000, 14:35:30.551
71, 55285.32, -187500.02, -187500.02, -187500.02, -187500.02, -187500.02, -187500.02, -187500.02, 0.000, 0.000, 0.000, 14:35:30.551
72, 55767.60, -187500.02, -187500.02, -187500.02, -187500.02, -187500.02, -187500.02, -187500.02, 0.000, 0.000, 0.000, 14:35:30.551
73, 55640.02, -187500.02, -187500.02, -187500.02, -187500.02, -187500.02, -187500.02, -187500.02, 0.000, 0.000, 0.000, 14:35:30.551
74, 55257.85, -187500.02, -187500.02, -187500.02, -187500.02, -187500.02, -187500.02, -187500.02, 0.000, 0.000, 0.000, 14:35:30.551
75, 55210.28, -187500.02, -187500.02, -187500.02, -187500.02, -187500.02, -187500.02, -187500.02, 0.000, 0.000, 0.000, 14:35:30.551
76, 55743.19, -187500.02, -187500.02, -187500.02, -187500.02, -187500.02, -187500.02, -187500.02, 0.000, 0.000, 0.000, 14:35:30.551
77, 55713.64, -187500.02, -187500.02, -187500.02, -187500.02, -187500.02, -187500.02, -187500.02, 0.000, 0.000, 0.000, 14:35:30.551
78, 55296.45, -187500.02, -187500.02, -187500.02, -187500.02, -187500.02, -187500.02, -187500.02, -0.954, 0.172, -0.316, 14:35:30.552
79, 55161.04, -187500.02, -187500.02, -187500.02, -187500.02, -187500.02, -187500.02, -187500.02, 0.000, 0.000, 0.000, 14:35:30.552
80, 55668.83, -187500.02, -187500.02, -187500.02, -187500.02, -187500.02, -187500.02, -187500.02, 0.000, 0.000, 0.000, 14:35:30.552
81, 55738.43, -187500.02, -187500.02, -187500.02, -187500.02, -187500.02, -187500.02, -187500.02, 0.000, 0.000, 0.000, 14:35:30.552
82, 55360.44, -187500.02, -187500.02, -187500.02, -187500.02, -187500.02, -187500.02, -187500.02, 0.000, 0.000, 0.000, 14:35:30.552
83, 55115.60, -187500.02, -187500.02, -187500.02, -187500.02, -187500.02, -187500.02, -187500.02, 0.000, 0.000, 0.000, 14:35:30.552
84, 55621.35, -187500.02, -187500.02, -187500.02, -187500.02, -187500.02, -187500.02, -187500.02, 0.000, 0.000, 0.000, 14:35:30.552
85, 55813.62, -187500.02, -187500.02, -187500.02, -187500.02, -187500.02, -187500.02, -187500.02, 0.000, 0.000, 0.000, 14:35:30.552
86, 55425.15, -187500.02, -187500.02, -187500.02, -187500.02, -187500.02, -187500.02, -187500.02, 0.000, 0.000, 0.000, 14:35:30.553
87, 55098.75, -187500.02, -187500.02, -187500.02, -187500.02, -187500.02, -187500.02, -187500.02, 0.000, 0.000, 0.000, 14:35:30.553
88, 55493.70, -187500.02, -187500.02, -187500.02, -187500.02, -187500.02, -187500.02, -187500.02, -0.954, 0.170, -0.306, 14:35:30.553
89, 55826.30, -187500.02, -187500.02, -187500.02, -187500.02, -187500.02, -187500.02, -187500.02, 0.000, 0.000, 0.000, 14:35:30.553
90, 55565.23, -187500.02, -187500.02, -187500.02, -187500.02, -187500.02, -187500.02, -187500.02, 0.000, 0.000, 0.000, 14:35:30.553
91, 55145.84, -187500.02, -187500.02, -187500.02, -187500.02, -187500.02, -187500.02, -187500.02, 0.000, 0.000, 0.000, 14:35:30.553
92, 55428.52, -187500.02, -187500.02, -187500.02, -187500.02, -187500.02, -187500.02, -187500.02, 0.000, 0.000, 0.000, 14:35:30.553
93, 55868.43, -187500.02, -187500.02, -187500.02, -187500.02, -187500.02, -187500.02, -187500.02, 0.000, 0.000, 0.000, 14:35:30.554
94, 55615.34, -187500.02, -187500.02, -187500.02, -187500.02, -187500.02, -187500.02, -187500.02, 0.000, 0.000, 0.000, 14:35:30.554
95, 55187.19, -187500.02, -187500.02, -187500.02, -187500.02, -187500.02, -187500.02, -187500.02, 0.000, 0.000, 0.000, 14:35:30.554
96, 55282.88, -187500.02, -187500.02, -187500.02, -187500.02, -187500.02, -187500.02, -187500.02, 0.000, 0.000, 0.000, 14:35:30.554
97, 55813.51, -187500.02, -187500.02, -187500.02, -187500.02, -187500.02, -187500.02, -187500.02, 0.000, 0.000, 0.000, 14:35:30.554
98, 55675.22, -187500.02, -187500.02, -187500.02, -187500.02, -187500.02, -187500.02, -187500.02, -0.948, 0.168, -0.308, 14:35:30.554
99, 55265.87, -187500.02, -187500.02, -187500.02, -187500.02, -187500.02, -187500.02, -187500.02, 0.000, 0.000, 0.000, 14:35:30.554
100, 55207.11, -187500.02, -187500.02, -187500.02, -187500.02, -187500.02, -187500.02, -187500.02, 0.000, 0.000, 0.000, 14:35:30.554
101, 55739.41, -187500.02, -187500.02, -187500.02, -187500.02, -187500.02, -187500.02, -187500.02, 0.000, 0.000, 0.000, 14:35:30.554
102, 55668.25, -187500.02, -187500.02, -187500.02, -187500.02, -187500.02, -187500.02, -187500.02, 0.000, 0.000, 0.000, 14:35:30.555
103, 55332.99, -187500.02, -187500.02, -187500.02, -187500.02, -187500.02, -187500.02, -187500.02, 0.000, 0.000, 0.000, 14:35:30.555
104, 55167.28, -187500.02, -187500.02, -187500.02, -187500.02, -187500.02, -187500.02, -187500.02, 0.000, 0.000, 0.000, 14:35:31.021
105, 55630.67, -187500.02, -187500.02, -187500.02, -187500.02, -187500.02, -187500.02, -187500.02, 0.000, 0.000, 0.000, 14:35:31.021
106, 55735.14, -187500.02, -187500.02, -187500.02, -187500.02, -187500.02, -187500.02, -187500.02, 0.000, 0.000, 0.000, 14:35:31.021
107, 55415.25, -187500.02, -187500.02, -187500.02, -187500.02, -187500.02, -187500.02, -187500.02, 0.000, 0.000, 0.000, 14:35:31.021
108, 55127.94, -187500.02, -187500.02, -187500.02, -187500.02, -187500.02, -187500.02, -187500.02, -0.954, 0.168, -0.308, 14:35:31.021
109, 55570.14, -187500.02, -187500.02, -187500.02, -187500.02, -187500.02, -187500.02, -187500.02, 0.000, 0.000, 0.000, 14:35:31.021
110, 55785.50, -187500.02, -187500.02, -187500.02, -187500.02, -187500.02, -187500.02, -187500.02, 0.000, 0.000, 0.000, 14:35:31.021
111, 55445.49, -187500.02, -187500.02, -187500.02, -187500.02, -187500.02, -187500.02, -187500.02, 0.000, 0.000, 0.000, 14:35:31.021
112, 55114.17, -187500.02, -187500.02, -187500.02, -187500.02, -187500.02, -187500.02, -187500.02, 0.000, 0.000, 0.000, 14:35:31.021
113, 55489.81, -187500.02, -187500.02, -187500.02, -187500.02, -187500.02, -187500.02, -187500.02, 0.000, 0.000, 0.000, 14:35:31.022
114, 55874.00, -187500.02, -187500.02, -187500.02, -187500.02, -187500.02, -187500.02, -187500.02, 0.000, 0.000, 0.000, 14:35:31.022
115, 55589.95, -187500.02, -187500.02, -187500.02, -187500.02, -187500.02, -187500.02, -187500.02, 0.000, 0.000, 0.000, 14:35:31.022
116, 55164.75, -187500.02, -187500.02, -187500.02, -187500.02, -187500.02, -187500.02, -187500.02, 0.000, 0.000, 0.000, 14:35:31.022
117, 55363.39, -187500.02, -187500.02, -187500.02, -187500.02, -187500.02, -187500.02, -187500.02, 0.000, 0.000, 0.000, 14:35:31.022
118, 55813.89, -187500.02, -187500.02, -187500.02, -187500.02, -187500.02, -187500.02, -187500.02, -0.950, 0.172, -0.308, 14:35:31.022
119, 55639.70, -187500.02, -187500.02, -187500.02, -187500.02, -187500.02, -187500.02, -187500.02, 0.000, 0.000, 0.000, 14:35:31.022
120, 55219.16, -187500.02, -187500.02, -187500.02, -187500.02, -187500.02, -187500.02, -187500.02, 0.000, 0.000, 0.000, 14:35:31.022
121, 55258.38, -187500.02, -187500.02, -187500.02, -187500.02, -187500.02, -187500.02, -187500.02, 0.000, 0.000, 0.000, 14:35:31.022
122, 55786.06, -187500.02, -187500.02, -187500.02, -187500.02, -187500.02, -187500.02, -187500.02, 0.000, 0.000, 0.000, 14:35:31.022
123, 55680.79, -187500.02, -187500.02, -187500.02, -187500.02, -187500.02, -187500.02, -187500.02, 0.000, 0.000, 0.000, 14:35:31.022
124, 55261.49, -187500.02, -187500.02, -187500.02, -187500.02, -187500.02, -187500.02, -187500.02, 0.000, 0.000, 0.000, 14:35:31.022
125, 55147.05, -187500.02, -187500.02, -187500.02, -187500.02, -187500.02, -187500.02, -187500.02, 0.000, 0.000, 0.000, 14:35:31.023
126, 55742.37, -187500.02, -187500.02, -187500.02, -187500.02, -187500.02, -187500.02, -187500.02, 0.000, 0.000, 0.000, 14:35:31.023
127, 55754.73, -187500.02, -187500.02, -187500.02, -187500.02, -187500.02, -187500.02, -187500.02, 0.000, 0.000, 0.000, 14:35:31.023
128, 55347.41, -187500.02, -187500.02, -187500.02, -187500.02, -187500.02, -187500.02, -187500.02, -0.948, 0.172, -0.314, 14:35:31.023
129, 55130.55, -187500.02, -187500.02, -187500.02, -187500.02, -187500.02, -187500.02, -187500.02, 0.000, 0.000, 0.000, 14:35:31.023
130, 55656.27, -187500.02, -187500.02, -187500.02, -187500.02, -187500.02, -187500.02, -187500.02, 0.000, 0.000, 0.000, 14:35:31.023
131, 55785.73, -187500.02, -187500.02, -187500.02, -187500.02, -187500.02, -187500.02, -187500.02, 0.000, 0.000, 0.000, 14:35:31.023
132, 55410.04, -187500.02, -187500.02, -187500.02, -187500.02, -187500.02, -187500.02, -187500.02, 0.000, 0.000, 0.000, 14:35:31.023
133, 55139.74, -187500.02, -187500.02, -187500.02, -187500.02, -187500.02, -187500.02, -187500.02, 0.000, 0.000, 0.000, 14:35:31.023
134, 55595.47, -187500.02, -187500.02, -187500.02, -187500.02, -187500.02, -187500.02, -187500.02, 0.000, 0.000, 0.000, 14:35:31.023
135, 55817.98, -187500.02, -187500.02, -187500.02, -187500.02, -187500.02, -187500.02, -187500.02, 0.000, 0.000, 0.000, 14:35:31.023
136, 55496.83, -187500.02, -187500.02, -187500.02, -187500.02, -187500.02, -187500.02, -187500.02, 0.000, 0.000, 0.000, 14:35:31.023
137, 55148.55, -187500.02, -187500.02, -187500.02, -187500.02, -187500.02, -187500.02, -187500.02, 0.000, 0.000, 0.000, 14:35:31.024
138, 55467.93, -187500.02, -187500.02, -187500.02, -187500.02, -187500.02, -187500.02, -187500.02, -0.954, 0.174, -0.308, 14:35:31.024
139, 55827.95, -187500.02, -187500.02, -187500.02, -187500.02, -187500.02, -187500.02, -187500.02, 0.000, 0.000, 0.000, 14:35:31.025
140, 55549.98, -187500.02, -187500.02, -187500.02, -187500.02, -187500.02, -187500.02, -187500.02, 0.000, 0.000, 0.000, 14:35:31.025
141, 55149.78, -187500.02, -187500.02, -187500.02, -187500.02, -187500.02, -187500.02, -187500.02, 0.000, 0.000, 0.000, 14:35:31.025
142, 55333.82, -187500.02, -187500.02, -187500.02, -187500.02, -187500.02, -187500.02, -187500.02, 0.000, 0.000, 0.000, 14:35:31.025
143, 55836.53, -187500.02, -187500.02, -187500.02, -187500.02, -187500.02, -187500.02, -187500.02, 0.000, 0.000, 0.000, 14:35:31.025
144, 55681.39, -187500.02, -187500.02, -187500.02, -187500.02, -187500.02, -187500.02, -187500.02, 0.000, 0.000, 0.000, 14:35:31.025
145, 55251.19, -187500.02, -187500.02, -187500.02, -187500.02, -187500.02, -187500.02, -187500.02, 0.000, 0.000, 0.000, 14:35:31.025
146, 55255.77, -187500.02, -187500.02, -187500.02, -187500.02, -187500.02, -187500.02, -187500.02, 0.000, 0.000, 0.000, 14:35:31.025
147, 55803.59, -187500.02, -187500.02, -187500.02, -187500.02, -187500.02, -187500.02, -187500.02, 0.000, 0.000, 0.000, 14:35:31.026
148, 55689.32, -187500.02, -187500.02, -187500.02, -187500.02, -187500.02, -187500.02, -187500.02, -0.956, 0.172, -0.316, 14:35:31.026
149, 55274.66, -187500.02, -187500.02, -187500.02, -187500.02, -187500.02, -187500.02, -187500.02, 0.000, 0.000, 0.000, 14:35:31.026
150, 55173.85, -187500.02, -187500.02, -187500.02, -187500.02, -187500.02, -187500.02, -187500.02, 0.000, 0.000, 0.000, 14:35:31.026
151, 55716.71, -187500.02, -187500.02, -187500.02, -187500.02, -187500.02, -187500.02, -187500.02, 0.000, 0.000, 0.000, 14:35:31.026
152, 55729.18, -187500.02, -187500.02, -187500.02, -187500.02, -187500.02, -187500.02, -187500.02, 0.000, 0.000, 0.000, 14:35:31.026
153, 55341.04, -187500.02, -187500.02, -187500.02, -187500.02, -187500.02, -187500.02, -187500.02, 0.000, 0.000, 0.000, 14:35:31.026
154, 55133.44, -187500.02, -187500.02, -187500.02, -187500.02, -187500.02, -187500.02, -187500.02, 0.000, 0.000, 0.000, 14:35:31.026
155, 55629.55, -187500.02, -187500.02, -187500.02, -187500.02, -187500.02, -187500.02, -187500.02, 0.000, 0.000, 0.000, 14:35:31.027
156, 55789.41, -187500.02, -187500.02, -187500.02, -187500.02, -187500.02, -187500.02, -187500.02, 0.000, 0.000, 0.000, 14:35:31.027
157, 55447.23, -187500.02, -187500.02, -187500.02, -187500.02, -187500.02, -187500.02, -187500.02, 0.000, 0.000, 0.000, 14:35:31.027
158, 55149.11, -187500.02, -187500.02, -187500.02, -187500.02, -187500.02, -187500.02, -187500.02, -0.954, 0.168, -0.308, 14:35:31.027
159, 55545.89, -187500.02, -187500.02, -187500.02, -187500.02, -187500.02, -187500.02, -187500.02, 0.000, 0.000, 0.000, 14:35:31.027
160, 55834.45, -187500.02, -187500.02, -187500.02, -187500.02, -187500.02, -187500.02, -187500.02, 0.000, 0.000, 0.000, 14:35:31.027
161, 55538.00, -187500.02, -187500.02, -187500.02, -187500.02, -187500.02, -187500.02, -187500.02, 0.000, 0.000, 0.000, 14:35:31.027
162, 55153.75, -187500.02, -187500.02, -187500.02, -187500.02, -187500.02, -187500.02, -187500.02, 0.000, 0.000, 0.000, 14:35:31.027
163, 55399.27, -187500.02, -187500.02, -187500.02, -187500.02, -187500.02, -187500.02, -187500.02, 0.000, 0.000, 0.000, 14:35:31.027
164, 55803.39, -187500.02, -187500.02, -187500.02, -187500.02, -187500.02, -187500.02, -187500.02, 0.000, 0.000, 0.000, 14:35:31.027
165, 55583.98, -187500.02, -187500.02, -187500.02, -187500.02, -187500.02, -187500.02, -187500.02, 0.000, 0.000, 0.000, 14:35:31.027
166, 55205.03, -187500.02, -187500.02, -187500.02, -187500.02, -187500.02, -187500.02, -187500.02, 0.000, 0.000, 0.000, 14:35:31.028
167, 55339.21, -187500.02, -187500.02, -187500.02, -187500.02, -187500.02, -187500.02, -187500.02, 0.000, 0.000, 0.000, 14:35:31.028
168, 55807.39, -187500.02, -187500.02, -187500.02, -187500.02, -187500.02, -187500.02, -187500.02, -0.950, 0.166, -0.306, 14:35:31.028
169, 55667.75, -187500.02, -187500.02, -187500.02, -187500.02, -187500.02, -187500.02, -187500.02, 0.000, 0.000, 0.000, 14:35:31.028
170, 55280.62, -187500.02, -187500.02, -187500.02, -187500.02, -187500.02, -187500.02, -187500.02, 0.000, 0.000, 0.000, 14:35:31.028
171, 55259.19, -187500.02, -187500.02, -187500.02, -187500.02, -187500.02, -187500.02, -187500.02, 0.000, 0.000, 0.000, 14:35:31.028
172, 55770.02, -187500.02, -187500.02, -187500.02, -187500.02, -187500.02, -187500.02, -187500.02, 0.000, 0.000, 0.000, 14:35:31.028
173, 55722.76, -187500.02, -187500.02, -187500.02, -187500.02, -187500.02, -187500.02, -187500.02, 0.000, 0.000, 0.000, 14:35:31.028
174, 55304.63, -187500.02, -187500.02, -187500.02, -187500.02, -187500.02, -187500.02, -187500.02, 0.000, 0.000, 0.000, 14:35:31.028
175, 55144.01, -187500.02, -187500.02, -187500.02, -187500.02, -187500.02, -187500.02, -187500.02, 0.000, 0.000, 0.000, 14:35:31.028
176, 55703.43, -187500.02, -187500.02, -187500.02, -187500.02, -187500.02, -187500.02, -187500.02, 0.000, 0.000, 0.000, 14:35:31.029
177, 55761.95, -187500.02, -187500.02, -187500.02, -187500.02, -187500.02, -187500.02, -187500.02, -0.948, 0.170, -0.304, 14:35:31.029
178, 55392.49, -187500.02, -187500.02, -187500.02, -187500.02, -187500.02, -187500.02, -187500.02, 0.000, 0.000, 0.000, 14:35:31.029
179, 55119.60, -187500.02, -187500.02, -187500.02, -187500.02, -187500.02, -187500.02, -187500.02, 0.000, 0.000, 0.000, 14:35:31.029
180, 55635.73, -187500.02, -187500.02, -187500.02, -187500.02, -187500.02, -187500.02, -187500.02, 0.000, 0.000, 0.000, 14:35:31.029
181, 55831.39, -187500.02, -187500.02, -187500.02, -187500.02, -187500.02, -187500.02, -187500.02, 0.000, 0.000, 0.000, 14:35:31.029
182, 55481.59, -187500.02, -187500.02, -187500.02, -187500.02, -187500.02, -187500.02, -187500.02, 0.000, 0.000, 0.000, 14:35:31.029
183, 55122.44, -187500.02, -187500.02, -187500.02, -187500.02, -187500.02, -187500.02, -187500.02, 0.000, 0.000, 0.000, 14:35:31.029
184, 55533.11, -187500.02, -187500.02, -187500.02, -187500.02, -187500.02, -187500.02, -187500.02, 0.000, 0.000, 0.000, 14:35:31.029
185, 55893.44, -187500.02, -187500.02, -187500.02, -187500.02, -187500.02, -187500.02, -187500.02, 0.000, 0.000, 0.000, 14:35:31.029
186, 55553.65, -187500.02, -187500.02, -187500.02, -187500.02, -187500.02, -187500.02, -187500.02, 0.000, 0.000, 0.000, 14:35:31.030
187, 55133.17, -187500.02, -187500.02, -187500.02, -187500.02, -187500.02, -187500.02, -187500.02, -0.948, 0.168, -0.312, 14:35:31.030
188, 55407.54, -187500.02, -187500.02, -187500.02, -187500.02, -187500.02, -187500.02, -187500.02, 0.000, 0.000, 0.000, 14:35:31.030
189, 55843.93, -187500.02, -187500.02, -187500.02, -187500.02, -187500.02, -187500.02, -187500.02, 0.000, 0.000, 0.000, 14:35:31.030
190, 55606.87, -187500.02, -187500.02, -187500.02, -187500.02, -187500.02, -187500.02, -187500.02, 0.000, 0.000, 0.000, 14:35:31.030
191, 55206.19, -187500.02, -187500.02, -187500.02, -187500.02, -187500.02, -187500.02, -187500.02, 0.000, 0.000, 0.000, 14:35:31.030
192, 55310.66, -187500.02, -187500.02, -187500.02, -187500.02, -187500.02, -187500.02, -187500.02, 0.000, 0.000, 0.000, 14:35:31.030
193, 55803.99, -187500.02, -187500.02, -187500.02, -187500.02, -187500.02, -187500.02, -187500.02, 0.000, 0.000, 0.000, 14:35:31.030
194, 55649.47, -187500.02, -187500.02, -187500.02, -187500.02, -187500.02, -187500.02, -187500.02, 0.000, 0.000, 0.000, 14:35:31.030
195, 55228.16, -187500.02, -187500.02, -187500.02, -187500.02, -187500.02, -187500.02, -187500.02, 0.000, 0.000, 0.000, 14:35:31.031
196, 55185.85, -187500.02, -187500.02, -187500.02, -187500.02, -187500.02, -187500.02, -187500.02, 0.000, 0.000, 0.000, 14:35:31.031
197, 55766.28, -187500.02, -187500.02, -187500.02, -187500.02, -187500.02, -187500.02, -187500.02, -0.952, 0.168, -0.308, 14:35:31.031
198, 55736.55, -187500.02, -187500.02, -187500.02, -187500.02, -187500.02, -187500.02, -187500.02, 0.000, 0.000, 0.000, 14:35:31.031
199, 55359.19, -187500.02, -187500.02, -187500.02, -187500.02, -187500.02, -187500.02, -187500.02, 0.000, 0.000, 0.000, 14:35:31.031
200, 55195.98, -187500.02, -187500.02, -187500.02, -187500.02, -187500.02, -187500.02, -187500.02, 0.000, 0.000, 0.000, 14:35:31.032
201, 55701.84, -187500.02, -187500.02, -187500.02, -187500.02, -187500.02, -187500.02, -187500.02, 0.000, 0.000, 0.000, 14:35:31.032
202, 55790.78, -187500.02, -187500.02, -187500.02, -187500.02, -187500.02, -187500.02, -187500.02, 0.000, 0.000, 0.000, 14:35:31.032
203, 55401.86, -187500.02, -187500.02, -187500.02, -187500.02, -187500.02, -187500.02, -187500.02, 0.000, 0.000, 0.000, 14:35:31.032
204, 55099.64, -187500.02, -187500.02, -187500.02, -187500.02, -187500.02, -187500.02, -187500.02, 0.000, 0.000, 0.000, 14:35:31.032
205, 55625.53, -187500.02, -187500.02, -187500.02, -187500.02, -187500.02, -187500.02, -187500.02, 0.000, 0.000, 0.000, 14:35:31.032
206, 55857.30, -187500.02, -187500.02, -187500.02, -187500.02, -187500.02, -187500.02, -187500.02, 0.000, 0.000, 0.000, 14:35:31.032
207, 55496.36, -187500.02, -187500.02, -187500.02, -187500.02, -187500.02, -187500.02, -187500.02, -0.956, 0.168, -0.314, 14:35:31.032
208, 55153.80, -187500.02, -187500.02, -187500.02, -187500.02, -187500.02, -187500.02, -187500.02, 0.000, 0.000, 0.000, 14:35:31.033
209, 55512.07, -187500.02, -187500.02, -187500.02, -187500.02, -187500.02, -187500.02, -187500.02, 0.000, 0.000, 0.000, 14:35:31.033
210, 55902.20, -187500.02, -187500.02, -187500.02, -187500.02, -187500.02, -187500.02, -187500.02, 0.000, 0.000, 0.000, 14:35:31.033
211, 55652.49, -187500.02, -187500.02, -187500.02, -187500.02, -187500.02, -187500.02, -187500.02, 0.000, 0.000, 0.000, 14:35:31.033
212, 55202.84, -187500.02, -187500.02, -187500.02, -187500.02, -187500.02, -187500.02, -187500.02, 0.000, 0.000, 0.000, 14:35:31.033
213, 55416.97, -187500.02, -187500.02, -187500.02, -187500.02, -187500.02, -187500.02, -187500.02, 0.000, 0.000, 0.000, 14:35:31.033
214, 55873.44, -187500.02, -187500.02, -187500.02, -187500.02, -187500.02, -187500.02, -187500.02, 0.000, 0.000, 0.000, 14:35:31.033
215, 55626.32, -187500.02, -187500.02, -187500.02, -187500.02, -187500.02, -187500.02, -187500.02, 0.000, 0.000, 0.000, 14:35:31.034
216, 55219.56, -187500.02, -187500.02, -187500.02, -187500.02, -187500.02, -187500.02, -187500.02, 0.000, 0.000, 0.000, 14:35:31.034
217, 55305.39, -187500.02, -187500.02, -187500.02, -187500.02, -187500.02, -187500.02, -187500.02, -0.954, 0.170, -0.320, 14:35:31.034
218, 55845.65, -187500.02, -187500.02, -187500.02, -187500.02, -187500.02, -187500.02, -187500.02, 0.000, 0.000, 0.000, 14:35:31.034
219, 55728.21, -187500.02, -187500.02, -187500.02, -187500.02, -187500.02, -187500.02, -187500.02, 0.000, 0.000, 0.000, 14:35:31.034
220, 55281.63, -187500.02, -187500.02, -187500.02, -187500.02, -187500.02, -187500.02, -187500.02, 0.000, 0.000, 0.000, 14:35:31.034
221, 55178.57, -187500.02, -187500.02, -187500.02, -187500.02, -187500.02, -187500.02, -187500.02, 0.000, 0.000, 0.000, 14:35:31.034
222, 55733.56, -187500.02, -187500.02, -187500.02, -187500.02, -187500.02, -187500.02, -187500.02, 0.000, 0.000, 0.000, 14:35:31.034
223, 55785.37, -187500.02, -187500.02, -187500.02, -187500.02, -187500.02, -187500.02, -187500.02, 0.000, 0.000, 0.000, 14:35:31.034
224, 55387.20, -187500.02, -187500.02, -187500.02, -187500.02, -187500.02, -187500.02, -187500.02, 0.000, 0.000, 0.000, 14:35:31.503
225, 55159.21, -187500.02, -187500.02, -187500.02, -187500.02, -187500.02, -187500.02, -187500.02, 0.000, 0.000, 0.000, 14:35:31.503
226, 55681.68, -187500.02, -187500.02, -187500.02, -187500.02, -187500.02, -187500.02, -187500.02, 0.000, 0.000, 0.000, 14:35:31.503
227, 55815.39, -187500.02, -187500.02, -187500.02, -187500.02, -187500.02, -187500.02, -187500.02, -0.950, 0.172, -0.314, 14:35:31.503
228, 55427.32, -187500.02, -187500.02, -187500.02, -187500.02, -187500.02, -187500.02, -187500.02, 0.000, 0.000, 0.000, 14:35:31.503
229, 55149.98, -187500.02, -187500.02, -187500.02, -187500.02, -187500.02, -187500.02, -187500.02, 0.000, 0.000, 0.000, 14:35:31.503
230, 55585.30, -187500.02, -187500.02, -187500.02, -187500.02, -187500.02, -187500.02, -187500.02, 0.000, 0.000, 0.000, 14:35:31.504
231, 55854.30, -187500.02, -187500.02, -187500.02, -187500.02, -187500.02, -187500.02, -187500.02, 0.000, 0.000, 0.000, 14:35:31.504
232, 55533.78, -187500.02, -187500.02, -187500.02, -187500.02, -187500.02, -187500.02, -187500.02, 0.000, 0.000, 0.000, 14:35:31.504
233, 55150.47, -187500.02, -187500.02, -187500.02, -187500.02, -187500.02, -187500.02, -187500.02, 0.000, 0.000, 0.000, 14:35:31.504
234, 55502.24, -187500.02, -187500.02, -187500.02, -187500.02, -187500.02, -187500.02, -187500.02, 0.000, 0.000, 0.000, 14:35:31.504
235, 55887.61, -187500.02, -187500.02, -187500.02, -187500.02, -187500.02, -187500.02, -187500.02, 0.000, 0.000, 0.000, 14:35:31.504
236, 55636.29, -187500.02, -187500.02, -187500.02, -187500.02, -187500.02, -187500.02, -187500.02, 0.000, 0.000, 0.000, 14:35:31.504
237, 55253.18, -187500.02, -187500.02, -187500.02, -187500.02, -187500.02, -187500.02, -187500.02, -0.946, 0.166, -0.312, 14:35:31.505
238, 55406.53, -187500.02, -187500.02, -187500.02, -187500.02, -187500.02, -187500.02, -187500.02, 0.000, 0.000, 0.000, 14:35:31.505
239, 55862.11, -187500.02, -187500.02, -187500.02, -187500.02, -187500.02, -187500.02, -187500.02, 0.000, 0.000, 0.000, 14:35:31.505
240, 55665.99, -187500.02, -187500.02, -187500.02, -187500.02, -187500.02, -187500.02, -187500.02, 0.000, 0.000, 0.000, 14:35:31.505
241, 55248.21, -187500.02, -187500.02, -187500.02, -187500.02, -187500.02, -187500.02, -187500.02, 0.000, 0.000, 0.000, 14:35:31.505
242, 55264.48, -187500.02, -187500.02, -187500.02, -187500.02, -187500.02, -187500.02, -187500.02, 0.000, 0.000, 0.000, 14:35:31.505
243, 55811.12, -187500.02, -187500.02, -187500.02, -187500.02, -187500.02, -187500.02, -187500.02, 0.000, 0.000, 0.000, 14:35:31.505
244, 55764.56, -187500.02, -187500.02, -187500.02, -187500.02, -187500.02, -187500.02, -187500.02, 0.000, 0.000, 0.000, 14:35:31.506
245, 55350.16, -187500.02, -187500.02, -187500.02, -187500.02, -187500.02, -187500.02, -187500.02, 0.000, 0.000, 0.000, 14:35:31.506
246, 55207.06, -187500.02, -187500.02, -187500.02, -187500.02, -187500.02, -187500.02, -187500.02, 0.000, 0.000, 0.000, 14:35:31.506
247, 55757.74, -187500.02, -187500.02, -187500.02, -187500.02, -187500.02, -187500.02, -187500.02, -0.952, 0.166, -0.314, 14:35:31.506
248, 55757.57, -187500.02, -187500.02, -187500.02, -187500.02, -187500.02, -187500.02, -187500.02, 0.000, 0.000, 0.000, 14:35:31.506
249, 55356.62, -187500.02, -187500.02, -187500.02, -187500.02, -187500.02, -187500.02, -187500.02, 0.000, 0.000, 0.000, 14:35:31.506
250, 55131.56, -187500.02, -187500.02, -187500.02, -187500.02, -187500.02, -187500.02, -187500.02, 0.000, 0.000, 0.000, 14:35:31.506
251, 55657.21, -187500.02, -187500.02, -187500.02, -187500.02, -187500.02, -187500.02, -187500.02, 0.000, 0.000, 0.000, 14:35:31.506
252, 55803.05, -187500.02, -187500.02, -187500.02, -187500.02, -187500.02, -187500.02, -187500.02, 0.000, 0.000, 0.000, 14:35:31.507
253, 55427.50, -187500.02, -187500.02, -187500.02, -187500.02, -187500.02, -187500.02, -187500.02, 0.000, 0.000, 0.000, 14:35:31.507
254, 55147.88, -187500.02, -187500.02, -187500.02, -187500.02, -187500.02, -187500.02, -187500.02, 0.000, 0.000, 0.000, 14:35:31.507
255, 55554.59, -187500.02, -187500.02, -187500.02, -187500.02, -187500.02, -187500.02, -187500.02, 0.000, 0.000, 0.000, 14:35:31.507
0, 55891.00, -187500.02, -187500.02, -187500.02, -187500.02, -187500.02, -187500.02, -187500.02, 0.000, 0.000, 0.000, 14:35:31.507
1, 55550.41, -187500.02, -187500.02, -187500.02, -187500.02, -187500.02, -187500.02, -187500.02, -0.950, 0.164, -0.308, 14:35:31.507
2, 55137.15, -187500.02, -187500.02, -187500.02, -187500.02, -187500.02, -187500.02, -187500.02, 0.000, 0.000, 0.000, 14:35:31.507
3, 55423.43, -187500.02, -187500.02, -187500.02, -187500.02, -187500.02, -187500.02, -187500.02, 0.000, 0.000, 0.000, 14:35:31.507
4, 55841.96, -187500.02, -187500.02, -187500.02, -187500.02, -187500.02, -187500.02, -187500.02, 0.000, 0.000, 0.000, 14:35:31.507
5, 55634.47, -187500.02, -187500.02, -187500.02, -187500.02, -187500.02, -187500.02, -187500.02, 0.000, 0.000, 0.000, 14:35:31.508
6, 55217.37, -187500.02, -187500.02, -187500.02, -187500.02, -187500.02, -187500.02, -187500.02, 0.000, 0.000, 0.000, 14:35:31.508
7, 55361.47, -187500.02, -187500.02, -187500.02, -187500.02, -187500.02, -187500.02, -187500.02, 0.000, 0.000, 0.000, 14:35:31.508
8, 55859.38, -187500.02, -187500.02, -187500.02, -187500.02, -187500.02, -187500.02, -187500.02, 0.000, 0.000, 0.000, 14:35:31.508
9, 55672.52, -187500.02, -187500.02, -187500.02, -187500.02, -187500.02, -187500.02, -187500.02, 0.000, 0.000, 0.000, 14:35:31.509
10, 55238.94, -187500.02, -187500.02, -187500.02, -187500.02, -187500.02, -187500.02, -187500.02, 0.000, 0.000, 0.000, 14:35:31.509
11, 55217.17, -187500.02, -187500.02, -187500.02, -187500.02, -187500.02, -187500.02, -187500.02, -0.952, 0.164, -0.306, 14:35:31.509
12, 55815.07, -187500.02, -187500.02, -187500.02, -187500.02, -187500.02, -187500.02, -187500.02, 0.000, 0.000, 0.000, 14:35:31.509
13, 55782.33, -187500.02, -187500.02, -187500.02, -187500.02, -187500.02, -187500.02, -187500.02, 0.000, 0.000, 0.000, 14:35:31.509
14, 55353.22, -187500.02, -187500.02, -187500.02, -187500.02, -187500.02, -187500.02, -187500.02, 0.000, 0.000, 0.000, 14:35:31.509
15, 55209.84, -187500.02, -187500.02, -187500.02, -187500.02, -187500.02, -187500.02, -187500.02, 0.000, 0.000, 0.000, 14:35:31.509
16, 55754.93, -187500.02, -187500.02, -187500.02, -187500.02, -187500.02, -187500.02, -187500.02, 0.000, 0.000, 0.000, 14:35:31.509
17, 55817.85, -187500.02, -187500.02, -187500.02, -187500.02, -187500.02, -187500.02, -187500.02, 0.000, 0.000, 0.000, 14:35:31.509
18, 55444.35, -187500.02, -187500.02, -187500.02, -187500.02, -187500.02, -187500.02, -187500.02, 0.000, 0.000, 0.000, 14:35:31.510
19, 55185.74, -187500.02, -187500.02, -187500.02, -187500.02, -187500.02, -187500.02, -187500.02, 0.000, 0.000, 0.000, 14:35:31.510
20, 55654.77, -187500.02, -187500.02, -187500.02, -187500.02, -187500.02, -187500.02, -187500.02, 0.000, 0.000, 0.000, 14:35:31.510
21, 55845.25, -187500.02, -187500.02, -187500.02, -187500.02, -187500.02, -187500.02, -187500.02, -0.946, 0.170, -0.304, 14:35:31.510
22, 55497.10, -187500.02, -187500.02, -187500.02, -187500.02, -187500.02, -187500.02, -187500.02, 0.000, 0.000, 0.000, 14:35:31.510
23, 55159.61, -187500.02, -187500.02, -187500.02, -187500.02, -187500.02, -187500.02, -187500.02, 0.000, 0.000, 0.000, 14:35:31.510
24, 55539.48, -187500.02, -187500.02, -187500.02, -187500.02, -187500.02, -187500.02, -187500.02, 0.000, 0.000, 0.000, 14:35:31.510
25, 55860.56, -187500.02, -187500.02, -187500.02, -187500.02, -187500.02, -187500.02, -187500.02, 0.000, 0.000, 0.000, 14:35:31.511
26, 55593.84, -187500.02, -187500.02, -187500.02, -187500.02, -187500.02, -187500.02, -187500.02, 0.000, 0.000, 0.000, 14:35:31.511
27, 55168.35, -187500.02, -187500.02, -187500.02, -187500.02, -187500.02, -187500.02, -187500.02, 0.000, 0.000, 0.000, 14:35:31.511
28, 55431.79, -187500.02, -187500.02, -187500.02, -187500.02, -187500.02, -187500.02, -187500.02, 0.000, 0.000, 0.000, 14:35:31.511
29, 55873.75, -187500.02, -187500.02, -187500.02, -187500.02, -187500.02, -187500.02, -187500.02, 0.000, 0.000, 0.000, 14:35:31.511
30, 55635.48, -187500.02, -187500.02, -187500.02, -187500.02, -187500.02, -187500.02, -187500.02, 0.000, 0.000, 0.000, 14:35:31.511
31, 55231.61, -187500.02, -187500.02, -187500.02, -187500.02, -187500.02, -187500.02, -187500.02, -0.954, 0.168, -0.306, 14:35:31.511
32, 55345.04, -187500.02, -187500.02, -187500.02, -187500.02, -187500.02, -187500.02, -187500.02, 0.000, 0.000, 0.000, 14:35:31.511
33, 55845.00, -187500.02, -187500.02, -187500.02, -187500.02, -187500.02, -187500.02, -187500.02, 0.000, 0.000, 0.000, 14:35:31.511
34, 55707.27, -187500.02, -187500.02, -187500.02, -187500.02, -187500.02, -187500.02, -187500.02, 0.000, 0.000, 0.000, 14:35:31.511
35, 55254.67, -187500.02, -187500.02, -187500.02, -187500.02, -187500.02, -187500.02, -187500.02, 0.000, 0.000, 0.000, 14:35:31.511
36, 55202.39, -187500.02, -187500.02, -187500.02, -187500.02, -187500.02, -187500.02, -187500.02, 0.000, 0.000, 0.000, 14:35:31.512
37, 55797.06, -187500.02, -187500.02, -187500.02, -187500.02, -187500.02, -187500.02, -187500.02, 0.000, 0.000, 0.000, 14:35:31.512
38, 55741.56, -187500.02, -187500.02, -187500.02, -187500.02, -187500.02, -187500.02, -187500.02, 0.000, 0.000, 0.000, 14:35:31.512
39, 55357.16, -187500.02, -187500.02, -187500.02, -187500.02, -187500.02, -187500.02, -187500.02, 0.000, 0.000, 0.000, 14:35:31.512
40, 55219.34, -187500.02, -187500.02, -187500.02, -187500.02, -187500.02, -187500.02, -187500.02, 0.000, 0.000, 0.000, 14:35:31.512
41, 55732.42, -187500.02, -187500.02, -187500.02, -187500.02, -187500.02, -187500.02, -187500.02, -0.956, 0.170, -0.314, 14:35:31.512
42, 55776.52, -187500.02, -187500.02, -187500.02, -187500.02, -187500.02, -187500.02, -187500.02, 0.000, 0.000, 0.000, 14:35:31.512
43, 55418.11, -187500.02, -187500.02, -187500.02, -187500.02, -187500.02, -187500.02, -187500.02, 0.000, 0.000, 0.000, 14:35:31.512
44, 55165.07, -187500.02, -187500.02, -187500.02, -187500.02, -187500.02, -187500.02, -187500.02, 0.000, 0.000, 0.000, 14:35:31.512
45, 55665.52, -187500.02, -187500.02, -187500.02, -187500.02, -187500.02, -187500.02, -187500.02, 0.000, 0.000, 0.000, 14:35:31.512
46, 55862.15, -187500.02, -187500.02, -187500.02, -187500.02, -187500.02, -187500.02, -187500.02, 0.000, 0.000, 0.000, 14:35:31.512
47, 55506.06, -187500.02, -187500.02, -187500.02, -187500.02, -187500.02, -187500.02, -187500.02, 0.000, 0.000, 0.000, 14:35:31.512
48, 55171.12, -187500.02, -187500.02, -187500.02, -187500.02, -187500.02, -187500.02, -187500.02, 0.000, 0.000, 0.000, 14:35:31.512
49, 55554.34, -187500.02, -187500.02, -187500.02, -187500.02, -187500.02, -187500.02, -187500.02, 0.000, 0.000, 0.000, 14:35:31.513
50, 55891.56, -187500.02, -187500.02, -187500.02, -187500.02, -187500.02, -187500.02, -187500.02, 0.000, 0.000, 0.000, 14:35:31.513
51, 55613.20, -187500.02, -187500.02, -187500.02, -187500.02, -187500.02, -187500.02, -187500.02, -0.956, 0.168, -0.312, 14:35:31.513
52, 55241.75, -187500.02, -187500.02, -187500.02, -187500.02, -187500.02, -187500.02, -187500.02, 0.000, 0.000, 0.000, 14:35:31.513
53, 55439.05, -187500.02, -187500.02, -187500.02, -187500.02, -187500.02, -187500.02, -187500.02, 0.000, 0.000, 0.000, 14:35:31.513
54, 55868.65, -187500.02, -187500.02, -187500.02, -187500.02, -187500.02, -187500.02, -187500.02, 0.000, 0.000, 0.000, 14:35:31.513
55, 55649.70, -187500.02, -187500.02, -187500.02, -187500.02, -187500.02, -187500.02, -187500.02, 0.000, 0.000, 0.000, 14:35:31.513
56, 55264.69, -187500.02, -187500.02, -187500.02, -187500.02, -187500.02, -187500.02, -187500.02, 0.000, 0.000, 0.000, 14:35:31.513
57, 55353.11, -187500.02, -187500.02, -187500.02, -187500.02, -187500.02, -187500.02, -187500.02, 0.000, 0.000, 0.000, 14:35:31.513
58, 55880.12, -187500.02, -187500.02, -187500.02, -187500.02, -187500.02, -187500.02, -187500.02, 0.000, 0.000, 0.000, 14:35:31.513
59, 55733.98, -187500.02, -187500.02, -187500.02, -187500.02, -187500.02, -187500.02, -187500.02, 0.000, 0.000, 0.000, 14:35:31.513
60, 55298.41, -187500.02, -187500.02, -187500.02, -187500.02, -187500.02, -187500.02, -187500.02, -0.956, 0.172, -0.312, 14:35:31.513
61, 55238.07, -187500.02, -187500.02, -187500.02, -187500.02, -187500.02, -187500.02, -187500.02, 0.000, 0.000, 0.000, 14:35:31.513
62, 55782.78, -187500.02, -187500.02, -187500.02, -187500.02, -187500.02, -187500.02, -187500.02, 0.000, 0.000, 0.000, 14:35:31.514
63, 55779.47, -187500.02, -187500.02, -187500.02, -187500.02, -187500.02, -187500.02, -187500.02, 0.000, 0.000, 0.000, 14:35:31.514
64, 55393.21, -187500.02, -187500.02, -187500.02, -187500.02, -187500.02, -187500.02, -187500.02, 0.000, 0.000, 0.000, 14:35:31.514
65, 55153.46, -187500.02, -187500.02, -187500.02, -187500.02, -187500.02, -187500.02, -187500.02, 0.000, 0.000, 0.000, 14:35:31.514
66, 55680.12, -187500.02, -187500.02, -187500.02, -187500.02, -187500.02, -187500.02, -187500.02, 0.000, 0.000, 0.000, 14:35:31.514
67, 55808.04, -187500.02, -187500.02, -187500.02, -187500.02, -187500.02, -187500.02, -187500.02, 0.000, 0.000, 0.000, 14:35:31.514
68, 55476.29, -187500.02, -187500.02, -187500.02, -187500.02, -187500.02, -187500.02, -187500.02, 0.000, 0.000, 0.000, 14:35:31.514
69, 55167.21, -187500.02, -187500.02, -187500.02, -187500.02, -187500.02, -187500.02, -187500.02, 0.000, 0.000, 0.000, 14:35:31.514
70, 55611.43, -187500.02, -187500.02, -187500.02, -187500.02, -187500.02, -187500.02, -187500.02, -0.954, 0.172, -0.308, 14:35:31.514
71, 55855.09, -187500.02, -187500.02, -187500.02, -187500.02, -187500.02, -187500.02, -187500.02, 0.000, 0.000, 0.000, 14:35:31.514
72, 55526.29, -187500.02, -187500.02, -187500.02, -187500.02, -187500.02, -187500.02, -187500.02, 0.000, 0.000, 0.000, 14:35:31.514
73, 55169.40, -187500.02, -187500.02, -187500.02, -187500.02, -187500.02, -187500.02, -187500.02, 0.000, 0.000, 0.000, 14:35:31.514
74, 55501.08, -187500.02, -187500.02, -187500.02, -187500.02, -187500.02, -187500.02, -187500.02, 0.000, 0.000, 0.000, 14:35:31.515
75, 55851.29, -187500.02, -187500.02, -187500.02, -187500.02, -187500.02, -187500.02, -187500.02, 0.000, 0.000, 0.000, 14:35:31.515
76, 55579.38, -187500.02, -187500.02, -187500.02, -187500.02, -187500.02, -187500.02, -187500.02, 0.000, 0.000, 0.000, 14:35:31.515
77, 55236.43, -187500.02, -187500.02, -187500.02, -187500.02, -187500.02, -187500.02, -187500.02, 0.000, 0.000, 0.000, 14:35:31.515
78, 55423.88, -187500.02, -187500.02, -187500.02, -187500.02, -187500.02, -187500.02, -187500.02, 0.000, 0.000, 0.000, 14:35:31.515
79, 55889.06, -187500.02, -187500.02, -187500.02, -187500.02, -187500.02, -187500.02, -187500.02, 0.000, 0.000, 0.000, 14:35:31.515
80, 55693.82, -187500.02, -187500.02, -187500.02, -187500.02, -187500.02, -187500.02, -187500.02, -0.948, 0.166, -0.304, 14:35:31.515
81, 55293.90, -187500.02, -187500.02, -187500.02, -187500.02, -187500.02, -187500.02, -187500.02, 0.000, 0.000, 0.000, 14:35:31.515
82, 55315.58, -187500.02, -187500.02, -187500.02, -187500.02, -187500.02, -187500.02, -187500.02, 0.000, 0.000, 0.000, 14:35:31.515
83, 55840.49, -187500.02, -187500.02, -187500.02, -187500.02, -187500.02, -187500.02, -187500.02, 0.000, 0.000, 0.000, 14:35:31.515
84, 55751.17, -187500.02, -187500.02, -187500.02, -187500.02, -187500.02, -187500.02, -187500.02, 0.000, 0.000, 0.000, 14:35:31.515
85, 55324.41, -187500.02, -187500.02, -187500.02, -187500.02, -187500.02, -187500.02, -187500.02, 0.000, 0.000, 0.000, 14:35:31.515
86, 55218.17, -187500.02, -187500.02, -187500.02, -187500.02, -187500.02, -187500.02, -187500.02, 0.000, 0.000, 0.000, 14:35:31.515
87, 55769.90, -187500.02, -187500.02, -187500.02, -187500.02, -187500.02, -187500.02, -187500.02, 0.000, 0.000, 0.000, 14:35:31.516
88, 55791.20, -187500.02, -187500.02, -187500.02, -187500.02, -187500.02, -187500.02, -187500.02, 0.000, 0.000, 0.000, 14:35:31.516
89, 55407.65, -187500.02, -187500.02, -187500.02, -187500.02, -187500.02, -187500.02, -187500.02, 0.000, 0.000, 0.000, 14:35:31.981
90, 55194.30, -187500.02, -187500.02, -187500.02, -187500.02, -187500.02, -187500.02, -187500.02, -0.950, 0.168, -0.298, 14:35:31.981
91, 55709.08, -187500.02, -187500.02, -187500.02, -187500.02, -187500.02, -187500.02, -187500.02, 0.000, 0.000, 0.000, 14:35:31.981
92, 55872.07, -187500.02, -187500.02, -187500.02, -187500.02, -187500.02, -187500.02, -187500.02, 0.000, 0.000, 0.000, 14:35:31.982
93, 55479.40, -187500.02, -187500.02, -187500.02, -187500.02, -187500.02, -187500.02, -187500.02, 0.000, 0.000, 0.000, 14:35:31.982
94, 55125.17, -187500.02, -187500.02, -187500.02, -187500.02, -187500.02, -187500.02, -187500.02, 0.000, 0.000, 0.000, 14:35:31.982
95, 55596.54, -187500.02, -187500.02, -187500.02, -187500.02, -187500.02, -187500.02, -187500.02, 0.000, 0.000, 0.000, 14:35:31.982
96, 55896.12, -187500.02, -187500.02, -187500.02, -187500.02, -187500.02, -187500.02, -187500.02, 0.000, 0.000, 0.000, 14:35:31.982
97, 55559.59, -187500.02, -187500.02, -187500.02, -187500.02, -187500.02, -187500.02, -187500.02, 0.000, 0.000, 0.000, 14:35:31.982
98, 55185.14, -187500.02, -187500.02, -187500.02, -187500.02, -187500.02, -187500.02, -187500.02, 0.000, 0.000, 0.000, 14:35:31.982
99, 55482.13, -187500.02, -187500.02, -187500.02, -187500.02, -187500.02, -187500.02, -187500.02, 0.000, 0.000, 0.000, 14:35:31.982
100, 55896.44, -187500.02, -187500.02, -187500.02, -187500.02, -187500.02, -187500.02, -187500.02, -0.954, 0.170, -0.298, 14:35:31.982
101, 55641.22, -187500.02, -187500.02, -187500.02, -187500.02, -187500.02, -187500.02, -187500.02, 0.000, 0.000, 0.000, 14:35:31.982
102, 55226.20, -187500.02, -187500.02, -187500.02, -187500.02, -187500.02, -187500.02, -187500.02, 0.000, 0.000, 0.000, 14:35:31.983
103, 55384.56, -187500.02, -187500.02, -187500.02, -187500.02, -187500.02, -187500.02, -187500.02, 0.000, 0.000, 0.000, 14:35:31.983
104, 55868.50, -187500.02, -187500.02, -187500.02, -187500.02, -187500.02, -187500.02, -187500.02, 0.000, 0.000, 0.000, 14:35:31.983
105, 55705.91, -187500.02, -187500.02, -187500.02, -187500.02, -187500.02, -187500.02, -187500.02, 0.000, 0.000, 0.000, 14:35:31.983
106, 55276.42, -187500.02, -187500.02, -187500.02, -187500.02, -187500.02, -187500.02, -187500.02, 0.000, 0.000, 0.000, 14:35:31.983
107, 55282.07, -187500.02, -187500.02, -187500.02, -187500.02, -187500.02, -187500.02, -187500.02, 0.000, 0.000, 0.000, 14:35:31.983
108, 55854.13, -187500.02, -187500.02, -187500.02, -187500.02, -187500.02, -187500.02, -187500.02, 0.000, 0.000, 0.000, 14:35:31.983
109, 55745.09, -187500.02, -187500.02, -187500.02, -187500.02, -187500.02, -187500.02, -187500.02, 0.000, 0.000, 0.000, 14:35:31.983
110, 55318.24, -187500.02, -187500.02, -187500.02, -187500.02, -187500.02, -187500.02, -187500.02, -0.946, 0.166, -0.300, 14:35:31.983
111, 55211.73, -187500.02, -187500.02, -187500.02, -187500.02, -187500.02, -187500.02, -187500.02, 0.000, 0.000, 0.000, 14:35:31.983
112, 55781.84, -187500.02, -187500.02, -187500.02, -187500.02, -187500.02, -187500.02, -187500.02, 0.000, 0.000, 0.000, 14:35:31.983
113, 55807.45, -187500.02, -187500.02, -187500.02, -187500.02, -187500.02, -187500.02, -187500.02, 0.000, 0.000, 0.000, 14:35:31.983
114, 55416.39, -187500.02, -187500.02, -187500.02, -187500.02, -187500.02, -187500.02, -187500.02, 0.000, 0.000, 0.000, 14:35:31.984
115, 55180.29, -187500.02, -187500.02, -187500.02, -187500.02, -187500.02, -187500.02, -187500.02, 0.000, 0.000, 0.000, 14:35:31.984
116, 55665.86, -187500.02, -187500.02, -187500.02, -187500.02, -187500.02, -187500.02, -187500.02, 0.000, 0.000, 0.000, 14:35:31.984
117, 55852.45, -187500.02, -187500.02, -187500.02, -187500.02, -187500.02, -187500.02, -187500.02, 0.000, 0.000, 0.000, 14:35:31.984
118, 55537.76, -187500.02, -187500.02, -187500.02, -187500.02, -187500.02, -187500.02, -187500.02, 0.000, 0.000, 0.000, 14:35:31.984
119, 55200.52, -187500.02, -187500.02, -187500.02, -187500.02, -187500.02, -187500.02, -187500.02, 0.000, 0.000, 0.000, 14:35:31.984
120, 55570.10, -187500.02, -187500.02, -187500.02, -187500.02, -187500.02, -187500.02, -187500.02, -0.946, 0.166, -0.304, 14:35:31.984
121, 55897.42, -187500.02, -187500.02, -187500.02, -187500.02, -187500.02, -187500.02, -187500.02, 0.000, 0.000, 0.000, 14:35:31.984
122, 55627.54, -187500.02, -187500.02, -187500.02, -187500.02, -187500.02, -187500.02, -187500.02, 0.000, 0.000, 0.000, 14:35:31.984
123, 55232.37, -187500.02, -187500.02, -187500.02, -187500.02, -187500.02, -187500.02, -187500.02, 0.000, 0.000, 0.000, 14:35:31.984
124, 55476.27, -187500.02, -187500.02, -187500.02, -187500.02, -187500.02, -187500.02, -187500.02, 0.000, 0.000, 0.000, 14:35:31.984
125, 55889.93, -187500.02, -187500.02, -187500.02, -187500.02, -187500.02, -187500.02, -187500.02, 0.000, 0.000, 0.000, 14:35:31.984
126, 55670.84, -187500.02, -187500.02, -187500.02, -187500.02, -187500.02, -187500.02, -187500.02, 0.000, 0.000, 0.000, 14:35:31.984
127, 55231.49, -187500.02, -187500.02, -187500.02, -187500.02, -187500.02, -187500.02, -187500.02, 0.000, 0.000, 0.000, 14:35:31.985
128, 55328.77, -187500.02, -187500.02, -187500.02, -187500.02, -187500.02, -187500.02, -187500.02, 0.000, 0.000, 0.000, 14:35:31.985
129, 55890.16, -187500.02, -187500.02, -187500.02, -187500.02, -187500.02, -187500.02, -187500.02, 0.000, 0.000, 0.000, 14:35:31.985
130, 55735.17, -187500.02, -187500.02, -187500.02, -187500.02, -187500.02, -187500.02, -187500.02, -0.950, 0.172, -0.306, 14:35:31.985
131, 55286.43, -187500.02, -187500.02, -187500.02, -187500.02, -187500.02, -187500.02, -187500.02, 0.000, 0.000, 0.000, 14:35:31.985
132, 55243.03, -187500.02, -187500.02, -187500.02, -187500.02, -187500.02, -187500.02, -187500.02, 0.000, 0.000, 0.000, 14:35:31.985
133, 55806.36, -187500.02, -187500.02, -187500.02, -187500.02, -187500.02, -187500.02, -187500.02, 0.000, 0.000, 0.000, 14:35:31.985
134, 55776.92, -187500.02, -187500.02, -187500.02, -187500.02, -187500.02, -187500.02, -187500.02, 0.000, 0.000, 0.000, 14:35:31.985
135, 55422.96, -187500.02, -187500.02, -187500.02, -187500.02, -187500.02, -187500.02, -187500.02, 0.000, 0.000, 0.000, 14:35:31.985
136, 55280.64, -187500.02, -187500.02, -187500.02, -187500.02, -187500.02, -187500.02, -187500.02, 0.000, 0.000, 0.000, 14:35:31.985
137, 55799.05, -187500.02, -187500.02, -187500.02, -187500.02, -187500.02, -187500.02, -187500.02, 0.000, 0.000, 0.000, 14:35:31.985
138, 55828.75, -187500.02, -187500.02, -187500.02, -187500.02, -187500.02, -187500.02, -187500.02, 0.000, 0.000, 0.000, 14:35:31.985
139, 55422.09, -187500.02, -187500.02, -187500.02, -187500.02, -187500.02, -187500.02, -187500.02, 0.000, 0.000, 0.000, 14:35:31.986
140, 55163.68, -187500.02, -187500.02, -187500.02, -187500.02, -187500.02, -187500.02, -187500.02, -0.954, 0.168, -0.312, 14:35:31.986
141, 55615.45, -187500.02, -187500.02, -187500.02, -187500.02, -187500.02, -187500.02, -187500.02, 0.000, 0.000, 0.000, 14:35:31.986
142, 55841.12, -187500.02, -187500.02, -187500.02, -187500.02, -187500.02, -187500.02, -187500.02, 0.000, 0.000, 0.000, 14:35:31.986
143, 55573.90, -187500.02, -187500.02, -187500.02, -187500.02, -187500.02, -187500.02, -187500.02, 0.000, 0.000, 0.000, 14:35:31.986
144, 55227.61, -187500.02, -187500.02, -187500.02, -187500.02, -187500.02, -187500.02, -187500.02, 0.000, 0.000, 0.000, 14:35:31.986
145, 55570.66, -187500.02, -187500.02, -187500.02, -187500.02, -187500.02, -187500.02, -187500.02, 0.000, 0.000, 0.000, 14:35:31.986
146, 55891.05, -187500.02, -187500.02, -187500.02, -187500.02, -187500.02, -187500.02, -187500.02, 0.000, 0.000, 0.000, 14:35:31.986
147, 55602.04, -187500.02, -187500.02, -187500.02, -187500.02, -187500.02, -187500.02, -187500.02, 0.000, 0.000, 0.000, 14:35:31.986
148, 55193.99, -187500.02, -187500.02, -187500.02, -187500.02, -187500.02, -187500.02, -187500.02, 0.000, 0.000, 0.000, 14:35:31.987
149, 55418.00, -187500.02, -187500.02, -187500.02, -187500.02, -187500.02, -187500.02, -187500.02, 0.000, 0.000, 0.000, 14:35:31.987
150, 55853.66, -187500.02, -187500.02, -187500.02, -187500.02, -187500.02, -187500.02, -187500.02, -0.954, 0.168, -0.316, 14:35:31.987
151, 55676.27, -187500.02, -187500.02, -187500.02, -187500.02, -187500.02, -187500.02, -187500.02, 0.000, 0.000, 0.000, 14:35:31.987
152, 55275.08, -187500.02, -187500.02, -187500.02, -187500.02, -187500.02, -187500.02, -187500.02, 0.000, 0.000, 0.000, 14:35:31.987
153, 55327.74, -187500.02, -187500.02, -187500.02, -187500.02, -187500.02, -187500.02, -187500.02, 0.000, 0.000, 0.000, 14:35:31.987
154, 55878.67, -187500.02, -187500.02, -187500.02, -187500.02, -187500.02, -187500.02, -187500.02, 0.000, 0.000, 0.000, 14:35:31.987
155, 55739.91, -187500.02, -187500.02, -187500.02, -187500.02, -187500.02, -187500.02, -187500.02, 0.000, 0.000, 0.000, 14:35:31.988
156, 55288.91, -187500.02, -187500.02, -187500.02, -187500.02, -187500.02, -187500.02, -187500.02, 0.000, 0.000, 0.000, 14:35:31.988
157, 55267.03, -187500.02, -187500.02, -187500.02, -187500.02, -187500.02, -187500.02, -187500.02, 0.000, 0.000, 0.000, 14:35:31.988
158, 55847.08, -187500.02, -187500.02, -187500.02, -187500.02, -187500.02, -187500.02, -187500.02, 0.000, 0.000, 0.000, 14:35:31.988
159, 55798.85, -187500.02, -187500.02, -187500.02, -187500.02, -187500.02, -187500.02, -187500.02, 0.000, 0.000, 0.000, 14:35:31.988
160, 55412.90, -187500.02, -187500.02, -187500.02, -187500.02, -187500.02, -187500.02, -187500.02, -0.954, 0.162, -0.318, 14:35:31.988
161, 55212.41, -187500.02, -187500.02, -187500.02, -187500.02, -187500.02, -187500.02, -187500.02, 0.000, 0.000, 0.000, 14:35:31.988
162, 55761.70, -187500.02, -187500.02, -187500.02, -187500.02, -187500.02, -187500.02, -187500.02, 0.000, 0.000, 0.000, 14:35:31.989
163, 55898.56, -187500.02, -187500.02, -187500.02, -187500.02, -187500.02, -187500.02, -187500.02, 0.000, 0.000, 0.000, 14:35:31.989
164, 55494.55, -187500.02, -187500.02, -187500.02, -187500.02, -187500.02, -187500.02, -187500.02, 0.000, 0.000, 0.000, 14:35:31.989
165, 55144.99, -187500.02, -187500.02, -187500.02, -187500.02, -187500.02, -187500.02, -187500.02, 0.000, 0.000, 0.000, 14:35:31.989
166, 55644.58, -187500.02, -187500.02, -187500.02, -187500.02, -187500.02, -187500.02, -187500.02, 0.000, 0.000, 0.000, 14:35:31.989
167, 55911.21, -187500.02, -187500.02, -187500.02, -187500.02, -187500.02, -187500.02, -187500.02, 0.000, 0.000, 0.000, 14:35:31.989
168, 55551.10, -187500.02, -187500.02, -187500.02, -187500.02, -187500.02, -187500.02, -187500.02, 0.000, 0.000, 0.000, 14:35:31.989
169, 55194.90, -187500.02, -187500.02, -187500.02, -187500.02, -187500.02, -187500.02, -187500.02, 0.000, 0.000, 0.000, 14:35:31.989
170, 55533.42, -187500.02, -187500.02, -187500.02, -187500.02, -187500.02, -187500.02, -187500.02, -0.952, 0.166, -0.318, 14:35:31.989
171, 55902.63, -187500.02, -187500.02, -187500.02, -187500.02, -187500.02, -187500.02, -187500.02, 0.000, 0.000, 0.000, 14:35:31.989
172, 55642.59, -187500.02, -187500.02, -187500.02, -187500.02, -187500.02, -187500.02, -187500.02, 0.000, 0.000, 0.000, 14:35:31.989
173, 55217.75, -187500.02, -187500.02, -187500.02, -187500.02, -187500.02, -187500.02, -187500.02, 0.000, 0.000, 0.000, 14:35:31.989
174, 55428.84, -187500.02, -187500.02, -187500.02, -187500.02, -187500.02, -187500.02, -187500.02, 0.000, 0.000, 0.000, 14:35:31.989
175, 55922.79, -187500.02, -187500.02, -187500.02, -187500.02, -187500.02, -187500.02, -187500.02, 0.000, 0.000, 0.000, 14:35:31.990
176, 55715.05, -187500.02, -187500.02, -187500.02, -187500.02, -187500.02, -187500.02, -187500.02, 0.000, 0.000, 0.000, 14:35:31.990
177, 55277.70, -187500.02, -187500.02, -187500.02, -187500.02, -187500.02, -187500.02, -187500.02, 0.000, 0.000, 0.000, 14:35:31.990
178, 55303.42, -187500.02, -187500.02, -187500.02, -187500.02, -187500.02, -187500.02, -187500.02, 0.000, 0.000, 0.000, 14:35:31.990
179, 55815.41, -187500.02, -187500.02, -187500.02, -187500.02, -187500.02, -187500.02, -187500.02, 0.000, 0.000, 0.000, 14:35:31.990
180, 55748.18, -187500.02, -187500.02, -187500.02, -187500.02, -187500.02, -187500.02, -187500.02, -0.948, 0.162, -0.314, 14:35:31.990
181, 55356.33, -187500.02, -187500.02, -187500.02, -187500.02, -187500.02, -187500.02, -187500.02, 0.000, 0.000, 0.000, 14:35:31.990
182, 55232.59, -187500.02, -187500.02, -187500.02, -187500.02, -187500.02, -187500.02, -187500.02, 0.000, 0.000, 0.000, 14:35:31.990
183, 55791.50, -187500.02, -187500.02, -187500.02, -187500.02, -187500.02, -187500.02, -187500.02, 0.000, 0.000, 0.000, 14:35:31.990
184, 55843.86, -187500.02, -187500.02, -187500.02, -187500.02, -187500.02, -187500.02, -187500.02, 0.000, 0.000, 0.000, 14:35:31.990
185, 55443.19, -187500.02, -187500.02, -187500.02, -187500.02, -187500.02, -187500.02, -187500.02, 0.000, 0.000, 0.000, 14:35:31.990
186, 55204.70, -187500.02, -187500.02, -187500.02, -187500.02, -187500.02, -187500.02, -187500.02, 0.000, 0.000, 0.000, 14:35:31.990
187, 55701.86, -187500.02, -187500.02, -187500.02, -187500.02, -187500.02, -187500.02, -187500.02, 0.000, 0.000, 0.000, 14:35:31.990
188, 55870.84, -187500.02, -187500.02, -187500.02, -187500.02, -187500.02, -187500.02, -187500.02, 0.000, 0.000, 0.000, 14:35:31.991
189, 55512.10, -187500.02, -187500.02, -187500.02, -187500.02, -187500.02, -187500.02, -187500.02, 0.000, 0.000, 0.000, 14:35:31.991
190, 55178.48, -187500.02, -187500.02, -187500.02, -187500.02, -187500.02, -187500.02, -187500.02, -0.952, 0.168, -0.314, 14:35:31.991
191, 55571.93, -187500.02, -187500.02, -187500.02, -187500.02, -187500.02, -187500.02, -187500.02, 0.000, 0.000, 0.000, 14:35:31.991
192, 55870.20, -187500.02, -187500.02, -187500.02, -187500.02, -187500.02, -187500.02, -187500.02, 0.000, 0.000, 0.000, 14:35:31.991
193, 55603.67, -187500.02, -187500.02, -187500.02, -187500.02, -187500.02, -187500.02, -187500.02, 0.000, 0.000, 0.000, 14:35:31.991
194, 55228.43, -187500.02, -187500.02, -187500.02, -187500.02, -187500.02, -187500.02, -187500.02, 0.000, 0.000, 0.000, 14:35:31.991
195, 55538.45, -187500.02, -187500.02, -187500.02, -187500.02, -187500.02, -187500.02, -187500.02, 0.000, 0.000, 0.000, 14:35:31.991
196, 55919.08, -187500.02, -187500.02, -187500.02, -187500.02, -187500.02, -187500.02, -187500.02, 0.000, 0.000, 0.000, 14:35:31.991
197, 55681.52, -187500.02, -187500.02, -187500.02, -187500.02, -187500.02, -187500.02, -187500.02, 0.000, 0.000, 0.000, 14:35:31.991
198, 55276.20, -187500.02, -187500.02, -187500.02, -187500.02, -187500.02, -187500.02, -187500.02, 0.000, 0.000, 0.000, 14:35:31.991
199, 55409.10, -187500.02, -187500.02, -187500.02, -187500.02, -187500.02, -187500.02, -187500.02, -0.954, 0.170, -0.308, 14:35:31.991
200, 55903.81, -187500.02, -187500.02, -187500.02, -187500.02, -187500.02, -187500.02, -187500.02, 0.000, 0.000, 0.000, 14:35:31.992
201, 55715.21, -187500.02, -187500.02, -187500.02, -187500.02, -187500.02, -187500.02, -187500.02, 0.000, 0.000, 0.000, 14:35:31.992
202, 55302.86, -187500.02, -187500.02, -187500.02, -187500.02, -187500.02, -187500.02, -187500.02, 0.000, 0.000, 0.000, 14:35:31.992
203, 55296.20, -187500.02, -187500.02, -187500.02, -187500.02, -187500.02, -187500.02, -187500.02, 0.000, 0.000, 0.000, 14:35:31.992
204, 55842.46, -187500.02, -187500.02, -187500.02, -187500.02, -187500.02, -187500.02, -187500.02, 0.000, 0.000, 0.000, 14:35:31.992
205, 55792.88, -187500.02, -187500.02, -187500.02, -187500.02, -187500.02, -187500.02, -187500.02, 0.000, 0.000, 0.000, 14:35:31.992
206, 55390.77, -187500.02, -187500.02, -187500.02, -187500.02, -187500.02, -187500.02, -187500.02, 0.000, 0.000, 0.000, 14:35:31.992
207, 55243.81, -187500.02, -187500.02, -187500.02, -187500.02, -187500.02, -187500.02, -187500.02, 0.000, 0.000, 0.000, 14:35:31.992
208, 55772.36, -187500.02, -187500.02, -187500.02, -187500.02, -187500.02, -187500.02, -187500.02, 0.000, 0.000, 0.000, 14:35:31.992
209, 55797.26, -187500.02, -187500.02, -187500.02, -187500.02, -187500.02, -187500.02, -187500.02, -0.950, 0.172, -0.304, 14:35:32.463
210, 55428.57, -187500.02, -187500.02, -187500.02, -187500.02, -187500.02, -187500.02, -187500.02, 0.000, 0.000, 0.000, 14:35:32.463
211, 55188.64, -187500.02, -187500.02, -187500.02, -187500.02, -187500.02, -187500.02, -187500.02, 0.000, 0.000, 0.000, 14:35:32.463
212, 55662.35, -187500.02, -187500.02, -187500.02, -187500.02, -187500.02, -187500.02, -187500.02, 0.000, 0.000, 0.000, 14:35:32.464
213, 55883.34, -187500.02, -187500.02, -187500.02, -187500.02, -187500.02, -187500.02, -187500.02, 0.000, 0.000, 0.000, 14:35:32.464
214, 55576.54, -187500.02, -187500.02, -187500.02, -187500.02, -187500.02, -187500.02, -187500.02, 0.000, 0.000, 0.000, 14:35:32.464
215, 55241.15, -187500.02, -187500.02, -187500.02, -187500.02, -187500.02, -187500.02, -187500.02, 0.000, 0.000, 0.000, 14:35:32.464
216, 55603.61, -187500.02, -187500.02, -187500.02, -187500.02, -187500.02, -187500.02, -187500.02, 0.000, 0.000, 0.000, 14:35:32.465
217, 55894.58, -187500.02, -187500.02, -187500.02, -187500.02, -187500.02, -187500.02, -187500.02, 0.000, 0.000, 0.000, 14:35:32.465
218, 55581.66, -187500.02, -187500.02, -187500.02, -187500.02, -187500.02, -187500.02, -187500.02, 0.000, 0.000, 0.000, 14:35:32.465
219, 55244.21, -187500.02, -187500.02, -187500.02, -187500.02, -187500.02, -187500.02, -187500.02, -0.954, 0.166, -0.308, 14:35:32.465
220, 55510.73, -187500.02, -187500.02, -187500.02, -187500.02, -187500.02, -187500.02, -187500.02, 0.000, 0.000, 0.000, 14:35:32.465
221, 55898.96, -187500.02, -187500.02, -187500.02, -187500.02, -187500.02, -187500.02, -187500.02, 0.000, 0.000, 0.000, 14:35:32.466
222, 55660.29, -187500.02, -187500.02, -187500.02, -187500.02, -187500.02, -187500.02, -187500.02, 0.000, 0.000, 0.000, 14:35:32.466
223, 55257.98, -187500.02, -187500.02, -187500.02, -187500.02, -187500.02, -187500.02, -187500.02, 0.000, 0.000, 0.000, 14:35:32.466
224, 55378.73, -187500.02, -187500.02, -187500.02, -187500.02, -187500.02, -187500.02, -187500.02, 0.000, 0.000, 0.000, 14:35:32.466
225, 55896.57, -187500.02, -187500.02, -187500.02, -187500.02, -187500.02, -187500.02, -187500.02, 0.000, 0.000, 0.000, 14:35:32.467
226, 55709.11, -187500.02, -187500.02, -187500.02, -187500.02, -187500.02, -187500.02, -187500.02, 0.000, 0.000, 0.000, 14:35:32.467
227, 55331.99, -187500.02, -187500.02, -187500.02, -187500.02, -187500.02, -187500.02, -187500.02, 0.000, 0.000, 0.000, 14:35:32.467
228, 55323.54, -187500.02, -187500.02, -187500.02, -187500.02, -187500.02, -187500.02, -187500.02, 0.000, 0.000, 0.000, 14:35:32.467
229, 55853.86, -187500.02, -187500.02, -187500.02, -187500.02, -187500.02, -187500.02, -187500.02, -0.954, 0.168, -0.314, 14:35:32.468
230, 55804.28, -187500.02, -187500.02, -187500.02, -187500.02, -187500.02, -187500.02, -187500.02, 0.000, 0.000, 0.000, 14:35:32.468
231, 55393.48, -187500.02, -187500.02, -187500.02, -187500.02, -187500.02, -187500.02, -187500.02, 0.000, 0.000, 0.000, 14:35:32.468
232, 55247.05, -187500.02, -187500.02, -187500.02, -187500.02, -187500.02, -187500.02, -187500.02, 0.000, 0.000, 0.000, 14:35:32.468
233, 55776.79, -187500.02, -187500.02, -187500.02, -187500.02, -187500.02, -187500.02, -187500.02, 0.000, 0.000, 0.000, 14:35:32.469
234, 55847.69, -187500.02, -187500.02, -187500.02, -187500.02, -187500.02, -187500.02, -187500.02, 0.000, 0.000, 0.000, 14:35:32.469
235, 55463.17, -187500.02, -187500.02, -187500.02, -187500.02, -187500.02, -187500.02, -187500.02, 0.000, 0.000, 0.000, 14:35:32.469
236, 55183.10, -187500.02, -187500.02, -187500.02, -187500.02, -187500.02, -187500.02, -187500.02, 0.000, 0.000, 0.000, 14:35:32.469
237, 55691.02, -187500.02, -187500.02, -187500.02, -187500.02, -187500.02, -187500.02, -187500.02, 0.000, 0.000, 0.000, 14:35:32.470
238, 55884.66, -187500.02, -187500.02, -187500.02, -187500.02, -187500.02, -187500.02, -187500.02, 0.000, 0.000, 0.000, 14:35:32.470
239, 55574.37, -187500.02, -187500.02, -187500.02, -187500.02, -187500.02, -187500.02, -187500.02, -0.950, 0.170, -0.312, 14:35:32.470
240, 55239.90, -187500.02, -187500.02, -187500.02, -187500.02, -187500.02, -187500.02, -187500.02, 0.000, 0.000, 0.000, 14:35:32.470
241, 55595.56, -187500.02, -187500.02, -187500.02, -187500.02, -187500.02, -187500.02, -187500.02, 0.000, 0.000, 0.000, 14:35:32.471
242, 55939.42, -187500.02, -187500.02, -187500.02, -187500.02, -187500.02, -187500.02, -187500.02, 0.000, 0.000, 0.000, 14:35:32.471
243, 55629.38, -187500.02, -187500.02, -187500.02, -187500.02, -187500.02, -187500.02, -187500.02, 0.000, 0.000, 0.000, 14:35:32.471
244, 55267.55, -187500.02, -187500.02, -187500.02, -187500.02, -187500.02, -187500.02, -187500.02, 0.000, 0.000, 0.000, 14:35:32.471
245, 55504.72, -187500.02, -187500.02, -187500.02, -187500.02, -187500.02, -187500.02, -187500.02, 0.000, 0.000, 0.000, 14:35:32.471
246, 55933.76, -187500.02, -187500.02, -187500.02, -187500.02, -187500.02, -187500.02, -187500.02, 0.000, 0.000, 0.000, 14:35:32.472
247, 55688.77, -187500.02, -187500.02, -187500.02, -187500.02, -187500.02, -187500.02, -187500.02, 0.000, 0.000, 0.000, 14:35:32.472
248, 55270.30, -187500.02, -187500.02, -187500.02, -187500.02, -187500.02, -187500.02, -187500.02, 0.000, 0.000, 0.000, 14:35:32.472
249, 55326.73, -187500.02, -187500.02, -187500.02, -187500.02, -187500.02, -187500.02, -187500.02, -0.948, 0.168, -0.312, 14:35:32.472
250, 55898.45, -187500.02, -187500.02, -187500.02, -187500.02, -187500.02, -187500.02, -187500.02, 0.000, 0.000, 0.000, 14:35:32.473
251, 55787.92, -187500.02, -187500.02, -187500.02, -187500.02, -187500.02, -187500.02, -187500.02, 0.000, 0.000, 0.000, 14:35:32.473
252, 55386.10, -187500.02, -187500.02, -187500.02, -187500.02, -187500.02, -187500.02, -187500.02, 0.000, 0.000, 0.000, 14:35:32.473
253, 55311.87, -187500.02, -187500.02, -187500.02, -187500.02, -187500.02, -187500.02, -187500.02, 0.000, 0.000, 0.000, 14:35:32.473
254, 55856.80, -187500.02, -187500.02, -187500.02, -187500.02, -187500.02, -187500.02, -187500.02, 0.000, 0.000, 0.000, 14:35:32.474
255, 55850.44, -187500.02, -187500.02, -187500.02, -187500.02, -187500.02, -187500.02, -187500.02, 0.000, 0.000, 0.000, 14:35:32.474
0, 55439.97, -187500.02, -187500.02, -187500.02, -187500.02, -187500.02, -187500.02, -187500.02, 0.000, 0.000, 0.000, 14:35:32.474
1, 55222.96, -187500.02, -187500.02, -187500.02, -187500.02, -187500.02, -187500.02, -187500.02, 0.000, 0.000, 0.000, 14:35:32.474
2, 55770.66, -187500.02, -187500.02, -187500.02, -187500.02, -187500.02, -187500.02, -187500.02, 0.000, 0.000, 0.000, 14:35:32.475
3, 55884.72, -187500.02, -187500.02, -187500.02, -187500.02, -187500.02, -187500.02, -187500.02, -0.954, 0.168, -0.316, 14:35:32.475
4, 55506.93, -187500.02, -187500.02, -187500.02, -187500.02, -187500.02, -187500.02, -187500.02, 0.000, 0.000, 0.000, 14:35:32.475
5, 55203.35, -187500.02, -187500.02, -187500.02, -187500.02, -187500.02, -187500.02, -187500.02, 0.000, 0.000, 0.000, 14:35:32.475
6, 55664.18, -187500.02, -187500.02, -187500.02, -187500.02, -187500.02, -187500.02, -187500.02, 0.000, 0.000, 0.000, 14:35:32.475
7, 55914.52, -187500.02, -187500.02, -187500.02, -187500.02, -187500.02, -187500.02, -187500.02, 0.000, 0.000, 0.000, 14:35:32.476
8, 55591.80, -187500.02, -187500.02, -187500.02, -187500.02, -187500.02, -187500.02, -187500.02, 0.000, 0.000, 0.000, 14:35:32.476
9, 55227.45, -187500.02, -187500.02, -187500.02, -187500.02, -187500.02, -187500.02, -187500.02, 0.000, 0.000, 0.000, 14:35:32.476
10, 55553.07, -187500.02, -187500.02, -187500.02, -187500.02, -187500.02, -187500.02, -187500.02, 0.000, 0.000, 0.000, 14:35:32.476
11, 55969.26, -187500.02, -187500.02, -187500.02, -187500.02, -187500.02, -187500.02, -187500.02, 0.000, 0.000, 0.000, 14:35:32.477
12, 55669.95, -187500.02, -187500.02, -187500.02, -187500.02, -187500.02, -187500.02, -187500.02, 0.000, 0.000, 0.000, 14:35:32.477
13, 55280.73, -187500.02, -187500.02, -187500.02, -187500.02, -187500.02, -187500.02, -187500.02, -0.964, 0.166, -0.312, 14:35:32.477
14, 55492.07, -187500.02, -187500.02, -187500.02, -187500.02, -187500.02, -187500.02, -187500.02, 0.000, 0.000, 0.000, 14:35:32.477
15, 55934.52, -187500.02, -187500.02, -187500.02, -187500.02, -187500.02, -187500.02, -187500.02, 0.000, 0.000, 0.000, 14:35:32.478
16, 55703.77, -187500.02, -187500.02, -187500.02, -187500.02, -187500.02, -187500.02, -187500.02, 0.000, 0.000, 0.000, 14:35:32.478
17, 55284.64, -187500.02, -187500.02, -187500.02, -187500.02, -187500.02, -187500.02, -187500.02, 0.000, 0.000, 0.000, 14:35:32.478
18, 55371.30, -187500.02, -187500.02, -187500.02, -187500.02, -187500.02, -187500.02, -187500.02, 0.000, 0.000, 0.000, 14:35:32.478
19, 55899.88, -187500.02, -187500.02, -187500.02, -187500.02, -187500.02, -187500.02, -187500.02, 0.000, 0.000, 0.000, 14:35:32.479
20, 55780.00, -187500.02, -187500.02, -187500.02, -187500.02, -187500.02, -187500.02, -187500.02, 0.000, 0.000, 0.000, 14:35:32.479
21, 55347.01, -187500.02, -187500.02, -187500.02, -187500.02, -187500.02, -187500.02, -187500.02, 0.000, 0.000, 0.000, 14:35:32.479
22, 55280.31, -187500.02, -187500.02, -187500.02, -187500.02, -187500.02, -187500.02, -187500.02, 0.000, 0.000, 0.000, 14:35:32.479
23, 55836.20, -187500.02, -187500.02, -187500.02, -187500.02, -187500.02, -187500.02, -187500.02, -0.958, 0.166, -0.310, 14:35:32.480
24, 55893.46, -187500.02, -187500.02, -187500.02, -187500.02, -187500.02, -187500.02, -187500.02, 0.000, 0.000, 0.000, 14:35:32.480
25, 55510.31, -187500.02, -187500.02, -187500.02, -187500.02, -187500.02, -187500.02, -187500.02, 0.000, 0.000, 0.000, 14:35:32.481
26, 55248.95, -187500.02, -187500.02, -187500.02, -187500.02, -187500.02, -187500.02, -187500.02, 0.000, 0.000, 0.000, 14:35:32.481
27, 55750.97, -187500.02, -187500.02, -187500.02, -187500.02, -187500.02, -187500.02, -187500.02, 0.000, 0.000, 0.000, 14:35:32.481
28, 55875.83, -187500.02, -187500.02, -187500.02, -187500.02, -187500.02, -187500.02, -187500.02, 0.000, 0.000, 0.000, 14:35:32.481
29, 55547.91, -187500.02, -187500.02, -187500.02, -187500.02, -187500.02, -187500.02, -187500.02, 0.000, 0.000, 0.000, 14:35:32.482
30, 55224.70, -187500.02, -187500.02, -187500.02, -187500.02, -187500.02, -187500.02, -187500.02, 0.000, 0.000, 0.000, 14:35:32.482
31, 55628.21, -187500.02, -187500.02, -187500.02, -187500.02, -187500.02, -187500.02, -187500.02, 0.000, 0.000, 0.000, 14:35:32.482
32, 55928.76, -187500.02, -187500.02, -187500.02, -187500.02, -187500.02, -187500.02, -187500.02, 0.000, 0.000, 0.000, 14:35:32.482
33, 55632.66, -187500.02, -187500.02, -187500.02, -187500.02, -187500.02, -187500.02, -187500.02, -0.952, 0.166, -0.312, 14:35:32.483
34, 55234.42, -187500.02, -187500.02, -187500.02, -187500.02, -187500.02, -187500.02, -187500.02, 0.000, 0.000, 0.000, 14:35:32.483
35, 55522.38, -187500.02, -187500.02, -187500.02, -187500.02, -187500.02, -187500.02, -187500.02, 0.000, 0.000, 0.000, 14:35:32.483
36, 55926.90, -187500.02, -187500.02, -187500.02, -187500.02, -187500.02, -187500.02, -187500.02, 0.000, 0.000, 0.000, 14:35:32.484
37, 55731.73, -187500.02, -187500.02, -187500.02, -187500.02, -187500.02, -187500.02, -187500.02, 0.000, 0.000, 0.000, 14:35:32.484
38, 55343.63, -187500.02, -187500.02, -187500.02, -187500.02, -187500.02, -187500.02, -187500.02, 0.000, 0.000, 0.000, 14:35:32.484
39, 55456.87, -187500.02, -187500.02, -187500.02, -187500.02, -187500.02, -187500.02, -187500.02, 0.000, 0.000, 0.000, 14:35:32.484
40, 55919.32, -187500.02, -187500.02, -187500.02, -187500.02, -187500.02, -187500.02, -187500.02, 0.000, 0.000, 0.000, 14:35:32.485
41, 55739.68, -187500.02, -187500.02, -187500.02, -187500.02, -187500.02, -187500.02, -187500.02, 0.000, 0.000, 0.000, 14:35:32.485
42, 55360.89, -187500.02, -187500.02, -187500.02, -187500.02, -187500.02, -187500.02, -187500.02, 0.000, 0.000, 0.000, 14:35:32.485
43, 55356.57, -187500.02, -187500.02, -187500.02, -187500.02, -187500.02, -187500.02, -187500.02, -0.950, 0.168, -0.318, 14:35:32.486
44, 55886.82, -187500.02, -187500.02, -187500.02, -187500.02, -187500.02, -187500.02, -187500.02, 0.000, 0.000, 0.000, 14:35:32.486
45, 55810.45, -187500.02, -187500.02, -187500.02, -187500.02, -187500.02, -187500.02, -187500.02, 0.000, 0.000, 0.000, 14:35:32.486
46, 55406.98, -187500.02, -187500.02, -187500.02, -187500.02, -187500.02, -187500.02, -187500.02, 0.000, 0.000, 0.000, 14:35:32.487
47, 55275.13, -187500.02, -187500.02, -187500.02, -187500.02, -187500.02, -187500.02, -187500.02, 0.000, 0.000, 0.000, 14:35:32.487
48, 55810.49, -187500.02, -187500.02, -187500.02, -187500.02, -187500.02, -187500.02, -187500.02, 0.000, 0.000, 0.000, 14:35:32.487
49, 55857.28, -187500.02, -187500.02, -187500.02, -187500.02, -187500.02, -187500.02, -187500.02, 0.000, 0.000, 0.000, 14:35:32.487
50, 55509.68, -187500.02, -187500.02, -187500.02, -187500.02, -187500.02, -187500.02, -187500.02, 0.000, 0.000, 0.000, 14:35:32.487
51, 55284.38, -187500.02, -187500.02, -187500.02, -187500.02, -187500.02, -187500.02, -187500.02, 0.000, 0.000, 0.000, 14:35:32.488
52, 55756.22, -187500.02, -187500.02, -187500.02, -187500.02, -187500.02, -187500.02, -187500.02, 0.000, 0.000, 0.000, 14:35:32.488
53, 55885.13, -187500.02, -187500.02, -187500.02, -187500.02, -187500.02, -187500.02, -187500.02, -0.946, 0.166, -0.310, 14:35:32.488
54, 55561.99, -187500.02, -187500.02, -187500.02, -187500.02, -187500.02, -187500.02, -187500.02, 0.000, 0.000, 0.000, 14:35:32.489
55, 55242.56, -187500.02, -187500.02, -187500.02, -187500.02, -187500.02, -187500.02, -187500.02, 0.000, 0.000, 0.000, 14:35:32.489
56, 55652.45, -187500.02, -187500.02, -187500.02, -187500.02, -187500.02, -187500.02, -187500.02, 0.000, 0.000, 0.000, 14:35:32.489
57, 55938.73, -187500.02, -187500.02, -187500.02, -187500.02, -187500.02, -187500.02, -187500.02, 0.000, 0.000, 0.000, 14:35:32.489
58, 55614.63, -187500.02, -187500.02, -187500.02, -187500.02, -187500.02, -187500.02, -187500.02, 0.000, 0.000, 0.000, 14:35:32.490
59, 55255.77, -187500.02, -187500.02, -187500.02, -187500.02, -187500.02, -187500.02, -187500.02, 0.000, 0.000, 0.000, 14:35:32.490
60, 55520.52, -187500.02, -187500.02, -187500.02, -187500.02, -187500.02, -187500.02, -187500.02, 0.000, 0.000, 0.000, 14:35:32.490
61, 55954.44, -187500.02, -187500.02, -187500.02, -187500.02, -187500.02, -187500.02, -187500.02, 0.000, 0.000, 0.000, 14:35:32.490
62, 55709.39, -187500.02, -187500.02, -187500.02, -187500.02, -187500.02, -187500.02, -187500.02, 0.000, 0.000, 0.000, 14:35:32.491
63, 55250.94, -187500.02, -187500.02, -187500.02, -187500.02, -187500.02, -187500.02, -187500.02, -0.944, 0.166, -0.308, 14:35:32.491
64, 55386.08, -187500.02, -187500.02, -187500.02, -187500.02, -187500.02, -187500.02, -187500.02, 0.000, 0.000, 0.000, 14:35:32.491
65, 55932.98, -187500.02, -187500.02, -187500.02, -187500.02, -187500.02, -187500.02, -187500.02, 0.000, 0.000, 0.000, 14:35:32.491
66, 55822.05, -187500.02, -187500.02, -187500.02, -187500.02, -187500.02, -187500.02, -187500.02, 0.000, 0.000, 0.000, 14:35:32.491
67, 55378.73, -187500.02, -187500.02, -187500.02, -187500.02, -187500.02, -187500.02, -187500.02, 0.000, 0.000, 0.000, 14:35:32.492
68, 55286.73, -187500.02, -187500.02, -187500.02, -187500.02, -187500.02, -187500.02, -187500.02, 0.000, 0.000, 0.000, 14:35:32.492
69, 55850.50, -187500.02, -187500.02, -187500.02, -187500.02, -187500.02, -187500.02, -187500.02, 0.000, 0.000, 0.000, 14:35:32.492
70, 55821.04, -187500.02, -187500.02, -187500.02, -187500.02, -187500.02, -187500.02, -187500.02, 0.000, 0.000, 0.000, 14:35:32.492
71, 55450.52, -187500.02, -187500.02, -187500.02, -187500.02, -187500.02, -187500.02, -187500.02, 0.000, 0.000, 0.000, 14:35:32.493
72, 55286.32, -187500.02, -187500.02, -187500.02, -187500.02, -187500.02, -187500.02, -187500.02, 0.000, 0.000, 0.000, 14:35:32.493
73, 55815.46, -187500.02, -187500.02, -187500.02, -187500.02, -187500.02, -187500.02, -187500.02, -0.952, 0.172, -0.310, 14:35:32.941
74, 55864.85, -187500.02, -187500.02, -187500.02, -187500.02, -187500.02, -187500.02, -187500.02, 0.000, 0.000, 0.000, 14:35:32.941
75, 55490.19, -187500.02, -187500.02, -187500.02, -187500.02, -187500.02, -187500.02, -187500.02, 0.000, 0.000, 0.000, 14:35:32.942
76, 55244.17, -187500.02, -187500.02, -187500.02, -187500.02, -187500.02, -187500.02, -187500.02, 0.000, 0.000, 0.000, 14:35:32.942
77, 55713.53, -187500.02, -187500.02, -187500.02, -187500.02, -187500.02, -187500.02, -187500.02, 0.000, 0.000, 0.000, 14:35:32.942
78, 55925.38, -187500.02, -187500.02, -187500.02, -187500.02, -187500.02, -187500.02, -187500.02, 0.000, 0.000, 0.000, 14:35:32.942
79, 55582.93, -187500.02, -187500.02, -187500.02, -187500.02, -187500.02, -187500.02, -187500.02, 0.000, 0.000, 0.000, 14:35:32.945
80, 55247.90, -187500.02, -187500.02, -187500.02, -187500.02, -187500.02, -187500.02, -187500.02, 0.000, 0.000, 0.000, 14:35:32.945
81, 55615.92, -187500.02, -187500.02, -187500.02, -187500.02, -187500.02, -187500.02, -187500.02, 0.000, 0.000, 0.000, 14:35:32.945
82, 55935.82, -187500.02, -187500.02, -187500.02, -187500.02, -187500.02, -187500.02, -187500.02, -0.954, 0.168, -0.310, 14:35:32.945
83, 55662.48, -187500.02, -187500.02, -187500.02, -187500.02, -187500.02, -187500.02, -187500.02, 0.000, 0.000, 0.000, 14:35:32.945
84, 55268.91, -187500.02, -187500.02, -187500.02, -187500.02, -187500.02, -187500.02, -187500.02, 0.000, 0.000, 0.000, 14:35:32.945
85, 55492.65, -187500.02, -187500.02, -187500.02, -187500.02, -187500.02, -187500.02, -187500.02, 0.000, 0.000, 0.000, 14:35:32.946
86, 55934.28, -187500.02, -187500.02, -187500.02, -187500.02, -187500.02, -187500.02, -187500.02, 0.000, 0.000, 0.000, 14:35:32.946
87, 55701.04, -187500.02, -187500.02, -187500.02, -187500.02, -187500.02, -187500.02, -187500.02, 0.000, 0.000, 0.000, 14:35:32.946
88, 55298.77, -187500.02, -187500.02, -187500.02, -187500.02, -187500.02, -187500.02, -187500.02, 0.000, 0.000, 0.000, 14:35:32.946
89, 55402.51, -187500.02, -187500.02, -187500.02, -187500.02, -187500.02, -187500.02, -187500.02, 0.000, 0.000, 0.000, 14:35:32.946
90, 55943.42, -187500.02, -187500.02, -187500.02, -187500.02, -187500.02, -187500.02, -187500.02, 0.000, 0.000, 0.000, 14:35:32.946
91, 55795.96, -187500.02, -187500.02, -187500.02, -187500.02, -187500.02, -187500.02, -187500.02, 0.000, 0.000, 0.000, 14:35:32.946
92, 55369.79, -187500.02, -187500.02, -187500.02, -187500.02, -187500.02, -187500.02, -187500.02, -0.954, 0.164, -0.304, 14:35:32.947
93, 55277.63, -187500.02, -187500.02, -187500.02, -187500.02, -187500.02, -187500.02, -187500.02, 0.000, 0.000, 0.000, 14:35:32.947
94, 55854.57, -187500.02, -187500.02, -187500.02, -187500.02, -187500.02, -187500.02, -187500.02, 0.000, 0.000, 0.000, 14:35:32.947
95, 55883.23, -187500.02, -187500.02, -187500.02, -187500.02, -187500.02, -187500.02, -187500.02, 0.000, 0.000, 0.000, 14:35:32.947
96, 55474.66, -187500.02, -187500.02, -187500.02, -187500.02, -187500.02, -187500.02, -187500.02, 0.000, 0.000, 0.000, 14:35:32.947
97, 55256.48, -187500.02, -187500.02, -187500.02, -187500.02, -187500.02, -187500.02, -187500.02, 0.000, 0.000, 0.000, 14:35:32.947
98, 55798.58, -187500.02, -187500.02, -187500.02, -187500.02, -187500.02, -187500.02, -187500.02, 0.000, 0.000, 0.000, 14:35:32.947
99, 55900.14, -187500.02, -187500.02, -187500.02, -187500.02, -187500.02, -187500.02, -187500.02, 0.000, 0.000, 0.000, 14:35:32.948
100, 55532.62, -187500.02, -187500.02, -187500.02, -187500.02, -187500.02, -187500.02, -187500.02, 0.000, 0.000, 0.000, 14:35:32.948
101, 55220.16, -187500.02, -187500.02, -187500.02, -187500.02, -187500.02, -187500.02, -187500.02, 0.000, 0.000, 0.000, 14:35:32.948
102, 55693.64, -187500.02, -187500.02, -187500.02, -187500.02, -187500.02, -187500.02, -187500.02, -0.952, 0.170, -0.310, 14:35:32.948
103, 55955.64, -187500.02, -187500.02, -187500.02, -187500.02, -187500.02, -187500.02, -187500.02, 0.000, 0.000, 0.000, 14:35:32.948
104, 55613.80, -187500.02, -187500.02, -187500.02, -187500.02, -187500.02, -187500.02, -187500.02, 0.000, 0.000, 0.000, 14:35:32.948
105, 55228.10, -187500.02, -187500.02, -187500.02, -187500.02, -187500.02, -187500.02, -187500.02, 0.000, 0.000, 0.000, 14:35:32.948
106, 55571.04, -187500.02, -187500.02, -187500.02, -187500.02, -187500.02, -187500.02, -187500.02, 0.000, 0.000, 0.000, 14:35:32.948
107, 55962.48, -187500.02, -187500.02, -187500.02, -187500.02, -187500.02, -187500.02, -187500.02, 0.000, 0.000, 0.000, 14:35:32.948
108, 55701.21, -187500.02, -187500.02, -187500.02, -187500.02, -187500.02, -187500.02, -187500.02, 0.000, 0.000, 0.000, 14:35:32.948
109, 55292.02, -187500.02, -187500.02, -187500.02, -187500.02, -187500.02, -187500.02, -187500.02, 0.000, 0.000, 0.000, 14:35:32.949
110, 55498.69, -187500.02, -187500.02, -187500.02, -187500.02, -187500.02, -187500.02, -187500.02, 0.000, 0.000, 0.000, 14:35:32.949
111, 55963.31, -187500.02, -187500.02, -187500.02, -187500.02, -187500.02, -187500.02, -187500.02, 0.000, 0.000, 0.000, 14:35:32.949
112, 55747.42, -187500.02, -187500.02, -187500.02, -187500.02, -187500.02, -187500.02, -187500.02, -0.956, 0.166, -0.302, 14:35:32.949
113, 55334.60, -187500.02, -187500.02, -187500.02, -187500.02, -187500.02, -187500.02, -187500.02, 0.000, 0.000, 0.000, 14:35:32.949
114, 55357.20, -187500.02, -187500.02, -187500.02, -187500.02, -187500.02, -187500.02, -187500.02, 0.000, 0.000, 0.000, 14:35:32.949
115, 55904.89, -187500.02, -187500.02, -187500.02, -187500.02, -187500.02, -187500.02, -187500.02, 0.000, 0.000, 0.000, 14:35:32.949
116, 55801.62, -187500.02, -187500.02, -187500.02, -187500.02, -187500.02, -187500.02, -187500.02, 0.000, 0.000, 0.000, 14:35:32.949
117, 55407.25, -187500.02, -187500.02, -187500.02, -187500.02, -187500.02, -187500.02, -187500.02, 0.000, 0.000, 0.000, 14:35:32.949
118, 55290.37, -187500.02, -187500.02, -187500.02, -187500.02, -187500.02, -187500.02, -187500.02, 0.000, 0.000, 0.000, 14:35:32.949
119, 55821.20, -187500.02, -187500.02, -187500.02, -187500.02, -187500.02, -187500.02, -187500.02, 0.000, 0.000, 0.000, 14:35:32.949
120, 55854.39, -187500.02, -187500.02, -187500.02, -187500.02, -187500.02, -187500.02, -187500.02, 0.000, 0.000, 0.000, 14:35:32.949
121, 55485.28, -187500.02, -187500.02, -187500.02, -187500.02, -187500.02, -187500.02, -187500.02, 0.000, 0.000, 0.000, 14:35:32.950
122, 55253.53, -187500.02, -187500.02, -187500.02, -187500.02, -187500.02, -187500.02, -187500.02, -0.950, 0.168, -0.300, 14:35:32.950
123, 55763.87, -187500.02, -187500.02, -187500.02, -187500.02, -187500.02, -187500.02, -187500.02, 0.000, 0.000, 0.000, 14:35:32.950
124, 55965.59, -187500.02, -187500.02, -187500.02, -187500.02, -187500.02, -187500.02, -187500.02, 0.000, 0.000, 0.000, 14:35:32.950
125, 55583.51, -187500.02, -187500.02, -187500.02, -187500.02, -187500.02, -187500.02, -187500.02, 0.000, 0.000, 0.000, 14:35:32.950
126, 55240.08, -187500.02, -187500.02, -187500.02, -187500.02, -187500.02, -187500.02, -187500.02, 0.000, 0.000, 0.000, 14:35:32.950
127, 55684.21, -187500.02, -187500.02, -187500.02, -187500.02, -187500.02, -187500.02, -187500.02, 0.000, 0.000, 0.000, 14:35:32.950
128, 55954.15, -187500.02, -187500.02, -187500.02, -187500.02, -187500.02, -187500.02, -187500.02, 0.000, 0.000, 0.000, 14:35:32.950
129, 55621.82, -187500.02, -187500.02, -187500.02, -187500.02, -187500.02, -187500.02, -187500.02, 0.000, 0.000, 0.000, 14:35:32.950
130, 55221.28, -187500.02, -187500.02, -187500.02, -187500.02, -187500.02, -187500.02, -187500.02, 0.000, 0.000, 0.000, 14:35:32.950
131, 55530.38, -187500.02, -187500.02, -187500.02, -187500.02, -187500.02, -187500.02, -187500.02, 0.000, 0.000, 0.000, 14:35:32.950
132, 55937.77, -187500.02, -187500.02, -187500.02, -187500.02, -187500.02, -187500.02, -187500.02, -0.954, 0.168, -0.308, 14:35:32.950
133, 55698.42, -187500.02, -187500.02, -187500.02, -187500.02, -187500.02, -187500.02, -187500.02, 0.000, 0.000, 0.000, 14:35:32.951
