%OpenBCI Raw EEG Data
%
%Sample Rate = 250.0 Hz
%First Column = SampleIndex
%Last Column = Timestamp 
%Other Columns = EEG data in microvolts followed by Accel Data (in G) interleaved with Aux Data
0, 61527.02, 0.00, 0.00, -187500.02, 0.00, 0.00, 0.00, 0.00, -0.144, 0.378, -0.890, 17:13:48.059
1, 61407.28, 0.00, 0.00, -187500.02, 0.00, 0.00, 0.00, 0.00, 0.000, 0.000, 0.000, 17:13:48.537
2, 61150.66, 0.00, 0.00, -187500.02, 0.00, 0.00, 0.00, 0.00, 0.000, 0.000, 0.000, 17:13:48.539
3, 61237.23, 0.00, 0.00, -187500.02, 0.00, 0.00, 0.00, 0.00, 0.000, 0.000, 0.000, 17:13:48.539
4, 61511.02, 0.00, 0.00, -187500.02, 0.00, 0.00, 0.00, 0.00, 0.000, 0.000, 0.000, 17:13:48.539
5, 61450.96, 0.00, 0.00, -187500.02, 0.00, 0.00, 0.00, 0.00, 0.000, 0.000, 0.000, 17:13:48.539
6, 61181.62, 0.00, 0.00, -187500.02, 0.00, 0.00, 0.00, 0.00, 0.000, 0.000, 0.000, 17:13:48.540
7, 61205.91, 0.00, 0.00, -187500.02, 0.00, 0.00, 0.00, 0.00, -0.248, 0.378, -0.876, 17:13:48.540
8, 61478.00, 0.00, 0.00, -187500.02, 0.00, 0.00, 0.00, 0.00, 0.000, 0.000, 0.000, 17:13:48.540
9, 61479.25, 0.00, 0.00, -187500.02, 0.00, 0.00, 0.00, 0.00, 0.000, 0.000, 0.000, 17:13:48.540
10, 61226.16, 0.00, 0.00, -187500.02, 0.00, 0.00, 0.00, 0.00, 0.000, 0.000, 0.000, 17:13:48.541
11, 61188.52, 0.00, 0.00, -187500.02, 0.00, 0.00, 0.00, 0.00, 0.000, 0.000, 0.000, 17:13:48.541
12, 61442.89, 0.00, 0.00, -187500.02, 0.00, 0.00, 0.00, 0.00, 0.000, 0.000, 0.000, 17:13:48.541
13, 61518.23, 0.00, 0.00, -187500.02, 0.00, 0.00, 0.00, 0.00, 0.000, 0.000, 0.000, 17:13:48.541
14, 61270.46, 0.00, 0.00, -187500.02, 0.00, 0.00, 0.00, 0.00, 0.000, 0.000, 0.000, 17:13:48.542
15, 61161.75, 0.00, 0.00, -187500.02, 0.00, 0.00, 0.00, 0.00, 0.000, 0.000, 0.000, 17:13:48.542
16, 61396.53, 0.00, 0.00, -187500.02, 0.00, 0.00, 0.00, 0.00, 0.000, 0.000, 0.000, 17:13:48.542
17, 61540.72, 0.00, 0.00, -187500.02, 0.00, 0.00, 0.00, 0.00, -0.300, 0.378, -0.874, 17:13:48.542
18, 61338.86, 0.00, 0.00, -187500.02, 0.00, 0.00, 0.00, 0.00, 0.000, 0.000, 0.000, 17:13:48.543
19, 61171.85, 0.00, 0.00, -187500.02, 0.00, 0.00, 0.00, 0.00, 0.000, 0.000, 0.000, 17:13:48.543
20, 61354.15, 0.00, 0.00, -187500.02, 0.00, 0.00, 0.00, 0.00, 0.000, 0.000, 0.000, 17:13:48.543
21, 61540.23, 0.00, 0.00, -187500.02, 0.00, 0.00, 0.00, 0.00, 0.000, 0.000, 0.000, 17:13:48.543
22, 61372.81, 0.00, 0.00, -187500.02, 0.00, 0.00, 0.00, 0.00, 0.000, 0.000, 0.000, 17:13:48.543
23, 61160.96, 0.00, 0.00, -187500.02, 0.00, 0.00, 0.00, 0.00, 0.000, 0.000, 0.000, 17:13:48.544
24, 61299.63, 0.00, 0.00, -187500.02, 0.00, 0.00, 0.00, 0.00, 0.000, 0.000, 0.000, 17:13:48.544
25, 61547.61, 0.00, 0.00, -187500.02, 0.00, 0.00, 0.00, 0.00, 0.000, 0.000, 0.000, 17:13:48.544
26, 61443.00, 0.00, 0.00, -187500.02, 0.00, 0.00, 0.00, 0.00, -0.328, 0.376, -0.868, 17:13:48.544
27, 61184.52, 0.00, 0.00, -187500.02, 0.00, 0.00, 0.00, 0.00, 0.000, 0.000, 0.000, 17:13:48.545
28, 61260.18, 0.00, 0.00, -187500.02, 0.00, 0.00, 0.00, 0.00, 0.000, 0.000, 0.000, 17:13:48.545
29, 61514.95, 0.00, 0.00, -187500.02, 0.00, 0.00, 0.00, 0.00, 0.000, 0.000, 0.000, 17:13:48.545
30, 61474.85, 0.00, 0.00, -187500.02, 0.00, 0.00, 0.00, 0.00, 0.000, 0.000, 0.000, 17:13:48.545
31, 61209.20, 0.00, 0.00, -187500.02, 0.00, 0.00, 0.00, 0.00, 0.000, 0.000, 0.000, 17:13:48.546
32, 61203.23, 0.00, 0.00, -187500.02, 0.00, 0.00, 0.00, 0.00, 0.000, 0.000, 0.000, 17:13:48.546
33, 61464.59, 0.00, 0.00, -187500.02, 0.00, 0.00, 0.00, 0.00, 0.000, 0.000, 0.000, 17:13:48.546
34, 61496.42, 0.00, 0.00, -187500.02, 0.00, 0.00, 0.00, 0.00, 0.000, 0.000, 0.000, 17:13:48.547
35, 61239.26, 0.00, 0.00, -187500.02, 0.00, 0.00, 0.00, 0.00, 0.000, 0.000, 0.000, 17:13:48.547
36, 61161.99, 0.00, 0.00, -187500.02, 0.00, 0.00, 0.00, 0.00, -0.346, 0.380, -0.862, 17:13:48.547
37, 61417.79, 0.00, 0.00, -187500.02, 0.00, 0.00, 0.00, 0.00, 0.000, 0.000, 0.000, 17:13:48.547
38, 61528.09, 0.00, 0.00, -187500.02, 0.00, 0.00, 0.00, 0.00, 0.000, 0.000, 0.000, 17:13:48.547
39, 61298.74, 0.00, 0.00, -187500.02, 0.00, 0.00, 0.00, 0.00, 0.000, 0.000, 0.000, 17:13:48.547
40, 61158.53, 0.00, 0.00, -187500.02, 0.00, 0.00, 0.00, 0.00, 0.000, 0.000, 0.000, 17:13:48.547
41, 61372.28, 0.00, 0.00, -187500.02, 0.00, 0.00, 0.00, 0.00, 0.000, 0.000, 0.000, 17:13:48.547
42, 61536.77, 0.00, 0.00, -187500.02, 0.00, 0.00, 0.00, 0.00, 0.000, 0.000, 0.000, 17:13:48.547
43, 61350.30, 0.00, 0.00, -187500.02, 0.00, 0.00, 0.00, 0.00, 0.000, 0.000, 0.000, 17:13:48.547
44, 61149.72, 0.00, 0.00, -187500.02, 0.00, 0.00, 0.00, 0.00, 0.000, 0.000, 0.000, 17:13:48.548
45, 61328.69, 0.00, 0.00, -187500.02, 0.00, 0.00, 0.00, 0.00, 0.000, 0.000, 0.000, 17:13:48.548
46, 61556.77, 0.00, 0.00, -187500.02, 0.00, 0.00, 0.00, 0.00, -0.348, 0.372, -0.862, 17:13:48.548
47, 61413.94, 0.00, 0.00, -187500.02, 0.00, 0.00, 0.00, 0.00, 0.000, 0.000, 0.000, 17:13:48.548
48, 61187.88, 0.00, 0.00, -187500.02, 0.00, 0.00, 0.00, 0.00, 0.000, 0.000, 0.000, 17:13:48.548
49, 61293.91, 0.00, 0.00, -187500.02, 0.00, 0.00, 0.00, 0.00, 0.000, 0.000, 0.000, 17:13:48.548
50, 61556.64, 0.00, 0.00, -187500.02, 0.00, 0.00, 0.00, 0.00, 0.000, 0.000, 0.000, 17:13:48.548
51, 61485.00, 0.00, 0.00, -187500.02, 0.00, 0.00, 0.00, 0.00, 0.000, 0.000, 0.000, 17:13:48.548
52, 61230.61, 0.00, 0.00, -187500.02, 0.00, 0.00, 0.00, 0.00, 0.000, 0.000, 0.000, 17:13:48.548
53, 61291.52, 0.00, 0.00, -187500.02, 0.00, 0.00, 0.00, 0.00, 0.000, 0.000, 0.000, 17:13:48.548
54, 61567.83, 0.00, 0.00, -187500.02, 0.00, 0.00, 0.00, 0.00, 0.000, 0.000, 0.000, 17:13:48.549
55, 61555.72, 0.00, 0.00, -187500.02, 0.00, 0.00, 0.00, 0.00, 0.000, 0.000, 0.000, 17:13:48.549
56, 61295.12, 0.00, 0.00, -187500.02, 0.00, 0.00, 0.00, 0.00, -0.354, 0.372, -0.856, 17:13:48.549
57, 61273.77, 0.00, 0.00, -187500.02, 0.00, 0.00, 0.00, 0.00, 0.000, 0.000, 0.000, 17:13:48.549
58, 61546.38, 0.00, 0.00, -187500.02, 0.00, 0.00, 0.00, 0.00, 0.000, 0.000, 0.000, 17:13:48.549
59, 61608.31, 0.00, 0.00, -187500.02, 0.00, 0.00, 0.00, 0.00, 0.000, 0.000, 0.000, 17:13:48.549
60, 61348.63, 0.00, 0.00, -187500.02, 0.00, 0.00, 0.00, 0.00, 0.000, 0.000, 0.000, 17:13:48.549
61, 61268.50, 0.00, 0.00, -187500.02, 0.00, 0.00, 0.00, 0.00, 0.000, 0.000, 0.000, 17:13:48.549
62, 61528.25, 0.00, 0.00, -187500.02, 0.00, 0.00, 0.00, 0.00, 0.000, 0.000, 0.000, 17:13:48.549
63, 61662.22, 0.00, 0.00, -187500.02, 0.00, 0.00, 0.00, 0.00, 0.000, 0.000, 0.000, 17:13:48.550
64, 61445.08, 0.00, 0.00, -187500.02, 0.00, 0.00, 0.00, 0.00, 0.000, 0.000, 0.000, 17:13:48.550
65, 61284.48, 0.00, 0.00, -187500.02, 0.00, 0.00, 0.00, 0.00, 0.000, 0.000, 0.000, 17:13:48.550
66, 61486.88, 0.00, 0.00, -187500.02, 0.00, 0.00, 0.00, 0.00, -0.358, 0.372, -0.862, 17:13:48.550
67, 61680.78, 0.00, 0.00, -187500.02, 0.00, 0.00, 0.00, 0.00, 0.000, 0.000, 0.000, 17:13:48.550
68, 61498.21, 0.00, 0.00, -187500.02, 0.00, 0.00, 0.00, 0.00, 0.000, 0.000, 0.000, 17:13:48.550
69, 61296.93, 0.00, 0.00, -187500.02, 0.00, 0.00, 0.00, 0.00, 0.000, 0.000, 0.000, 17:13:48.550
70, 61449.39, 0.00, 0.00, -187500.02, 0.00, 0.00, 0.00, 0.00, 0.000, 0.000, 0.000, 17:13:48.550
71, 61698.70, 0.00, 0.00, -187500.02, 0.00, 0.00, 0.00, 0.00, 0.000, 0.000, 0.000, 17:13:48.550
72, 61614.10, 0.00, 0.00, -187500.02, 0.00, 0.00, 0.00, 0.00, 0.000, 0.000, 0.000, 17:13:48.550
73, 61355.36, 0.00, 0.00, -187500.02, 0.00, 0.00, 0.00, 0.00, 0.000, 0.000, 0.000, 17:13:48.551
74, 61440.90, 0.00, 0.00, -187500.02, 0.00, 0.00, 0.00, 0.00, 0.000, 0.000, 0.000, 17:13:48.551
75, 61706.75, 0.00, 0.00, -187500.02, 0.00, 0.00, 0.00, 0.00, 0.000, 0.000, 0.000, 17:13:48.551
76, 61649.02, 0.00, 0.00, -187500.02, 0.00, 0.00, 0.00, 0.00, -0.356, 0.372, -0.864, 17:13:48.551
77, 61381.51, 0.00, 0.00, -187500.02, 0.00, 0.00, 0.00, 0.00, 0.000, 0.000, 0.000, 17:13:48.551
78, 61422.14, 0.00, 0.00, -187500.02, 0.00, 0.00, 0.00, 0.00, 0.000, 0.000, 0.000, 17:13:48.551
79, 61692.20, 0.00, 0.00, -187500.02, 0.00, 0.00, 0.00, 0.00, 0.000, 0.000, 0.000, 17:13:48.551
80, 61717.84, 0.00, 0.00, -187500.02, 0.00, 0.00, 0.00, 0.00, 0.000, 0.000, 0.000, 17:13:48.551
81, 61441.73, 0.00, 0.00, -187500.02, 0.00, 0.00, 0.00, 0.00, 0.000, 0.000, 0.000, 17:13:48.551
82, 61388.04, 0.00, 0.00, -187500.02, 0.00, 0.00, 0.00, 0.00, 0.000, 0.000, 0.000, 17:13:48.552
83, 61655.23, 0.00, 0.00, -187500.02, 0.00, 0.00, 0.00, 0.00, 0.000, 0.000, 0.000, 17:13:48.552
84, 61736.90, 0.00, 0.00, -187500.02, 0.00, 0.00, 0.00, 0.00, 0.000, 0.000, 0.000, 17:13:48.552
85, 61489.25, 0.00, 0.00, -187500.02, 0.00, 0.00, 0.00, 0.00, 0.000, 0.000, 0.000, 17:13:48.565
86, 61363.05, 0.00, 0.00, -187500.02, 0.00, 0.00, 0.00, 0.00, -0.356, 0.374, -0.860, 17:13:48.565
87, 61599.44, 0.00, 0.00, -187500.02, 0.00, 0.00, 0.00, 0.00, 0.000, 0.000, 0.000, 17:13:48.565
88, 61747.21, 0.00, 0.00, -187500.02, 0.00, 0.00, 0.00, 0.00, 0.000, 0.000, 0.000, 17:13:48.565
89, 61544.14, 0.00, 0.00, -187500.02, 0.00, 0.00, 0.00, 0.00, 0.000, 0.000, 0.000, 17:13:48.565
90, 61368.59, 0.00, 0.00, -187500.02, 0.00, 0.00, 0.00, 0.00, 0.000, 0.000, 0.000, 17:13:48.565
91, 61555.74, 0.00, 0.00, -187500.02, 0.00, 0.00, 0.00, 0.00, 0.000, 0.000, 0.000, 17:13:48.565
92, 61761.78, 0.00, 0.00, -187500.02, 0.00, 0.00, 0.00, 0.00, 0.000, 0.000, 0.000, 17:13:48.565
93, 61573.64, 0.00, 0.00, -187500.02, 0.00, 0.00, 0.00, 0.00, 0.000, 0.000, 0.000, 17:13:48.566
94, 61341.84, 0.00, 0.00, -187500.02, 0.00, 0.00, 0.00, 0.00, 0.000, 0.000, 0.000, 17:13:48.566
95, 61484.42, 0.00, 0.00, -187500.02, 0.00, 0.00, 0.00, 0.00, 0.000, 0.000, 0.000, 17:13:48.566
96, 61723.51, 0.00, 0.00, -187500.02, 0.00, 0.00, 0.00, 0.00, -0.356, 0.370, -0.856, 17:13:48.566
97, 61621.61, 0.00, 0.00, -187500.02, 0.00, 0.00, 0.00, 0.00, 0.000, 0.000, 0.000, 17:13:48.566
98, 61369.17, 0.00, 0.00, -187500.02, 0.00, 0.00, 0.00, 0.00, 0.000, 0.000, 0.000, 17:13:48.566
99, 61440.43, 0.00, 0.00, -187500.02, 0.00, 0.00, 0.00, 0.00, 0.000, 0.000, 0.000, 17:13:48.567
100, 61702.57, 0.00, 0.00, -187500.02, 0.00, 0.00, 0.00, 0.00, 0.000, 0.000, 0.000, 17:13:48.567
101, 61657.55, 0.00, 0.00, -187500.02, 0.00, 0.00, 0.00, 0.00, 0.000, 0.000, 0.000, 17:13:48.567
102, 61378.60, 0.00, 0.00, -187500.02, 0.00, 0.00, 0.00, 0.00, 0.000, 0.000, 0.000, 17:13:48.567
103, 61358.06, 0.00, 0.00, -187500.02, 0.00, 0.00, 0.00, 0.00, 0.000, 0.000, 0.000, 17:13:48.567
104, 61615.96, 0.00, 0.00, -187500.02, 0.00, 0.00, 0.00, 0.00, 0.000, 0.000, 0.000, 17:13:48.567
105, 61674.32, 0.00, 0.00, -187500.02, 0.00, 0.00, 0.00, 0.00, 0.000, 0.000, 0.000, 17:13:48.568
106, 61396.77, 0.00, 0.00, -187500.02, 0.00, 0.00, 0.00, 0.00, -0.354, 0.374, -0.854, 17:13:48.568
107, 61321.29, 0.00, 0.00, -187500.02, 0.00, 0.00, 0.00, 0.00, 0.000, 0.000, 0.000, 17:13:48.568
108, 61591.21, 0.00, 0.00, -187500.02, 0.00, 0.00, 0.00, 0.00, 0.000, 0.000, 0.000, 17:13:48.568
109, 61692.82, 0.00, 0.00, -187500.02, 0.00, 0.00, 0.00, 0.00, 0.000, 0.000, 0.000, 17:13:48.568
110, 61437.81, 0.00, 0.00, -187500.02, 0.00, 0.00, 0.00, 0.00, 0.000, 0.000, 0.000, 17:13:48.568
111, 61306.16, 0.00, 0.00, -187500.02, 0.00, 0.00, 0.00, 0.00, 0.000, 0.000, 0.000, 17:13:48.568
112, 61532.59, 0.00, 0.00, -187500.02, 0.00, 0.00, 0.00, 0.00, 0.000, 0.000, 0.000, 17:13:48.568
113, 61703.46, 0.00, 0.00, -187500.02, 0.00, 0.00, 0.00, 0.00, 0.000, 0.000, 0.000, 17:13:48.568
114, 61499.37, 0.00, 0.00, -187500.02, 0.00, 0.00, 0.00, 0.00, 0.000, 0.000, 0.000, 17:13:48.569
115, 61295.05, 0.00, 0.00, -187500.02, 0.00, 0.00, 0.00, 0.00, 0.000, 0.000, 0.000, 17:13:48.569
116, 61472.75, 0.00, 0.00, -187500.02, 0.00, 0.00, 0.00, 0.00, -0.362, 0.380, -0.858, 17:13:48.569
117, 61704.18, 0.00, 0.00, -187500.02, 0.00, 0.00, 0.00, 0.00, 0.000, 0.000, 0.000, 17:13:48.569
118, 61549.57, 0.00, 0.00, -187500.02, 0.00, 0.00, 0.00, 0.00, 0.000, 0.000, 0.000, 17:13:48.569
119, 61302.99, 0.00, 0.00, -187500.02, 0.00, 0.00, 0.00, 0.00, 0.000, 0.000, 0.000, 17:13:48.569
120, 61427.31, 0.00, 0.00, -187500.02, 0.00, 0.00, 0.00, 0.00, 0.000, 0.000, 0.000, 17:13:48.569
121, 61689.20, 0.00, 0.00, -187500.02, 0.00, 0.00, 0.00, 0.00, 0.000, 0.000, 0.000, 17:13:49.017
122, 61600.89, 0.00, 0.00, -187500.02, 0.00, 0.00, 0.00, 0.00, 0.000, 0.000, 0.000, 17:13:49.018
123, 61329.70, 0.00, 0.00, -187500.02, 0.00, 0.00, 0.00, 0.00, 0.000, 0.000, 0.000, 17:13:49.019
124, 61383.77, 0.00, 0.00, -187500.02, 0.00, 0.00, 0.00, 0.00, 0.000, 0.000, 0.000, 17:13:49.019
125, 61670.29, 0.00, 0.00, -187500.02, 0.00, 0.00, 0.00, 0.00, 0.000, 0.000, 0.000, 17:13:49.021
126, 61664.73, 0.00, 0.00, -187500.02, 0.00, 0.00, 0.00, 0.00, -0.354, 0.374, -0.856, 17:13:49.021
127, 61387.45, 0.00, 0.00, -187500.02, 0.00, 0.00, 0.00, 0.00, 0.000, 0.000, 0.000, 17:13:49.021
128, 61356.77, 0.00, 0.00, -187500.02, 0.00, 0.00, 0.00, 0.00, 0.000, 0.000, 0.000, 17:13:49.021
129, 61648.48, 0.00, 0.00, -187500.02, 0.00, 0.00, 0.00, 0.00, 0.000, 0.000, 0.000, 17:13:49.021
130, 61715.33, 0.00, 0.00, -187500.02, 0.00, 0.00, 0.00, 0.00, 0.000, 0.000, 0.000, 17:13:49.022
131, 61442.98, 0.00, 0.00, -187500.02, 0.00, 0.00, 0.00, 0.00, 0.000, 0.000, 0.000, 17:13:49.022
132, 61338.79, 0.00, 0.00, -187500.02, 0.00, 0.00, 0.00, 0.00, 0.000, 0.000, 0.000, 17:13:49.022
133, 61585.04, 0.00, 0.00, -187500.02, 0.00, 0.00, 0.00, 0.00, 0.000, 0.000, 0.000, 17:13:49.022
134, 61694.59, 0.00, 0.00, -187500.02, 0.00, 0.00, 0.00, 0.00, 0.000, 0.000, 0.000, 17:13:49.022
135, 61466.00, 0.00, 0.00, -187500.02, 0.00, 0.00, 0.00, 0.00, -0.354, 0.378, -0.854, 17:13:49.022
136, 61304.02, 0.00, 0.00, -187500.02, 0.00, 0.00, 0.00, 0.00, 0.000, 0.000, 0.000, 17:13:49.022
137, 61509.90, 0.00, 0.00, -187500.02, 0.00, 0.00, 0.00, 0.00, 0.000, 0.000, 0.000, 17:13:49.022
138, 61700.80, 0.00, 0.00, -187500.02, 0.00, 0.00, 0.00, 0.00, 0.000, 0.000, 0.000, 17:13:49.023
139, 61512.94, 0.00, 0.00, -187500.02, 0.00, 0.00, 0.00, 0.00, 0.000, 0.000, 0.000, 17:13:49.023
140, 61295.39, 0.00, 0.00, -187500.02, 0.00, 0.00, 0.00, 0.00, 0.000, 0.000, 0.000, 17:13:49.023
141, 61449.79, 0.00, 0.00, -187500.02, 0.00, 0.00, 0.00, 0.00, 0.000, 0.000, 0.000, 17:13:49.023
142, 61682.70, 0.00, 0.00, -187500.02, 0.00, 0.00, 0.00, 0.00, 0.000, 0.000, 0.000, 17:13:49.023
143, 61551.85, 0.00, 0.00, -187500.02, 0.00, 0.00, 0.00, 0.00, 0.000, 0.000, 0.000, 17:13:49.023
144, 61289.00, 0.00, 0.00, -187500.02, 0.00, 0.00, 0.00, 0.00, 0.000, 0.000, 0.000, 17:13:49.023
145, 61379.03, 0.00, 0.00, -187500.02, 0.00, 0.00, 0.00, 0.00, -0.354, 0.376, -0.856, 17:13:49.023
146, 61634.40, 0.00, 0.00, -187500.02, 0.00, 0.00, 0.00, 0.00, 0.000, 0.000, 0.000, 17:13:49.023
147, 61555.09, 0.00, 0.00, -187500.02, 0.00, 0.00, 0.00, 0.00, 0.000, 0.000, 0.000, 17:13:49.024
148, 61249.28, 0.00, 0.00, -187500.02, 0.00, 0.00, 0.00, 0.00, 0.000, 0.000, 0.000, 17:13:49.024
149, 61271.49, 0.00, 0.00, -187500.02, 0.00, 0.00, 0.00, 0.00, 0.000, 0.000, 0.000, 17:13:49.024
150, 61549.13, 0.00, 0.00, -187500.02, 0.00, 0.00, 0.00, 0.00, 0.000, 0.000, 0.000, 17:13:49.024
151, 61538.55, 0.00, 0.00, -187500.02, 0.00, 0.00, 0.00, 0.00, 0.000, 0.000, 0.000, 17:13:49.024
152, 61257.75, 0.00, 0.00, -187500.02, 0.00, 0.00, 0.00, 0.00, 0.000, 0.000, 0.000, 17:13:49.024
153, 61212.17, 0.00, 0.00, -187500.02, 0.00, 0.00, 0.00, 0.00, 0.000, 0.000, 0.000, 17:13:49.024
154, 61470.89, 0.00, 0.00, -187500.02, 0.00, 0.00, 0.00, 0.00, 0.000, 0.000, 0.000, 17:13:49.024
155, 61556.03, 0.00, 0.00, -187500.02, 0.00, 0.00, 0.00, 0.00, -0.360, 0.382, -0.854, 17:13:49.024
156, 61285.40, 0.00, 0.00, -187500.02, 0.00, 0.00, 0.00, 0.00, 0.000, 0.000, 0.000, 17:13:49.025
157, 61158.04, 0.00, 0.00, -187500.02, 0.00, 0.00, 0.00, 0.00, 0.000, 0.000, 0.000, 17:13:49.025
158, 61399.30, 0.00, 0.00, -187500.02, 0.00, 0.00, 0.00, 0.00, 0.000, 0.000, 0.000, 17:13:49.025
159, 61531.40, 0.00, 0.00, -187500.02, 0.00, 0.00, 0.00, 0.00, 0.000, 0.000, 0.000, 17:13:49.025
160, 61303.32, 0.00, 0.00, -187500.02, 0.00, 0.00, 0.00, 0.00, 0.000, 0.000, 0.000, 17:13:49.025
161, 61137.25, 0.00, 0.00, -187500.02, 0.00, 0.00, 0.00, 0.00, 0.000, 0.000, 0.000, 17:13:49.025
162, 61343.11, 0.00, 0.00, -187500.02, 0.00, 0.00, 0.00, 0.00, 0.000, 0.000, 0.000, 17:13:49.025
163, 61552.93, 0.00, 0.00, -187500.02, 0.00, 0.00, 0.00, 0.00, 0.000, 0.000, 0.000, 17:13:49.025
164, 61379.52, 0.00, 0.00, -187500.02, 0.00, 0.00, 0.00, 0.00, 0.000, 0.000, 0.000, 17:13:49.026
165, 61141.29, 0.00, 0.00, -187500.02, 0.00, 0.00, 0.00, 0.00, -0.362, 0.376, -0.850, 17:13:49.026
166, 61294.36, 0.00, 0.00, -187500.02, 0.00, 0.00, 0.00, 0.00, 0.000, 0.000, 0.000, 17:13:49.026
167, 61578.18, 0.00, 0.00, -187500.02, 0.00, 0.00, 0.00, 0.00, 0.000, 0.000, 0.000, 17:13:49.026
168, 61467.32, 0.00, 0.00, -187500.02, 0.00, 0.00, 0.00, 0.00, 0.000, 0.000, 0.000, 17:13:49.026
169, 61210.32, 0.00, 0.00, -187500.02, 0.00, 0.00, 0.00, 0.00, 0.000, 0.000, 0.000, 17:13:49.026
170, 61296.89, 0.00, 0.00, -187500.02, 0.00, 0.00, 0.00, 0.00, 0.000, 0.000, 0.000, 17:13:49.026
171, 61574.27, 0.00, 0.00, -187500.02, 0.00, 0.00, 0.00, 0.00, 0.000, 0.000, 0.000, 17:13:49.027
172, 61538.15, 0.00, 0.00, -187500.02, 0.00, 0.00, 0.00, 0.00, 0.000, 0.000, 0.000, 17:13:49.027
173, 61261.30, 0.00, 0.00, -187500.02, 0.00, 0.00, 0.00, 0.00, 0.000, 0.000, 0.000, 17:13:49.027
174, 61300.39, 0.00, 0.00, -187500.02, 0.00, 0.00, 0.00, 0.00, 0.000, 0.000, 0.000, 17:13:49.027
175, 61581.04, 0.00, 0.00, -187500.02, 0.00, 0.00, 0.00, 0.00, -0.356, 0.380, -0.860, 17:13:49.027
176, 61615.78, 0.00, 0.00, -187500.02, 0.00, 0.00, 0.00, 0.00, 0.000, 0.000, 0.000, 17:13:49.027
177, 61354.17, 0.00, 0.00, -187500.02, 0.00, 0.00, 0.00, 0.00, 0.000, 0.000, 0.000, 17:13:49.027
178, 61301.87, 0.00, 0.00, -187500.02, 0.00, 0.00, 0.00, 0.00, 0.000, 0.000, 0.000, 17:13:49.027
179, 61546.62, 0.00, 0.00, -187500.02, 0.00, 0.00, 0.00, 0.00, 0.000, 0.000, 0.000, 17:13:49.028
180, 61658.96, 0.00, 0.00, -187500.02, 0.00, 0.00, 0.00, 0.00, 0.000, 0.000, 0.000, 17:13:49.028
181, 61419.98, 0.00, 0.00, -187500.02, 0.00, 0.00, 0.00, 0.00, 0.000, 0.000, 0.000, 17:13:49.028
182, 61288.66, 0.00, 0.00, -187500.02, 0.00, 0.00, 0.00, 0.00, 0.000, 0.000, 0.000, 17:13:49.028
183, 61510.81, 0.00, 0.00, -187500.02, 0.00, 0.00, 0.00, 0.00, 0.000, 0.000, 0.000, 17:13:49.028
184, 61678.14, 0.00, 0.00, -187500.02, 0.00, 0.00, 0.00, 0.00, 0.000, 0.000, 0.000, 17:13:49.028
185, 61467.32, 0.00, 0.00, -187500.02, 0.00, 0.00, 0.00, 0.00, -0.362, 0.376, -0.866, 17:13:49.029
186, 61268.95, 0.00, 0.00, -187500.02, 0.00, 0.00, 0.00, 0.00, 0.000, 0.000, 0.000, 17:13:49.029
187, 61455.43, 0.00, 0.00, -187500.02, 0.00, 0.00, 0.00, 0.00, 0.000, 0.000, 0.000, 17:13:49.029
188, 61678.83, 0.00, 0.00, -187500.02, 0.00, 0.00, 0.00, 0.00, 0.000, 0.000, 0.000, 17:13:49.029
189, 61518.44, 0.00, 0.00, -187500.02, 0.00, 0.00, 0.00, 0.00, 0.000, 0.000, 0.000, 17:13:49.029
190, 61266.31, 0.00, 0.00, -187500.02, 0.00, 0.00, 0.00, 0.00, 0.000, 0.000, 0.000, 17:13:49.029
191, 61384.64, 0.00, 0.00, -187500.02, 0.00, 0.00, 0.00, 0.00, 0.000, 0.000, 0.000, 17:13:49.029
192, 61667.07, 0.00, 0.00, -187500.02, 0.00, 0.00, 0.00, 0.00, 0.000, 0.000, 0.000, 17:13:49.029
193, 61584.73, 0.00, 0.00, -187500.02, 0.00, 0.00, 0.00, 0.00, 0.000, 0.000, 0.000, 17:13:49.029
194, 61312.09, 0.00, 0.00, -187500.02, 0.00, 0.00, 0.00, 0.00, 0.000, 0.000, 0.000, 17:13:49.030
195, 61356.99, 0.00, 0.00, -187500.02, 0.00, 0.00, 0.00, 0.00, -0.360, 0.378, -0.862, 17:13:49.030
196, 61633.37, 0.00, 0.00, -187500.02, 0.00, 0.00, 0.00, 0.00, 0.000, 0.000, 0.000, 17:13:49.030
197, 61616.85, 0.00, 0.00, -187500.02, 0.00, 0.00, 0.00, 0.00, 0.000, 0.000, 0.000, 17:13:49.030
198, 61326.30, 0.00, 0.00, -187500.02, 0.00, 0.00, 0.00, 0.00, 0.000, 0.000, 0.000, 17:13:49.030
199, 61297.11, 0.00, 0.00, -187500.02, 0.00, 0.00, 0.00, 0.00, 0.000, 0.000, 0.000, 17:13:49.030
200, 61578.36, 0.00, 0.00, -187500.02, 0.00, 0.00, 0.00, 0.00, 0.000, 0.000, 0.000, 17:13:49.030
201, 61639.96, 0.00, 0.00, -187500.02, 0.00, 0.00, 0.00, 0.00, 0.000, 0.000, 0.000, 17:13:49.030
202, 61357.95, 0.00, 0.00, -187500.02, 0.00, 0.00, 0.00, 0.00, 0.000, 0.000, 0.000, 17:13:49.030
203, 61249.16, 0.00, 0.00, -187500.02, 0.00, 0.00, 0.00, 0.00, 0.000, 0.000, 0.000, 17:13:49.031
204, 61515.26, 0.00, 0.00, -187500.02, 0.00, 0.00, 0.00, 0.00, 0.000, 0.000, 0.000, 17:13:49.031
205, 61651.74, 0.00, 0.00, -187500.02, 0.00, 0.00, 0.00, 0.00, -0.356, 0.372, -0.858, 17:13:49.031
206, 61391.23, 0.00, 0.00, -187500.02, 0.00, 0.00, 0.00, 0.00, 0.000, 0.000, 0.000, 17:13:49.031
207, 61219.28, 0.00, 0.00, -187500.02, 0.00, 0.00, 0.00, 0.00, 0.000, 0.000, 0.000, 17:13:49.031
208, 61445.05, 0.00, 0.00, -187500.02, 0.00, 0.00, 0.00, 0.00, 0.000, 0.000, 0.000, 17:13:49.031
209, 61640.92, 0.00, 0.00, -187500.02, 0.00, 0.00, 0.00, 0.00, 0.000, 0.000, 0.000, 17:13:49.031
210, 61436.43, 0.00, 0.00, -187500.02, 0.00, 0.00, 0.00, 0.00, 0.000, 0.000, 0.000, 17:13:49.031
211, 61200.37, 0.00, 0.00, -187500.02, 0.00, 0.00, 0.00, 0.00, 0.000, 0.000, 0.000, 17:13:49.032
212, 61368.81, 0.00, 0.00, -187500.02, 0.00, 0.00, 0.00, 0.00, 0.000, 0.000, 0.000, 17:13:49.032
213, 61619.46, 0.00, 0.00, -187500.02, 0.00, 0.00, 0.00, 0.00, 0.000, 0.000, 0.000, 17:13:49.032
214, 61466.87, 0.00, 0.00, -187500.02, 0.00, 0.00, 0.00, 0.00, 0.000, 0.000, 0.000, 17:13:49.032
215, 61189.39, 0.00, 0.00, -187500.02, 0.00, 0.00, 0.00, 0.00, -0.362, 0.374, -0.856, 17:13:49.033
216, 61318.57, 0.00, 0.00, -187500.02, 0.00, 0.00, 0.00, 0.00, 0.000, 0.000, 0.000, 17:13:49.033
217, 61607.30, 0.00, 0.00, -187500.02, 0.00, 0.00, 0.00, 0.00, 0.000, 0.000, 0.000, 17:13:49.033
218, 61530.91, 0.00, 0.00, -187500.02, 0.00, 0.00, 0.00, 0.00, 0.000, 0.000, 0.000, 17:13:49.033
219, 61226.32, 0.00, 0.00, -187500.02, 0.00, 0.00, 0.00, 0.00, 0.000, 0.000, 0.000, 17:13:49.033
220, 61260.00, 0.00, 0.00, -187500.02, 0.00, 0.00, 0.00, 0.00, 0.000, 0.000, 0.000, 17:13:49.033
221, 61570.16, 0.00, 0.00, -187500.02, 0.00, 0.00, 0.00, 0.00, 0.000, 0.000, 0.000, 17:13:49.033
222, 61571.75, 0.00, 0.00, -187500.02, 0.00, 0.00, 0.00, 0.00, 0.000, 0.000, 0.000, 17:13:49.033
223, 61260.74, 0.00, 0.00, -187500.02, 0.00, 0.00, 0.00, 0.00, 0.000, 0.000, 0.000, 17:13:49.034
224, 61238.01, 0.00, 0.00, -187500.02, 0.00, 0.00, 0.00, 0.00, 0.000, 0.000, 0.000, 17:13:49.034
225, 61537.34, 0.00, 0.00, -187500.02, 0.00, 0.00, 0.00, 0.00, -0.356, 0.378, -0.852, 17:13:49.034
226, 61630.78, 0.00, 0.00, -187500.02, 0.00, 0.00, 0.00, 0.00, 0.000, 0.000, 0.000, 17:13:49.034
227, 61329.90, 0.00, 0.00, -187500.02, 0.00, 0.00, 0.00, 0.00, 0.000, 0.000, 0.000, 17:13:49.034
228, 61203.79, 0.00, 0.00, -187500.02, 0.00, 0.00, 0.00, 0.00, 0.000, 0.000, 0.000, 17:13:49.034
229, 61496.73, 0.00, 0.00, -187500.02, 0.00, 0.00, 0.00, 0.00, 0.000, 0.000, 0.000, 17:13:49.034
230, 61678.16, 0.00, 0.00, -187500.02, 0.00, 0.00, 0.00, 0.00, 0.000, 0.000, 0.000, 17:13:49.035
231, 61421.79, 0.00, 0.00, -187500.02, 0.00, 0.00, 0.00, 0.00, 0.000, 0.000, 0.000, 17:13:49.035
232, 61209.49, 0.00, 0.00, -187500.02, 0.00, 0.00, 0.00, 0.00, 0.000, 0.000, 0.000, 17:13:49.035
233, 61459.92, 0.00, 0.00, -187500.02, 0.00, 0.00, 0.00, 0.00, 0.000, 0.000, 0.000, 17:13:49.035
234, 61707.20, 0.00, 0.00, -187500.02, 0.00, 0.00, 0.00, 0.00, 0.000, 0.000, 0.000, 17:13:49.035
235, 61503.77, 0.00, 0.00, -187500.02, 0.00, 0.00, 0.00, 0.00, -0.356, 0.378, -0.860, 17:13:49.035
236, 61240.40, 0.00, 0.00, -187500.02, 0.00, 0.00, 0.00, 0.00, 0.000, 0.000, 0.000, 17:13:49.035
237, 61416.85, 0.00, 0.00, -187500.02, 0.00, 0.00, 0.00, 0.00, 0.000, 0.000, 0.000, 17:13:49.035
238, 61722.24, 0.00, 0.00, -187500.02, 0.00, 0.00, 0.00, 0.00, 0.000, 0.000, 0.000, 17:13:49.036
239, 61593.47, 0.00, 0.00, -187500.02, 0.00, 0.00, 0.00, 0.00, 0.000, 0.000, 0.000, 17:13:49.036
240, 61266.64, 0.00, 0.00, -187500.02, 0.00, 0.00, 0.00, 0.00, 0.000, 0.000, 0.000, 17:13:49.036
241, 61365.24, 0.00, 0.00, -187500.02, 0.00, 0.00, 0.00, 0.00, 0.000, 0.000, 0.000, 17:13:49.496
242, 61721.73, 0.00, 0.00, -187500.02, 0.00, 0.00, 0.00, 0.00, 0.000, 0.000, 0.000, 17:13:49.496
243, 61670.94, 0.00, 0.00, -187500.02, 0.00, 0.00, 0.00, 0.00, 0.000, 0.000, 0.000, 17:13:49.496
244, 61309.00, 0.00, 0.00, -187500.02, 0.00, 0.00, 0.00, 0.00, -0.352, 0.380, -0.856, 17:13:49.496
245, 61329.86, 0.00, 0.00, -187500.02, 0.00, 0.00, 0.00, 0.00, 0.000, 0.000, 0.000, 17:13:49.496
246, 61687.23, 0.00, 0.00, -187500.02, 0.00, 0.00, 0.00, 0.00, 0.000, 0.000, 0.000, 17:13:49.497
247, 61738.82, 0.00, 0.00, -187500.02, 0.00, 0.00, 0.00, 0.00, 0.000, 0.000, 0.000, 17:13:49.497
248, 61381.93, 0.00, 0.00, -187500.02, 0.00, 0.00, 0.00, 0.00, 0.000, 0.000, 0.000, 17:13:49.497
249, 61299.10, 0.00, 0.00, -187500.02, 0.00, 0.00, 0.00, 0.00, 0.000, 0.000, 0.000, 17:13:49.497
250, 61641.93, 0.00, 0.00, -187500.02, 0.00, 0.00, 0.00, 0.00, 0.000, 0.000, 0.000, 17:13:49.497
251, 61798.48, 0.00, 0.00, -187500.02, 0.00, 0.00, 0.00, 0.00, 0.000, 0.000, 0.000, 17:13:49.497
252, 61480.66, 0.00, 0.00, -187500.02, 0.00, 0.00, 0.00, 0.00, 0.000, 0.000, 0.000, 17:13:49.497
253, 61302.32, 0.00, 0.00, -187500.02, 0.00, 0.00, 0.00, 0.00, 0.000, 0.000, 0.000, 17:13:49.497
254, 61620.09, 0.00, 0.00, -187500.02, 0.00, 0.00, 0.00, 0.00, -0.352, 0.376, -0.860, 17:13:49.497
255, 61851.23, 0.00, 0.00, -187500.02, 0.00, 0.00, 0.00, 0.00, 0.000, 0.000, 0.000, 17:13:49.497
0, 61575.32, 0.00, 0.00, -187500.02, 0.00, 0.00, 0.00, 0.00, 0.000, 0.000, 0.000, 17:13:49.497
1, 61320.13, 0.00, 0.00, -187500.02, 0.00, 0.00, 0.00, 0.00, 0.000, 0.000, 0.000, 17:13:49.497
2, 61565.38, 0.00, 0.00, -187500.02, 0.00, 0.00, 0.00, 0.00, 0.000, 0.000, 0.000, 17:13:49.498
3, 61862.56, 0.00, 0.00, -187500.02, 0.00, 0.00, 0.00, 0.00, 0.000, 0.000, 0.000, 17:13:49.498
4, 61656.97, 0.00, 0.00, -187500.02, 0.00, 0.00, 0.00, 0.00, 0.000, 0.000, 0.000, 17:13:49.498
5, 61322.77, 0.00, 0.00, -187500.02, 0.00, 0.00, 0.00, 0.00, 0.000, 0.000, 0.000, 17:13:49.499
6, 61486.99, 0.00, 0.00, -187500.02, 0.00, 0.00, 0.00, 0.00, 0.000, 0.000, 0.000, 17:13:49.499
7, 61838.63, 0.00, 0.00, -187500.02, 0.00, 0.00, 0.00, 0.00, 0.000, 0.000, 0.000, 17:13:49.499
8, 61710.82, 0.00, 0.00, -187500.02, 0.00, 0.00, 0.00, 0.00, -0.360, 0.374, -0.864, 17:13:49.499
9, 61339.73, 0.00, 0.00, -187500.02, 0.00, 0.00, 0.00, 0.00, 0.000, 0.000, 0.000, 17:13:49.499
10, 61423.35, 0.00, 0.00, -187500.02, 0.00, 0.00, 0.00, 0.00, 0.000, 0.000, 0.000, 17:13:49.499
11, 61791.95, 0.00, 0.00, -187500.02, 0.00, 0.00, 0.00, 0.00, 0.000, 0.000, 0.000, 17:13:49.499
12, 61763.30, 0.00, 0.00, -187500.02, 0.00, 0.00, 0.00, 0.00, 0.000, 0.000, 0.000, 17:13:49.499
13, 61374.40, 0.00, 0.00, -187500.02, 0.00, 0.00, 0.00, 0.00, 0.000, 0.000, 0.000, 17:13:49.500
14, 61336.80, 0.00, 0.00, -187500.02, 0.00, 0.00, 0.00, 0.00, 0.000, 0.000, 0.000, 17:13:49.500
15, 61717.61, 0.00, 0.00, -187500.02, 0.00, 0.00, 0.00, 0.00, 0.000, 0.000, 0.000, 17:13:49.500
16, 61786.68, 0.00, 0.00, -187500.02, 0.00, 0.00, 0.00, 0.00, 0.000, 0.000, 0.000, 17:13:49.500
17, 61408.84, 0.00, 0.00, -187500.02, 0.00, 0.00, 0.00, 0.00, 0.000, 0.000, 0.000, 17:13:49.500
18, 61275.50, 0.00, 0.00, -187500.02, 0.00, 0.00, 0.00, 0.00, -0.360, 0.374, -0.858, 17:13:49.501
19, 61628.59, 0.00, 0.00, -187500.02, 0.00, 0.00, 0.00, 0.00, 0.000, 0.000, 0.000, 17:13:49.501
20, 61817.08, 0.00, 0.00, -187500.02, 0.00, 0.00, 0.00, 0.00, 0.000, 0.000, 0.000, 17:13:49.501
21, 61473.09, 0.00, 0.00, -187500.02, 0.00, 0.00, 0.00, 0.00, 0.000, 0.000, 0.000, 17:13:49.501
22, 61243.40, 0.00, 0.00, -187500.02, 0.00, 0.00, 0.00, 0.00, 0.000, 0.000, 0.000, 17:13:49.501
23, 61551.89, 0.00, 0.00, -187500.02, 0.00, 0.00, 0.00, 0.00, 0.000, 0.000, 0.000, 17:13:49.501
24, 61809.07, 0.00, 0.00, -187500.02, 0.00, 0.00, 0.00, 0.00, 0.000, 0.000, 0.000, 17:13:49.501
25, 61535.94, 0.00, 0.00, -187500.02, 0.00, 0.00, 0.00, 0.00, 0.000, 0.000, 0.000, 17:13:49.501
26, 61225.34, 0.00, 0.00, -187500.02, 0.00, 0.00, 0.00, 0.00, 0.000, 0.000, 0.000, 17:13:49.501
27, 61459.27, 0.00, 0.00, -187500.02, 0.00, 0.00, 0.00, 0.00, 0.000, 0.000, 0.000, 17:13:49.501
28, 61784.55, 0.00, 0.00, -187500.02, 0.00, 0.00, 0.00, 0.00, -0.350, 0.376, -0.860, 17:13:49.501
29, 61585.80, 0.00, 0.00, -187500.02, 0.00, 0.00, 0.00, 0.00, 0.000, 0.000, 0.000, 17:13:49.501
30, 61219.04, 0.00, 0.00, -187500.02, 0.00, 0.00, 0.00, 0.00, 0.000, 0.000, 0.000, 17:13:49.501
31, 61371.09, 0.00, 0.00, -187500.02, 0.00, 0.00, 0.00, 0.00, 0.000, 0.000, 0.000, 17:13:49.502
32, 61752.13, 0.00, 0.00, -187500.02, 0.00, 0.00, 0.00, 0.00, 0.000, 0.000, 0.000, 17:13:49.502
33, 61646.31, 0.00, 0.00, -187500.02, 0.00, 0.00, 0.00, 0.00, 0.000, 0.000, 0.000, 17:13:49.502
34, 61251.00, 0.00, 0.00, -187500.02, 0.00, 0.00, 0.00, 0.00, 0.000, 0.000, 0.000, 17:13:49.502
35, 61287.72, 0.00, 0.00, -187500.02, 0.00, 0.00, 0.00, 0.00, 0.000, 0.000, 0.000, 17:13:49.502
36, 61692.98, 0.00, 0.00, -187500.02, 0.00, 0.00, 0.00, 0.00, 0.000, 0.000, 0.000, 17:13:49.502
37, 61696.20, 0.00, 0.00, -187500.02, 0.00, 0.00, 0.00, 0.00, 0.000, 0.000, 0.000, 17:13:49.502
38, 61288.46, 0.00, 0.00, -187500.02, 0.00, 0.00, 0.00, 0.00, -0.354, 0.374, -0.860, 17:13:49.502
39, 61215.82, 0.00, 0.00, -187500.02, 0.00, 0.00, 0.00, 0.00, 0.000, 0.000, 0.000, 17:13:49.502
40, 61607.20, 0.00, 0.00, -187500.02, 0.00, 0.00, 0.00, 0.00, 0.000, 0.000, 0.000, 17:13:49.502
41, 61721.50, 0.00, 0.00, -187500.02, 0.00, 0.00, 0.00, 0.00, 0.000, 0.000, 0.000, 17:13:49.502
42, 61340.80, 0.00, 0.00, -187500.02, 0.00, 0.00, 0.00, 0.00, 0.000, 0.000, 0.000, 17:13:49.502
43, 61176.14, 0.00, 0.00, -187500.02, 0.00, 0.00, 0.00, 0.00, 0.000, 0.000, 0.000, 17:13:49.503
44, 61528.61, 0.00, 0.00, -187500.02, 0.00, 0.00, 0.00, 0.00, 0.000, 0.000, 0.000, 17:13:49.503
45, 61729.79, 0.00, 0.00, -187500.02, 0.00, 0.00, 0.00, 0.00, 0.000, 0.000, 0.000, 17:13:49.503
46, 61396.42, 0.00, 0.00, -187500.02, 0.00, 0.00, 0.00, 0.00, 0.000, 0.000, 0.000, 17:13:49.503
47, 61149.41, 0.00, 0.00, -187500.02, 0.00, 0.00, 0.00, 0.00, 0.000, 0.000, 0.000, 17:13:49.503
48, 61451.18, 0.00, 0.00, -187500.02, 0.00, 0.00, 0.00, 0.00, -0.356, 0.378, -0.856, 17:13:49.503
49, 61734.33, 0.00, 0.00, -187500.02, 0.00, 0.00, 0.00, 0.00, 0.000, 0.000, 0.000, 17:13:49.503
50, 61471.90, 0.00, 0.00, -187500.02, 0.00, 0.00, 0.00, 0.00, 0.000, 0.000, 0.000, 17:13:49.503
51, 61144.78, 0.00, 0.00, -187500.02, 0.00, 0.00, 0.00, 0.00, 0.000, 0.000, 0.000, 17:13:49.503
52, 61343.71, 0.00, 0.00, -187500.02, 0.00, 0.00, 0.00, 0.00, 0.000, 0.000, 0.000, 17:13:49.503
53, 61687.62, 0.00, 0.00, -187500.02, 0.00, 0.00, 0.00, 0.00, 0.000, 0.000, 0.000, 17:13:49.503
54, 61528.92, 0.00, 0.00, -187500.02, 0.00, 0.00, 0.00, 0.00, 0.000, 0.000, 0.000, 17:13:49.503
55, 61180.07, 0.00, 0.00, -187500.02, 0.00, 0.00, 0.00, 0.00, 0.000, 0.000, 0.000, 17:13:49.503
56, 61293.93, 0.00, 0.00, -187500.02, 0.00, 0.00, 0.00, 0.00, 0.000, 0.000, 0.000, 17:13:49.504
57, 61678.05, 0.00, 0.00, -187500.02, 0.00, 0.00, 0.00, 0.00, 0.000, 0.000, 0.000, 17:13:49.504
58, 61614.32, 0.00, 0.00, -187500.02, 0.00, 0.00, 0.00, 0.00, -0.358, 0.378, -0.856, 17:13:49.504
59, 61216.53, 0.00, 0.00, -187500.02, 0.00, 0.00, 0.00, 0.00, 0.000, 0.000, 0.000, 17:13:49.504
60, 61229.88, 0.00, 0.00, -187500.02, 0.00, 0.00, 0.00, 0.00, 0.000, 0.000, 0.000, 17:13:49.504
61, 61638.87, 0.00, 0.00, -187500.02, 0.00, 0.00, 0.00, 0.00, 0.000, 0.000, 0.000, 17:13:49.504
62, 61676.48, 0.00, 0.00, -187500.02, 0.00, 0.00, 0.00, 0.00, 0.000, 0.000, 0.000, 17:13:49.504
63, 61279.85, 0.00, 0.00, -187500.02, 0.00, 0.00, 0.00, 0.00, 0.000, 0.000, 0.000, 17:13:49.504
64, 61181.28, 0.00, 0.00, -187500.02, 0.00, 0.00, 0.00, 0.00, 0.000, 0.000, 0.000, 17:13:49.504
65, 61572.82, 0.00, 0.00, -187500.02, 0.00, 0.00, 0.00, 0.00, 0.000, 0.000, 0.000, 17:13:49.504
66, 61722.69, 0.00, 0.00, -187500.02, 0.00, 0.00, 0.00, 0.00, 0.000, 0.000, 0.000, 17:13:49.504
67, 61359.02, 0.00, 0.00, -187500.02, 0.00, 0.00, 0.00, 0.00, 0.000, 0.000, 0.000, 17:13:49.504
68, 61160.88, 0.00, 0.00, -187500.02, 0.00, 0.00, 0.00, 0.00, -0.360, 0.374, -0.852, 17:13:49.505
69, 61508.89, 0.00, 0.00, -187500.02, 0.00, 0.00, 0.00, 0.00, 0.000, 0.000, 0.000, 17:13:49.505
70, 61745.04, 0.00, 0.00, -187500.02, 0.00, 0.00, 0.00, 0.00, 0.000, 0.000, 0.000, 17:13:49.505
71, 61431.04, 0.00, 0.00, -187500.02, 0.00, 0.00, 0.00, 0.00, 0.000, 0.000, 0.000, 17:13:49.505
72, 61145.45, 0.00, 0.00, -187500.02, 0.00, 0.00, 0.00, 0.00, 0.000, 0.000, 0.000, 17:13:49.505
73, 61417.29, 0.00, 0.00, -187500.02, 0.00, 0.00, 0.00, 0.00, 0.000, 0.000, 0.000, 17:13:49.505
74, 61730.91, 0.00, 0.00, -187500.02, 0.00, 0.00, 0.00, 0.00, 0.000, 0.000, 0.000, 17:13:49.505
75, 61492.29, 0.00, 0.00, -187500.02, 0.00, 0.00, 0.00, 0.00, 0.000, 0.000, 0.000, 17:13:49.505
76, 61145.50, 0.00, 0.00, -187500.02, 0.00, 0.00, 0.00, 0.00, 0.000, 0.000, 0.000, 17:13:49.506
77, 61348.18, 0.00, 0.00, -187500.02, 0.00, 0.00, 0.00, 0.00, 0.000, 0.000, 0.000, 17:13:49.506
78, 61711.02, 0.00, 0.00, -187500.02, 0.00, 0.00, 0.00, 0.00, -0.352, 0.372, -0.854, 17:13:49.506
79, 61583.99, 0.00, 0.00, -187500.02, 0.00, 0.00, 0.00, 0.00, 0.000, 0.000, 0.000, 17:13:49.506
80, 61194.07, 0.00, 0.00, -187500.02, 0.00, 0.00, 0.00, 0.00, 0.000, 0.000, 0.000, 17:13:49.506
81, 61271.36, 0.00, 0.00, -187500.02, 0.00, 0.00, 0.00, 0.00, 0.000, 0.000, 0.000, 17:13:49.506
82, 61672.51, 0.00, 0.00, -187500.02, 0.00, 0.00, 0.00, 0.00, 0.000, 0.000, 0.000, 17:13:49.507
83, 61637.21, 0.00, 0.00, -187500.02, 0.00, 0.00, 0.00, 0.00, 0.000, 0.000, 0.000, 17:13:49.507
84, 61212.89, 0.00, 0.00, -187500.02, 0.00, 0.00, 0.00, 0.00, 0.000, 0.000, 0.000, 17:13:49.507
85, 61194.52, 0.00, 0.00, -187500.02, 0.00, 0.00, 0.00, 0.00, 0.000, 0.000, 0.000, 17:13:49.507
86, 61594.77, 0.00, 0.00, -187500.02, 0.00, 0.00, 0.00, 0.00, 0.000, 0.000, 0.000, 17:13:49.507
87, 61674.79, 0.00, 0.00, -187500.02, 0.00, 0.00, 0.00, 0.00, 0.000, 0.000, 0.000, 17:13:49.508
88, 61278.24, 0.00, 0.00, -187500.02, 0.00, 0.00, 0.00, 0.00, -0.350, 0.370, -0.854, 17:13:49.508
89, 61140.98, 0.00, 0.00, -187500.02, 0.00, 0.00, 0.00, 0.00, 0.000, 0.000, 0.000, 17:13:49.508
90, 61515.02, 0.00, 0.00, -187500.02, 0.00, 0.00, 0.00, 0.00, 0.000, 0.000, 0.000, 17:13:49.508
91, 61694.34, 0.00, 0.00, -187500.02, 0.00, 0.00, 0.00, 0.00, 0.000, 0.000, 0.000, 17:13:49.508
92, 61343.27, 0.00, 0.00, -187500.02, 0.00, 0.00, 0.00, 0.00, 0.000, 0.000, 0.000, 17:13:49.509
93, 61120.30, 0.00, 0.00, -187500.02, 0.00, 0.00, 0.00, 0.00, 0.000, 0.000, 0.000, 17:13:49.509
94, 61435.22, 0.00, 0.00, -187500.02, 0.00, 0.00, 0.00, 0.00, 0.000, 0.000, 0.000, 17:13:49.509
95, 61704.67, 0.00, 0.00, -187500.02, 0.00, 0.00, 0.00, 0.00, 0.000, 0.000, 0.000, 17:13:49.509
96, 61417.56, 0.00, 0.00, -187500.02, 0.00, 0.00, 0.00, 0.00, 0.000, 0.000, 0.000, 17:13:49.510
97, 61104.95, 0.00, 0.00, -187500.02, 0.00, 0.00, 0.00, 0.00, 0.000, 0.000, 0.000, 17:13:49.510
98, 61352.38, 0.00, 0.00, -187500.02, 0.00, 0.00, 0.00, 0.00, -0.352, 0.374, -0.856, 17:13:49.510
99, 61689.85, 0.00, 0.00, -187500.02, 0.00, 0.00, 0.00, 0.00, 0.000, 0.000, 0.000, 17:13:49.510
100, 61489.11, 0.00, 0.00, -187500.02, 0.00, 0.00, 0.00, 0.00, 0.000, 0.000, 0.000, 17:13:49.510
101, 61129.34, 0.00, 0.00, -187500.02, 0.00, 0.00, 0.00, 0.00, 0.000, 0.000, 0.000, 17:13:49.511
102, 61271.11, 0.00, 0.00, -187500.02, 0.00, 0.00, 0.00, 0.00, 0.000, 0.000, 0.000, 17:13:49.511
103, 61658.38, 0.00, 0.00, -187500.02, 0.00, 0.00, 0.00, 0.00, 0.000, 0.000, 0.000, 17:13:49.511
104, 61562.31, 0.00, 0.00, -187500.02, 0.00, 0.00, 0.00, 0.00, 0.000, 0.000, 0.000, 17:13:49.511
105, 61164.63, 0.00, 0.00, -187500.02, 0.00, 0.00, 0.00, 0.00, 0.000, 0.000, 0.000, 17:13:49.978
106, 61212.33, 0.00, 0.00, -187500.02, 0.00, 0.00, 0.00, 0.00, 0.000, 0.000, 0.000, 17:13:49.978
107, 61616.11, 0.00, 0.00, -187500.02, 0.00, 0.00, 0.00, 0.00, -0.352, 0.376, -0.860, 17:13:49.978
108, 61621.03, 0.00, 0.00, -187500.02, 0.00, 0.00, 0.00, 0.00, 0.000, 0.000, 0.000, 17:13:49.978
109, 61225.52, 0.00, 0.00, -187500.02, 0.00, 0.00, 0.00, 0.00, 0.000, 0.000, 0.000, 17:13:49.978
110, 61164.94, 0.00, 0.00, -187500.02, 0.00, 0.00, 0.00, 0.00, 0.000, 0.000, 0.000, 17:13:49.978
111, 61557.21, 0.00, 0.00, -187500.02, 0.00, 0.00, 0.00, 0.00, 0.000, 0.000, 0.000, 17:13:49.979
112, 61671.99, 0.00, 0.00, -187500.02, 0.00, 0.00, 0.00, 0.00, 0.000, 0.000, 0.000, 17:13:49.979
113, 61292.93, 0.00, 0.00, -187500.02, 0.00, 0.00, 0.00, 0.00, 0.000, 0.000, 0.000, 17:13:49.979
114, 61142.14, 0.00, 0.00, -187500.02, 0.00, 0.00, 0.00, 0.00, 0.000, 0.000, 0.000, 17:13:49.979
115, 61516.58, 0.00, 0.00, -187500.02, 0.00, 0.00, 0.00, 0.00, 0.000, 0.000, 0.000, 17:13:49.979
116, 61723.91, 0.00, 0.00, -187500.02, 0.00, 0.00, 0.00, 0.00, 0.000, 0.000, 0.000, 17:13:49.979
117, 61381.35, 0.00, 0.00, -187500.02, 0.00, 0.00, 0.00, 0.00, -0.354, 0.376, -0.864, 17:13:49.979
118, 61125.11, 0.00, 0.00, -187500.02, 0.00, 0.00, 0.00, 0.00, 0.000, 0.000, 0.000, 17:13:49.979
119, 61424.74, 0.00, 0.00, -187500.02, 0.00, 0.00, 0.00, 0.00, 0.000, 0.000, 0.000, 17:13:49.979
120, 61718.30, 0.00, 0.00, -187500.02, 0.00, 0.00, 0.00, 0.00, 0.000, 0.000, 0.000, 17:13:49.979
121, 61462.73, 0.00, 0.00, -187500.02, 0.00, 0.00, 0.00, 0.00, 0.000, 0.000, 0.000, 17:13:49.979
122, 61126.54, 0.00, 0.00, -187500.02, 0.00, 0.00, 0.00, 0.00, 0.000, 0.000, 0.000, 17:13:49.979
123, 61337.72, 0.00, 0.00, -187500.02, 0.00, 0.00, 0.00, 0.00, 0.000, 0.000, 0.000, 17:13:49.979
124, 61691.08, 0.00, 0.00, -187500.02, 0.00, 0.00, 0.00, 0.00, 0.000, 0.000, 0.000, 17:13:49.979
125, 61528.74, 0.00, 0.00, -187500.02, 0.00, 0.00, 0.00, 0.00, 0.000, 0.000, 0.000, 17:13:49.979
126, 61148.69, 0.00, 0.00, -187500.02, 0.00, 0.00, 0.00, 0.00, 0.000, 0.000, 0.000, 17:13:49.979
127, 61254.73, 0.00, 0.00, -187500.02, 0.00, 0.00, 0.00, 0.00, -0.354, 0.370, -0.860, 17:13:49.979
128, 61651.94, 0.00, 0.00, -187500.02, 0.00, 0.00, 0.00, 0.00, 0.000, 0.000, 0.000, 17:13:49.979
129, 61587.91, 0.00, 0.00, -187500.02, 0.00, 0.00, 0.00, 0.00, 0.000, 0.000, 0.000, 17:13:49.979
130, 61175.18, 0.00, 0.00, -187500.02, 0.00, 0.00, 0.00, 0.00, 0.000, 0.000, 0.000, 17:13:49.979
131, 61181.82, 0.00, 0.00, -187500.02, 0.00, 0.00, 0.00, 0.00, 0.000, 0.000, 0.000, 17:13:49.980
132, 61603.73, 0.00, 0.00, -187500.02, 0.00, 0.00, 0.00, 0.00, 0.000, 0.000, 0.000, 17:13:49.980
133, 61641.59, 0.00, 0.00, -187500.02, 0.00, 0.00, 0.00, 0.00, 0.000, 0.000, 0.000, 17:13:49.980
134, 61243.18, 0.00, 0.00, -187500.02, 0.00, 0.00, 0.00, 0.00, 0.000, 0.000, 0.000, 17:13:49.980
135, 61138.77, 0.00, 0.00, -187500.02, 0.00, 0.00, 0.00, 0.00, 0.000, 0.000, 0.000, 17:13:49.980
136, 61515.87, 0.00, 0.00, -187500.02, 0.00, 0.00, 0.00, 0.00, 0.000, 0.000, 0.000, 17:13:49.981
137, 61663.61, 0.00, 0.00, -187500.02, 0.00, 0.00, 0.00, 0.00, -0.354, 0.372, -0.854, 17:13:49.981
138, 61303.88, 0.00, 0.00, -187500.02, 0.00, 0.00, 0.00, 0.00, 0.000, 0.000, 0.000, 17:13:49.981
139, 61102.92, 0.00, 0.00, -187500.02, 0.00, 0.00, 0.00, 0.00, 0.000, 0.000, 0.000, 17:13:49.981
140, 61435.20, 0.00, 0.00, -187500.02, 0.00, 0.00, 0.00, 0.00, 0.000, 0.000, 0.000, 17:13:49.981
141, 61678.36, 0.00, 0.00, -187500.02, 0.00, 0.00, 0.00, 0.00, 0.000, 0.000, 0.000, 17:13:49.981
142, 61375.72, 0.00, 0.00, -187500.02, 0.00, 0.00, 0.00, 0.00, 0.000, 0.000, 0.000, 17:13:49.981
143, 61099.30, 0.00, 0.00, -187500.02, 0.00, 0.00, 0.00, 0.00, 0.000, 0.000, 0.000, 17:13:49.981
144, 61367.70, 0.00, 0.00, -187500.02, 0.00, 0.00, 0.00, 0.00, 0.000, 0.000, 0.000, 17:13:49.981
145, 61680.82, 0.00, 0.00, -187500.02, 0.00, 0.00, 0.00, 0.00, 0.000, 0.000, 0.000, 17:13:49.981
146, 61439.98, 0.00, 0.00, -187500.02, 0.00, 0.00, 0.00, 0.00, 0.000, 0.000, 0.000, 17:13:49.981
147, 61096.68, 0.00, 0.00, -187500.02, 0.00, 0.00, 0.00, 0.00, -0.358, 0.372, -0.848, 17:13:49.981
148, 61289.15, 0.00, 0.00, -187500.02, 0.00, 0.00, 0.00, 0.00, 0.000, 0.000, 0.000, 17:13:49.981
149, 61661.93, 0.00, 0.00, -187500.02, 0.00, 0.00, 0.00, 0.00, 0.000, 0.000, 0.000, 17:13:49.981
150, 61526.04, 0.00, 0.00, -187500.02, 0.00, 0.00, 0.00, 0.00, 0.000, 0.000, 0.000, 17:13:49.981
151, 61138.23, 0.00, 0.00, -187500.02, 0.00, 0.00, 0.00, 0.00, 0.000, 0.000, 0.000, 17:13:49.981
152, 61217.40, 0.00, 0.00, -187500.02, 0.00, 0.00, 0.00, 0.00, 0.000, 0.000, 0.000, 17:13:49.981
153, 61618.82, 0.00, 0.00, -187500.02, 0.00, 0.00, 0.00, 0.00, 0.000, 0.000, 0.000, 17:13:49.981
154, 61583.21, 0.00, 0.00, -187500.02, 0.00, 0.00, 0.00, 0.00, 0.000, 0.000, 0.000, 17:13:49.981
155, 61165.77, 0.00, 0.00, -187500.02, 0.00, 0.00, 0.00, 0.00, 0.000, 0.000, 0.000, 17:13:49.981
156, 61152.83, 0.00, 0.00, -187500.02, 0.00, 0.00, 0.00, 0.00, 0.000, 0.000, 0.000, 17:13:49.982
157, 61542.75, 0.00, 0.00, -187500.02, 0.00, 0.00, 0.00, 0.00, -0.356, 0.368, -0.854, 17:13:49.982
158, 61626.57, 0.00, 0.00, -187500.02, 0.00, 0.00, 0.00, 0.00, 0.000, 0.000, 0.000, 17:13:49.982
159, 61248.72, 0.00, 0.00, -187500.02, 0.00, 0.00, 0.00, 0.00, 0.000, 0.000, 0.000, 17:13:49.982
160, 61125.27, 0.00, 0.00, -187500.02, 0.00, 0.00, 0.00, 0.00, 0.000, 0.000, 0.000, 17:13:49.982
161, 61497.43, 0.00, 0.00, -187500.02, 0.00, 0.00, 0.00, 0.00, 0.000, 0.000, 0.000, 17:13:49.982
162, 61677.20, 0.00, 0.00, -187500.02, 0.00, 0.00, 0.00, 0.00, 0.000, 0.000, 0.000, 17:13:49.982
163, 61332.25, 0.00, 0.00, -187500.02, 0.00, 0.00, 0.00, 0.00, 0.000, 0.000, 0.000, 17:13:49.982
164, 61098.29, 0.00, 0.00, -187500.02, 0.00, 0.00, 0.00, 0.00, 0.000, 0.000, 0.000, 17:13:49.982
165, 61432.20, 0.00, 0.00, -187500.02, 0.00, 0.00, 0.00, 0.00, 0.000, 0.000, 0.000, 17:13:49.982
166, 61709.81, 0.00, 0.00, -187500.02, 0.00, 0.00, 0.00, 0.00, 0.000, 0.000, 0.000, 17:13:49.982
167, 61425.41, 0.00, 0.00, -187500.02, 0.00, 0.00, 0.00, 0.00, -0.360, 0.370, -0.852, 17:13:49.982
168, 61110.70, 0.00, 0.00, -187500.02, 0.00, 0.00, 0.00, 0.00, 0.000, 0.000, 0.000, 17:13:49.982
169, 61354.84, 0.00, 0.00, -187500.02, 0.00, 0.00, 0.00, 0.00, 0.000, 0.000, 0.000, 17:13:49.982
170, 61701.96, 0.00, 0.00, -187500.02, 0.00, 0.00, 0.00, 0.00, 0.000, 0.000, 0.000, 17:13:49.982
171, 61499.35, 0.00, 0.00, -187500.02, 0.00, 0.00, 0.00, 0.00, 0.000, 0.000, 0.000, 17:13:49.982
172, 61128.73, 0.00, 0.00, -187500.02, 0.00, 0.00, 0.00, 0.00, 0.000, 0.000, 0.000, 17:13:49.982
173, 61278.78, 0.00, 0.00, -187500.02, 0.00, 0.00, 0.00, 0.00, 0.000, 0.000, 0.000, 17:13:49.982
174, 61669.22, 0.00, 0.00, -187500.02, 0.00, 0.00, 0.00, 0.00, 0.000, 0.000, 0.000, 17:13:49.982
175, 61569.80, 0.00, 0.00, -187500.02, 0.00, 0.00, 0.00, 0.00, 0.000, 0.000, 0.000, 17:13:49.982
176, 61171.85, 0.00, 0.00, -187500.02, 0.00, 0.00, 0.00, 0.00, 0.000, 0.000, 0.000, 17:13:49.982
177, 61216.53, 0.00, 0.00, -187500.02, 0.00, 0.00, 0.00, 0.00, -0.360, 0.372, -0.852, 17:13:49.983
178, 61623.49, 0.00, 0.00, -187500.02, 0.00, 0.00, 0.00, 0.00, 0.000, 0.000, 0.000, 17:13:49.983
179, 61640.59, 0.00, 0.00, -187500.02, 0.00, 0.00, 0.00, 0.00, 0.000, 0.000, 0.000, 17:13:49.983
180, 61233.09, 0.00, 0.00, -187500.02, 0.00, 0.00, 0.00, 0.00, 0.000, 0.000, 0.000, 17:13:49.983
181, 61181.77, 0.00, 0.00, -187500.02, 0.00, 0.00, 0.00, 0.00, 0.000, 0.000, 0.000, 17:13:49.983
182, 61571.45, 0.00, 0.00, -187500.02, 0.00, 0.00, 0.00, 0.00, 0.000, 0.000, 0.000, 17:13:49.983
183, 61671.99, 0.00, 0.00, -187500.02, 0.00, 0.00, 0.00, 0.00, 0.000, 0.000, 0.000, 17:13:49.983
184, 61295.61, 0.00, 0.00, -187500.02, 0.00, 0.00, 0.00, 0.00, 0.000, 0.000, 0.000, 17:13:49.983
185, 61127.39, 0.00, 0.00, -187500.02, 0.00, 0.00, 0.00, 0.00, 0.000, 0.000, 0.000, 17:13:49.983
186, 61480.28, 0.00, 0.00, -187500.02, 0.00, 0.00, 0.00, 0.00, 0.000, 0.000, 0.000, 17:13:49.983
187, 61684.09, 0.00, 0.00, -187500.02, 0.00, 0.00, 0.00, 0.00, -0.358, 0.372, -0.854, 17:13:49.983
188, 61352.43, 0.00, 0.00, -187500.02, 0.00, 0.00, 0.00, 0.00, 0.000, 0.000, 0.000, 17:13:49.983
189, 61110.54, 0.00, 0.00, -187500.02, 0.00, 0.00, 0.00, 0.00, 0.000, 0.000, 0.000, 17:13:49.983
190, 61419.53, 0.00, 0.00, -187500.02, 0.00, 0.00, 0.00, 0.00, 0.000, 0.000, 0.000, 17:13:49.983
191, 61712.79, 0.00, 0.00, -187500.02, 0.00, 0.00, 0.00, 0.00, 0.000, 0.000, 0.000, 17:13:49.983
192, 61454.60, 0.00, 0.00, -187500.02, 0.00, 0.00, 0.00, 0.00, 0.000, 0.000, 0.000, 17:13:49.983
193, 61120.69, 0.00, 0.00, -187500.02, 0.00, 0.00, 0.00, 0.00, 0.000, 0.000, 0.000, 17:13:49.983
194, 61337.97, 0.00, 0.00, -187500.02, 0.00, 0.00, 0.00, 0.00, 0.000, 0.000, 0.000, 17:13:49.983
195, 61690.93, 0.00, 0.00, -187500.02, 0.00, 0.00, 0.00, 0.00, 0.000, 0.000, 0.000, 17:13:49.983
196, 61522.59, 0.00, 0.00, -187500.02, 0.00, 0.00, 0.00, 0.00, 0.000, 0.000, 0.000, 17:13:49.984
197, 61149.50, 0.00, 0.00, -187500.02, 0.00, 0.00, 0.00, 0.00, -0.350, 0.370, -0.848, 17:13:49.984
198, 61267.92, 0.00, 0.00, -187500.02, 0.00, 0.00, 0.00, 0.00, 0.000, 0.000, 0.000, 17:13:49.984
199, 61659.77, 0.00, 0.00, -187500.02, 0.00, 0.00, 0.00, 0.00, 0.000, 0.000, 0.000, 17:13:49.984
200, 61591.06, 0.00, 0.00, -187500.02, 0.00, 0.00, 0.00, 0.00, 0.000, 0.000, 0.000, 17:13:49.984
201, 61187.05, 0.00, 0.00, -187500.02, 0.00, 0.00, 0.00, 0.00, 0.000, 0.000, 0.000, 17:13:49.984
202, 61200.48, 0.00, 0.00, -187500.02, 0.00, 0.00, 0.00, 0.00, 0.000, 0.000, 0.000, 17:13:49.984
203, 61604.58, 0.00, 0.00, -187500.02, 0.00, 0.00, 0.00, 0.00, 0.000, 0.000, 0.000, 17:13:49.984
204, 61646.69, 0.00, 0.00, -187500.02, 0.00, 0.00, 0.00, 0.00, 0.000, 0.000, 0.000, 17:13:49.984
205, 61244.40, 0.00, 0.00, -187500.02, 0.00, 0.00, 0.00, 0.00, 0.000, 0.000, 0.000, 17:13:49.984
206, 61136.51, 0.00, 0.00, -187500.02, 0.00, 0.00, 0.00, 0.00, 0.000, 0.000, 0.000, 17:13:49.984
207, 61534.15, 0.00, 0.00, -187500.02, 0.00, 0.00, 0.00, 0.00, -0.346, 0.372, -0.858, 17:13:49.984
208, 61683.95, 0.00, 0.00, -187500.02, 0.00, 0.00, 0.00, 0.00, 0.000, 0.000, 0.000, 17:13:49.984
209, 61318.81, 0.00, 0.00, -187500.02, 0.00, 0.00, 0.00, 0.00, 0.000, 0.000, 0.000, 17:13:49.984
210, 61124.35, 0.00, 0.00, -187500.02, 0.00, 0.00, 0.00, 0.00, 0.000, 0.000, 0.000, 17:13:49.984
211, 61461.80, 0.00, 0.00, -187500.02, 0.00, 0.00, 0.00, 0.00, 0.000, 0.000, 0.000, 17:13:49.984
212, 61704.65, 0.00, 0.00, -187500.02, 0.00, 0.00, 0.00, 0.00, 0.000, 0.000, 0.000, 17:13:49.985
213, 61396.29, 0.00, 0.00, -187500.02, 0.00, 0.00, 0.00, 0.00, 0.000, 0.000, 0.000, 17:13:49.985
214, 61112.08, 0.00, 0.00, -187500.02, 0.00, 0.00, 0.00, 0.00, 0.000, 0.000, 0.000, 17:13:49.985
215, 61379.36, 0.00, 0.00, -187500.02, 0.00, 0.00, 0.00, 0.00, 0.000, 0.000, 0.000, 17:13:49.985
216, 61688.13, 0.00, 0.00, -187500.02, 0.00, 0.00, 0.00, 0.00, -0.352, 0.370, -0.850, 17:13:49.985
217, 61468.28, 0.00, 0.00, -187500.02, 0.00, 0.00, 0.00, 0.00, 0.000, 0.000, 0.000, 17:13:49.985
218, 61121.74, 0.00, 0.00, -187500.02, 0.00, 0.00, 0.00, 0.00, 0.000, 0.000, 0.000, 17:13:49.985
219, 61314.25, 0.00, 0.00, -187500.02, 0.00, 0.00, 0.00, 0.00, 0.000, 0.000, 0.000, 17:13:49.985
220, 61687.21, 0.00, 0.00, -187500.02, 0.00, 0.00, 0.00, 0.00, 0.000, 0.000, 0.000, 17:13:49.985
221, 61550.18, 0.00, 0.00, -187500.02, 0.00, 0.00, 0.00, 0.00, 0.000, 0.000, 0.000, 17:13:49.985
222, 61156.11, 0.00, 0.00, -187500.02, 0.00, 0.00, 0.00, 0.00, 0.000, 0.000, 0.000, 17:13:49.985
223, 61235.75, 0.00, 0.00, -187500.02, 0.00, 0.00, 0.00, 0.00, 0.000, 0.000, 0.000, 17:13:49.985
224, 61637.57, 0.00, 0.00, -187500.02, 0.00, 0.00, 0.00, 0.00, 0.000, 0.000, 0.000, 17:13:49.985
225, 61606.66, 0.00, 0.00, -187500.02, 0.00, 0.00, 0.00, 0.00, 0.000, 0.000, 0.000, 17:13:49.985
226, 61199.61, 0.00, 0.00, -187500.02, 0.00, 0.00, 0.00, 0.00, -0.354, 0.376, -0.852, 17:13:50.456
227, 61174.71, 0.00, 0.00, -187500.02, 0.00, 0.00, 0.00, 0.00, 0.000, 0.000, 0.000, 17:13:50.456
228, 61575.61, 0.00, 0.00, -187500.02, 0.00, 0.00, 0.00, 0.00, 0.000, 0.000, 0.000, 17:13:50.456
229, 61651.52, 0.00, 0.00, -187500.02, 0.00, 0.00, 0.00, 0.00, 0.000, 0.000, 0.000, 17:13:50.456
230, 61264.52, 0.00, 0.00, -187500.02, 0.00, 0.00, 0.00, 0.00, 0.000, 0.000, 0.000, 17:13:50.456
231, 61138.97, 0.00, 0.00, -187500.02, 0.00, 0.00, 0.00, 0.00, 0.000, 0.000, 0.000, 17:13:50.456
232, 61510.95, 0.00, 0.00, -187500.02, 0.00, 0.00, 0.00, 0.00, 0.000, 0.000, 0.000, 17:13:50.456
233, 61695.35, 0.00, 0.00, -187500.02, 0.00, 0.00, 0.00, 0.00, 0.000, 0.000, 0.000, 17:13:50.456
234, 61345.46, 0.00, 0.00, -187500.02, 0.00, 0.00, 0.00, 0.00, 0.000, 0.000, 0.000, 17:13:50.457
235, 61115.14, 0.00, 0.00, -187500.02, 0.00, 0.00, 0.00, 0.00, 0.000, 0.000, 0.000, 17:13:50.457
236, 61430.88, 0.00, 0.00, -187500.02, 0.00, 0.00, 0.00, 0.00, -0.356, 0.372, -0.854, 17:13:50.457
237, 61695.51, 0.00, 0.00, -187500.02, 0.00, 0.00, 0.00, 0.00, 0.000, 0.000, 0.000, 17:13:50.457
238, 61407.08, 0.00, 0.00, -187500.02, 0.00, 0.00, 0.00, 0.00, 0.000, 0.000, 0.000, 17:13:50.457
239, 61112.19, 0.00, 0.00, -187500.02, 0.00, 0.00, 0.00, 0.00, 0.000, 0.000, 0.000, 17:13:50.457
240, 61352.50, 0.00, 0.00, -187500.02, 0.00, 0.00, 0.00, 0.00, 0.000, 0.000, 0.000, 17:13:50.457
241, 61686.81, 0.00, 0.00, -187500.02, 0.00, 0.00, 0.00, 0.00, 0.000, 0.000, 0.000, 17:13:50.457
242, 61488.06, 0.00, 0.00, -187500.02, 0.00, 0.00, 0.00, 0.00, 0.000, 0.000, 0.000, 17:13:50.457
243, 61133.56, 0.00, 0.00, -187500.02, 0.00, 0.00, 0.00, 0.00, 0.000, 0.000, 0.000, 17:13:50.457
244, 61280.17, 0.00, 0.00, -187500.02, 0.00, 0.00, 0.00, 0.00, 0.000, 0.000, 0.000, 17:13:50.457
245, 61660.05, 0.00, 0.00, -187500.02, 0.00, 0.00, 0.00, 0.00, 0.000, 0.000, 0.000, 17:13:50.457
246, 61555.27, 0.00, 0.00, -187500.02, 0.00, 0.00, 0.00, 0.00, -0.356, 0.368, -0.848, 17:13:50.457
247, 61170.11, 0.00, 0.00, -187500.02, 0.00, 0.00, 0.00, 0.00, 0.000, 0.000, 0.000, 17:13:50.457
248, 61217.16, 0.00, 0.00, -187500.02, 0.00, 0.00, 0.00, 0.00, 0.000, 0.000, 0.000, 17:13:50.457
249, 61610.55, 0.00, 0.00, -187500.02, 0.00, 0.00, 0.00, 0.00, 0.000, 0.000, 0.000, 17:13:50.457
250, 61618.53, 0.00, 0.00, -187500.02, 0.00, 0.00, 0.00, 0.00, 0.000, 0.000, 0.000, 17:13:50.457
251, 61223.88, 0.00, 0.00, -187500.02, 0.00, 0.00, 0.00, 0.00, 0.000, 0.000, 0.000, 17:13:50.458
252, 61166.38, 0.00, 0.00, -187500.02, 0.00, 0.00, 0.00, 0.00, 0.000, 0.000, 0.000, 17:13:50.458
253, 61551.00, 0.00, 0.00, -187500.02, 0.00, 0.00, 0.00, 0.00, 0.000, 0.000, 0.000, 17:13:50.458
254, 61663.23, 0.00, 0.00, -187500.02, 0.00, 0.00, 0.00, 0.00, 0.000, 0.000, 0.000, 17:13:50.458
255, 61294.94, 0.00, 0.00, -187500.02, 0.00, 0.00, 0.00, 0.00, 0.000, 0.000, 0.000, 17:13:50.458
0, 61127.70, 0.00, 0.00, -187500.02, 0.00, 0.00, 0.00, 0.00, -0.358, 0.372, -0.852, 17:13:50.458
1, 61485.98, 0.00, 0.00, -187500.02, 0.00, 0.00, 0.00, 0.00, 0.000, 0.000, 0.000, 17:13:50.458
2, 61695.02, 0.00, 0.00, -187500.02, 0.00, 0.00, 0.00, 0.00, 0.000, 0.000, 0.000, 17:13:50.458
3, 61370.64, 0.00, 0.00, -187500.02, 0.00, 0.00, 0.00, 0.00, 0.000, 0.000, 0.000, 17:13:50.458
4, 61119.48, 0.00, 0.00, -187500.02, 0.00, 0.00, 0.00, 0.00, 0.000, 0.000, 0.000, 17:13:50.458
5, 61415.73, 0.00, 0.00, -187500.02, 0.00, 0.00, 0.00, 0.00, 0.000, 0.000, 0.000, 17:13:50.458
6, 61706.55, 0.00, 0.00, -187500.02, 0.00, 0.00, 0.00, 0.00, 0.000, 0.000, 0.000, 17:13:50.458
7, 61447.47, 0.00, 0.00, -187500.02, 0.00, 0.00, 0.00, 0.00, 0.000, 0.000, 0.000, 17:13:50.458
8, 61117.25, 0.00, 0.00, -187500.02, 0.00, 0.00, 0.00, 0.00, 0.000, 0.000, 0.000, 17:13:50.458
9, 61324.27, 0.00, 0.00, -187500.02, 0.00, 0.00, 0.00, 0.00, 0.000, 0.000, 0.000, 17:13:50.458
10, 61686.92, 0.00, 0.00, -187500.02, 0.00, 0.00, 0.00, 0.00, -0.352, 0.374, -0.860, 17:13:50.458
11, 61521.27, 0.00, 0.00, -187500.02, 0.00, 0.00, 0.00, 0.00, 0.000, 0.000, 0.000, 17:13:50.459
12, 61151.91, 0.00, 0.00, -187500.02, 0.00, 0.00, 0.00, 0.00, 0.000, 0.000, 0.000, 17:13:50.459
13, 61269.66, 0.00, 0.00, -187500.02, 0.00, 0.00, 0.00, 0.00, 0.000, 0.000, 0.000, 17:13:50.459
14, 61661.33, 0.00, 0.00, -187500.02, 0.00, 0.00, 0.00, 0.00, 0.000, 0.000, 0.000, 17:13:50.459
15, 61593.23, 0.00, 0.00, -187500.02, 0.00, 0.00, 0.00, 0.00, 0.000, 0.000, 0.000, 17:13:50.461
16, 61189.60, 0.00, 0.00, -187500.02, 0.00, 0.00, 0.00, 0.00, 0.000, 0.000, 0.000, 17:13:50.461
17, 61202.45, 0.00, 0.00, -187500.02, 0.00, 0.00, 0.00, 0.00, 0.000, 0.000, 0.000, 17:13:50.461
18, 61604.65, 0.00, 0.00, -187500.02, 0.00, 0.00, 0.00, 0.00, 0.000, 0.000, 0.000, 17:13:50.461
19, 61644.50, 0.00, 0.00, -187500.02, 0.00, 0.00, 0.00, 0.00, 0.000, 0.000, 0.000, 17:13:50.461
20, 61249.88, 0.00, 0.00, -187500.02, 0.00, 0.00, 0.00, 0.00, -0.354, 0.372, -0.860, 17:13:50.461
21, 61155.46, 0.00, 0.00, -187500.02, 0.00, 0.00, 0.00, 0.00, 0.000, 0.000, 0.000, 17:13:50.461
22, 61533.10, 0.00, 0.00, -187500.02, 0.00, 0.00, 0.00, 0.00, 0.000, 0.000, 0.000, 17:13:50.461
23, 61683.75, 0.00, 0.00, -187500.02, 0.00, 0.00, 0.00, 0.00, 0.000, 0.000, 0.000, 17:13:50.461
24, 61323.73, 0.00, 0.00, -187500.02, 0.00, 0.00, 0.00, 0.00, 0.000, 0.000, 0.000, 17:13:50.461
25, 61124.96, 0.00, 0.00, -187500.02, 0.00, 0.00, 0.00, 0.00, 0.000, 0.000, 0.000, 17:13:50.461
26, 61464.25, 0.00, 0.00, -187500.02, 0.00, 0.00, 0.00, 0.00, 0.000, 0.000, 0.000, 17:13:50.461
27, 61700.63, 0.00, 0.00, -187500.02, 0.00, 0.00, 0.00, 0.00, 0.000, 0.000, 0.000, 17:13:50.462
28, 61397.91, 0.00, 0.00, -187500.02, 0.00, 0.00, 0.00, 0.00, 0.000, 0.000, 0.000, 17:13:50.462
29, 61117.85, 0.00, 0.00, -187500.02, 0.00, 0.00, 0.00, 0.00, 0.000, 0.000, 0.000, 17:13:50.462
30, 61382.54, 0.00, 0.00, -187500.02, 0.00, 0.00, 0.00, 0.00, -0.352, 0.372, -0.860, 17:13:50.462
31, 61689.79, 0.00, 0.00, -187500.02, 0.00, 0.00, 0.00, 0.00, 0.000, 0.000, 0.000, 17:13:50.462
32, 61459.41, 0.00, 0.00, -187500.02, 0.00, 0.00, 0.00, 0.00, 0.000, 0.000, 0.000, 17:13:50.462
33, 61126.83, 0.00, 0.00, -187500.02, 0.00, 0.00, 0.00, 0.00, 0.000, 0.000, 0.000, 17:13:50.462
34, 61314.97, 0.00, 0.00, -187500.02, 0.00, 0.00, 0.00, 0.00, 0.000, 0.000, 0.000, 17:13:50.462
35, 61673.31, 0.00, 0.00, -187500.02, 0.00, 0.00, 0.00, 0.00, 0.000, 0.000, 0.000, 17:13:50.462
36, 61530.64, 0.00, 0.00, -187500.02, 0.00, 0.00, 0.00, 0.00, 0.000, 0.000, 0.000, 17:13:50.462
37, 61166.26, 0.00, 0.00, -187500.02, 0.00, 0.00, 0.00, 0.00, 0.000, 0.000, 0.000, 17:13:50.462
38, 61250.24, 0.00, 0.00, -187500.02, 0.00, 0.00, 0.00, 0.00, 0.000, 0.000, 0.000, 17:13:50.462
39, 61641.15, 0.00, 0.00, -187500.02, 0.00, 0.00, 0.00, 0.00, 0.000, 0.000, 0.000, 17:13:50.462
40, 61615.89, 0.00, 0.00, -187500.02, 0.00, 0.00, 0.00, 0.00, -0.356, 0.376, -0.860, 17:13:50.462
41, 61218.23, 0.00, 0.00, -187500.02, 0.00, 0.00, 0.00, 0.00, 0.000, 0.000, 0.000, 17:13:50.462
42, 61186.13, 0.00, 0.00, -187500.02, 0.00, 0.00, 0.00, 0.00, 0.000, 0.000, 0.000, 17:13:50.463
43, 61586.96, 0.00, 0.00, -187500.02, 0.00, 0.00, 0.00, 0.00, 0.000, 0.000, 0.000, 17:13:50.463
44, 61653.57, 0.00, 0.00, -187500.02, 0.00, 0.00, 0.00, 0.00, 0.000, 0.000, 0.000, 17:13:50.463
45, 61270.71, 0.00, 0.00, -187500.02, 0.00, 0.00, 0.00, 0.00, 0.000, 0.000, 0.000, 17:13:50.463
46, 61150.97, 0.00, 0.00, -187500.02, 0.00, 0.00, 0.00, 0.00, 0.000, 0.000, 0.000, 17:13:50.463
47, 61520.18, 0.00, 0.00, -187500.02, 0.00, 0.00, 0.00, 0.00, 0.000, 0.000, 0.000, 17:13:50.463
48, 61688.84, 0.00, 0.00, -187500.02, 0.00, 0.00, 0.00, 0.00, 0.000, 0.000, 0.000, 17:13:50.463
49, 61344.81, 0.00, 0.00, -187500.02, 0.00, 0.00, 0.00, 0.00, 0.000, 0.000, 0.000, 17:13:50.463
50, 61123.10, 0.00, 0.00, -187500.02, 0.00, 0.00, 0.00, 0.00, -0.356, 0.370, -0.860, 17:13:50.463
51, 61438.13, 0.00, 0.00, -187500.02, 0.00, 0.00, 0.00, 0.00, 0.000, 0.000, 0.000, 17:13:50.463
52, 61701.90, 0.00, 0.00, -187500.02, 0.00, 0.00, 0.00, 0.00, 0.000, 0.000, 0.000, 17:13:50.463
53, 61424.52, 0.00, 0.00, -187500.02, 0.00, 0.00, 0.00, 0.00, 0.000, 0.000, 0.000, 17:13:50.463
54, 61121.91, 0.00, 0.00, -187500.02, 0.00, 0.00, 0.00, 0.00, 0.000, 0.000, 0.000, 17:13:50.463
55, 61357.95, 0.00, 0.00, -187500.02, 0.00, 0.00, 0.00, 0.00, 0.000, 0.000, 0.000, 17:13:50.463
56, 61690.79, 0.00, 0.00, -187500.02, 0.00, 0.00, 0.00, 0.00, 0.000, 0.000, 0.000, 17:13:50.463
57, 61493.98, 0.00, 0.00, -187500.02, 0.00, 0.00, 0.00, 0.00, 0.000, 0.000, 0.000, 17:13:50.463
58, 61132.67, 0.00, 0.00, -187500.02, 0.00, 0.00, 0.00, 0.00, 0.000, 0.000, 0.000, 17:13:50.463
59, 61279.99, 0.00, 0.00, -187500.02, 0.00, 0.00, 0.00, 0.00, 0.000, 0.000, 0.000, 17:13:50.463
60, 61660.64, 0.00, 0.00, -187500.02, 0.00, 0.00, 0.00, 0.00, -0.358, 0.372, -0.856, 17:13:50.463
61, 61559.25, 0.00, 0.00, -187500.02, 0.00, 0.00, 0.00, 0.00, 0.000, 0.000, 0.000, 17:13:50.464
62, 61158.33, 0.00, 0.00, -187500.02, 0.00, 0.00, 0.00, 0.00, 0.000, 0.000, 0.000, 17:13:50.464
63, 61227.80, 0.00, 0.00, -187500.02, 0.00, 0.00, 0.00, 0.00, 0.000, 0.000, 0.000, 17:13:50.464
64, 61618.46, 0.00, 0.00, -187500.02, 0.00, 0.00, 0.00, 0.00, 0.000, 0.000, 0.000, 17:13:50.464
65, 61620.00, 0.00, 0.00, -187500.02, 0.00, 0.00, 0.00, 0.00, 0.000, 0.000, 0.000, 17:13:50.464
66, 61222.63, 0.00, 0.00, -187500.02, 0.00, 0.00, 0.00, 0.00, 0.000, 0.000, 0.000, 17:13:50.465
67, 61157.86, 0.00, 0.00, -187500.02, 0.00, 0.00, 0.00, 0.00, 0.000, 0.000, 0.000, 17:13:50.465
68, 61548.75, 0.00, 0.00, -187500.02, 0.00, 0.00, 0.00, 0.00, 0.000, 0.000, 0.000, 17:13:50.465
69, 61654.87, 0.00, 0.00, -187500.02, 0.00, 0.00, 0.00, 0.00, -0.354, 0.380, -0.856, 17:13:50.465
70, 61269.86, 0.00, 0.00, -187500.02, 0.00, 0.00, 0.00, 0.00, 0.000, 0.000, 0.000, 17:13:50.465
71, 61113.38, 0.00, 0.00, -187500.02, 0.00, 0.00, 0.00, 0.00, 0.000, 0.000, 0.000, 17:13:50.465
72, 61469.89, 0.00, 0.00, -187500.02, 0.00, 0.00, 0.00, 0.00, 0.000, 0.000, 0.000, 17:13:50.465
73, 61671.63, 0.00, 0.00, -187500.02, 0.00, 0.00, 0.00, 0.00, 0.000, 0.000, 0.000, 17:13:50.465
74, 61349.59, 0.00, 0.00, -187500.02, 0.00, 0.00, 0.00, 0.00, 0.000, 0.000, 0.000, 17:13:50.465
75, 61109.09, 0.00, 0.00, -187500.02, 0.00, 0.00, 0.00, 0.00, 0.000, 0.000, 0.000, 17:13:50.465
76, 61398.68, 0.00, 0.00, -187500.02, 0.00, 0.00, 0.00, 0.00, 0.000, 0.000, 0.000, 17:13:50.465
77, 61687.44, 0.00, 0.00, -187500.02, 0.00, 0.00, 0.00, 0.00, 0.000, 0.000, 0.000, 17:13:50.465
78, 61432.72, 0.00, 0.00, -187500.02, 0.00, 0.00, 0.00, 0.00, 0.000, 0.000, 0.000, 17:13:50.466
79, 61098.78, 0.00, 0.00, -187500.02, 0.00, 0.00, 0.00, 0.00, -0.354, 0.376, -0.862, 17:13:50.466
80, 61316.91, 0.00, 0.00, -187500.02, 0.00, 0.00, 0.00, 0.00, 0.000, 0.000, 0.000, 17:13:50.466
81, 61671.57, 0.00, 0.00, -187500.02, 0.00, 0.00, 0.00, 0.00, 0.000, 0.000, 0.000, 17:13:50.466
82, 61501.02, 0.00, 0.00, -187500.02, 0.00, 0.00, 0.00, 0.00, 0.000, 0.000, 0.000, 17:13:50.466
83, 61127.75, 0.00, 0.00, -187500.02, 0.00, 0.00, 0.00, 0.00, 0.000, 0.000, 0.000, 17:13:50.466
84, 61244.31, 0.00, 0.00, -187500.02, 0.00, 0.00, 0.00, 0.00, 0.000, 0.000, 0.000, 17:13:50.466
85, 61631.83, 0.00, 0.00, -187500.02, 0.00, 0.00, 0.00, 0.00, 0.000, 0.000, 0.000, 17:13:50.466
86, 61569.69, 0.00, 0.00, -187500.02, 0.00, 0.00, 0.00, 0.00, 0.000, 0.000, 0.000, 17:13:50.466
87, 61173.21, 0.00, 0.00, -187500.02, 0.00, 0.00, 0.00, 0.00, 0.000, 0.000, 0.000, 17:13:50.466
88, 61183.07, 0.00, 0.00, -187500.02, 0.00, 0.00, 0.00, 0.00, 0.000, 0.000, 0.000, 17:13:50.466
89, 61579.55, 0.00, 0.00, -187500.02, 0.00, 0.00, 0.00, 0.00, -0.350, 0.378, -0.858, 17:13:50.466
90, 61609.52, 0.00, 0.00, -187500.02, 0.00, 0.00, 0.00, 0.00, 0.000, 0.000, 0.000, 17:13:50.938
91, 61217.63, 0.00, 0.00, -187500.02, 0.00, 0.00, 0.00, 0.00, 0.000, 0.000, 0.000, 17:13:50.938
92, 61125.27, 0.00, 0.00, -187500.02, 0.00, 0.00, 0.00, 0.00, 0.000, 0.000, 0.000, 17:13:50.938
93, 61506.88, 0.00, 0.00, -187500.02, 0.00, 0.00, 0.00, 0.00, 0.000, 0.000, 0.000, 17:13:50.938
94, 61643.83, 0.00, 0.00, -187500.02, 0.00, 0.00, 0.00, 0.00, 0.000, 0.000, 0.000, 17:13:50.938
95, 61280.75, 0.00, 0.00, -187500.02, 0.00, 0.00, 0.00, 0.00, 0.000, 0.000, 0.000, 17:13:50.938
96, 61091.63, 0.00, 0.00, -187500.02, 0.00, 0.00, 0.00, 0.00, 0.000, 0.000, 0.000, 17:13:50.938
97, 61436.18, 0.00, 0.00, -187500.02, 0.00, 0.00, 0.00, 0.00, 0.000, 0.000, 0.000, 17:13:50.938
98, 61677.04, 0.00, 0.00, -187500.02, 0.00, 0.00, 0.00, 0.00, 0.000, 0.000, 0.000, 17:13:50.938
99, 61371.83, 0.00, 0.00, -187500.02, 0.00, 0.00, 0.00, 0.00, -0.352, 0.376, -0.854, 17:13:50.938
100, 61089.66, 0.00, 0.00, -187500.02, 0.00, 0.00, 0.00, 0.00, 0.000, 0.000, 0.000, 17:13:50.938
101, 61350.57, 0.00, 0.00, -187500.02, 0.00, 0.00, 0.00, 0.00, 0.000, 0.000, 0.000, 17:13:50.938
102, 61664.10, 0.00, 0.00, -187500.02, 0.00, 0.00, 0.00, 0.00, 0.000, 0.000, 0.000, 17:13:50.939
103, 61438.42, 0.00, 0.00, -187500.02, 0.00, 0.00, 0.00, 0.00, 0.000, 0.000, 0.000, 17:13:50.939
104, 61092.66, 0.00, 0.00, -187500.02, 0.00, 0.00, 0.00, 0.00, 0.000, 0.000, 0.000, 17:13:50.939
105, 61272.63, 0.00, 0.00, -187500.02, 0.00, 0.00, 0.00, 0.00, 0.000, 0.000, 0.000, 17:13:50.939
106, 61642.62, 0.00, 0.00, -187500.02, 0.00, 0.00, 0.00, 0.00, 0.000, 0.000, 0.000, 17:13:50.939
107, 61510.43, 0.00, 0.00, -187500.02, 0.00, 0.00, 0.00, 0.00, 0.000, 0.000, 0.000, 17:13:50.939
108, 61125.58, 0.00, 0.00, -187500.02, 0.00, 0.00, 0.00, 0.00, 0.000, 0.000, 0.000, 17:13:50.939
109, 61202.18, 0.00, 0.00, -187500.02, 0.00, 0.00, 0.00, 0.00, -0.350, 0.378, -0.852, 17:13:50.939
110, 61606.41, 0.00, 0.00, -187500.02, 0.00, 0.00, 0.00, 0.00, 0.000, 0.000, 0.000, 17:13:50.939
111, 61571.95, 0.00, 0.00, -187500.02, 0.00, 0.00, 0.00, 0.00, 0.000, 0.000, 0.000, 17:13:50.939
112, 61170.42, 0.00, 0.00, -187500.02, 0.00, 0.00, 0.00, 0.00, 0.000, 0.000, 0.000, 17:13:50.939
113, 61144.22, 0.00, 0.00, -187500.02, 0.00, 0.00, 0.00, 0.00, 0.000, 0.000, 0.000, 17:13:50.939
114, 61543.76, 0.00, 0.00, -187500.02, 0.00, 0.00, 0.00, 0.00, 0.000, 0.000, 0.000, 17:13:50.939
115, 61617.75, 0.00, 0.00, -187500.02, 0.00, 0.00, 0.00, 0.00, 0.000, 0.000, 0.000, 17:13:50.940
116, 61229.11, 0.00, 0.00, -187500.02, 0.00, 0.00, 0.00, 0.00, 0.000, 0.000, 0.000, 17:13:50.940
117, 61107.34, 0.00, 0.00, -187500.02, 0.00, 0.00, 0.00, 0.00, 0.000, 0.000, 0.000, 17:13:50.940
118, 61477.80, 0.00, 0.00, -187500.02, 0.00, 0.00, 0.00, 0.00, 0.000, 0.000, 0.000, 17:13:50.940
119, 61651.50, 0.00, 0.00, -187500.02, 0.00, 0.00, 0.00, 0.00, -0.350, 0.378, -0.856, 17:13:50.940
120, 61300.37, 0.00, 0.00, -187500.02, 0.00, 0.00, 0.00, 0.00, 0.000, 0.000, 0.000, 17:13:50.940
121, 61077.61, 0.00, 0.00, -187500.02, 0.00, 0.00, 0.00, 0.00, 0.000, 0.000, 0.000, 17:13:50.940
122, 61393.22, 0.00, 0.00, -187500.02, 0.00, 0.00, 0.00, 0.00, 0.000, 0.000, 0.000, 17:13:50.940
123, 61657.29, 0.00, 0.00, -187500.02, 0.00, 0.00, 0.00, 0.00, 0.000, 0.000, 0.000, 17:13:50.940
124, 61372.21, 0.00, 0.00, -187500.02, 0.00, 0.00, 0.00, 0.00, 0.000, 0.000, 0.000, 17:13:50.940
125, 61075.80, 0.00, 0.00, -187500.02, 0.00, 0.00, 0.00, 0.00, 0.000, 0.000, 0.000, 17:13:50.940
126, 61321.96, 0.00, 0.00, -187500.02, 0.00, 0.00, 0.00, 0.00, 0.000, 0.000, 0.000, 17:13:50.940
127, 61650.51, 0.00, 0.00, -187500.02, 0.00, 0.00, 0.00, 0.00, 0.000, 0.000, 0.000, 17:13:50.940
128, 61455.54, 0.00, 0.00, -187500.02, 0.00, 0.00, 0.00, 0.00, 0.000, 0.000, 0.000, 17:13:50.940
129, 61094.78, 0.00, 0.00, -187500.02, 0.00, 0.00, 0.00, 0.00, -0.354, 0.380, -0.860, 17:13:50.940
130, 61251.20, 0.00, 0.00, -187500.02, 0.00, 0.00, 0.00, 0.00, 0.000, 0.000, 0.000, 17:13:50.940
131, 61625.43, 0.00, 0.00, -187500.02, 0.00, 0.00, 0.00, 0.00, 0.000, 0.000, 0.000, 17:13:50.940
132, 61531.40, 0.00, 0.00, -187500.02, 0.00, 0.00, 0.00, 0.00, 0.000, 0.000, 0.000, 17:13:50.940
133, 61143.51, 0.00, 0.00, -187500.02, 0.00, 0.00, 0.00, 0.00, 0.000, 0.000, 0.000, 17:13:50.940
134, 61194.11, 0.00, 0.00, -187500.02, 0.00, 0.00, 0.00, 0.00, 0.000, 0.000, 0.000, 17:13:50.940
135, 61589.52, 0.00, 0.00, -187500.02, 0.00, 0.00, 0.00, 0.00, 0.000, 0.000, 0.000, 17:13:50.940
136, 61590.36, 0.00, 0.00, -187500.02, 0.00, 0.00, 0.00, 0.00, 0.000, 0.000, 0.000, 17:13:50.940
137, 61198.18, 0.00, 0.00, -187500.02, 0.00, 0.00, 0.00, 0.00, 0.000, 0.000, 0.000, 17:13:50.941
138, 61142.26, 0.00, 0.00, -187500.02, 0.00, 0.00, 0.00, 0.00, 0.000, 0.000, 0.000, 17:13:50.941
139, 61522.46, 0.00, 0.00, -187500.02, 0.00, 0.00, 0.00, 0.00, -0.356, 0.374, -0.860, 17:13:50.941
140, 61626.66, 0.00, 0.00, -187500.02, 0.00, 0.00, 0.00, 0.00, 0.000, 0.000, 0.000, 17:13:50.941
141, 61262.48, 0.00, 0.00, -187500.02, 0.00, 0.00, 0.00, 0.00, 0.000, 0.000, 0.000, 17:13:50.941
142, 61103.77, 0.00, 0.00, -187500.02, 0.00, 0.00, 0.00, 0.00, 0.000, 0.000, 0.000, 17:13:50.941
143, 61451.16, 0.00, 0.00, -187500.02, 0.00, 0.00, 0.00, 0.00, 0.000, 0.000, 0.000, 17:13:50.941
144, 61655.59, 0.00, 0.00, -187500.02, 0.00, 0.00, 0.00, 0.00, 0.000, 0.000, 0.000, 17:13:50.941
145, 61335.40, 0.00, 0.00, -187500.02, 0.00, 0.00, 0.00, 0.00, 0.000, 0.000, 0.000, 17:13:50.941
146, 61087.05, 0.00, 0.00, -187500.02, 0.00, 0.00, 0.00, 0.00, 0.000, 0.000, 0.000, 17:13:50.941
147, 61385.36, 0.00, 0.00, -187500.02, 0.00, 0.00, 0.00, 0.00, 0.000, 0.000, 0.000, 17:13:50.941
148, 61667.95, 0.00, 0.00, -187500.02, 0.00, 0.00, 0.00, 0.00, 0.000, 0.000, 0.000, 17:13:50.941
149, 61416.31, 0.00, 0.00, -187500.02, 0.00, 0.00, 0.00, 0.00, -0.356, 0.374, -0.860, 17:13:50.941
150, 61088.12, 0.00, 0.00, -187500.02, 0.00, 0.00, 0.00, 0.00, 0.000, 0.000, 0.000, 17:13:50.942
151, 61288.28, 0.00, 0.00, -187500.02, 0.00, 0.00, 0.00, 0.00, 0.000, 0.000, 0.000, 17:13:50.942
152, 61649.73, 0.00, 0.00, -187500.02, 0.00, 0.00, 0.00, 0.00, 0.000, 0.000, 0.000, 17:13:50.942
153, 61494.50, 0.00, 0.00, -187500.02, 0.00, 0.00, 0.00, 0.00, 0.000, 0.000, 0.000, 17:13:50.942
154, 61118.25, 0.00, 0.00, -187500.02, 0.00, 0.00, 0.00, 0.00, 0.000, 0.000, 0.000, 17:13:50.942
155, 61235.44, 0.00, 0.00, -187500.02, 0.00, 0.00, 0.00, 0.00, 0.000, 0.000, 0.000, 17:13:50.942
156, 61621.70, 0.00, 0.00, -187500.02, 0.00, 0.00, 0.00, 0.00, 0.000, 0.000, 0.000, 17:13:50.943
157, 61549.13, 0.00, 0.00, -187500.02, 0.00, 0.00, 0.00, 0.00, 0.000, 0.000, 0.000, 17:13:50.943
158, 61152.43, 0.00, 0.00, -187500.02, 0.00, 0.00, 0.00, 0.00, 0.000, 0.000, 0.000, 17:13:50.943
159, 61166.20, 0.00, 0.00, -187500.02, 0.00, 0.00, 0.00, 0.00, -0.354, 0.380, -0.858, 17:13:50.943
160, 61569.67, 0.00, 0.00, -187500.02, 0.00, 0.00, 0.00, 0.00, 0.000, 0.000, 0.000, 17:13:50.943
161, 61604.85, 0.00, 0.00, -187500.02, 0.00, 0.00, 0.00, 0.00, 0.000, 0.000, 0.000, 17:13:50.943
162, 61212.22, 0.00, 0.00, -187500.02, 0.00, 0.00, 0.00, 0.00, 0.000, 0.000, 0.000, 17:13:50.943
163, 61119.37, 0.00, 0.00, -187500.02, 0.00, 0.00, 0.00, 0.00, 0.000, 0.000, 0.000, 17:13:50.943
164, 61500.02, 0.00, 0.00, -187500.02, 0.00, 0.00, 0.00, 0.00, 0.000, 0.000, 0.000, 17:13:50.943
165, 61650.87, 0.00, 0.00, -187500.02, 0.00, 0.00, 0.00, 0.00, 0.000, 0.000, 0.000, 17:13:50.944
166, 61278.04, 0.00, 0.00, -187500.02, 0.00, 0.00, 0.00, 0.00, 0.000, 0.000, 0.000, 17:13:50.944
167, 61086.40, 0.00, 0.00, -187500.02, 0.00, 0.00, 0.00, 0.00, 0.000, 0.000, 0.000, 17:13:50.944
168, 61423.75, 0.00, 0.00, -187500.02, 0.00, 0.00, 0.00, 0.00, 0.000, 0.000, 0.000, 17:13:50.944
169, 61658.04, 0.00, 0.00, -187500.02, 0.00, 0.00, 0.00, 0.00, -0.352, 0.382, -0.854, 17:13:50.944
170, 61347.63, 0.00, 0.00, -187500.02, 0.00, 0.00, 0.00, 0.00, 0.000, 0.000, 0.000, 17:13:50.944
171, 61067.89, 0.00, 0.00, -187500.02, 0.00, 0.00, 0.00, 0.00, 0.000, 0.000, 0.000, 17:13:50.944
172, 61338.46, 0.00, 0.00, -187500.02, 0.00, 0.00, 0.00, 0.00, 0.000, 0.000, 0.000, 17:13:50.944
173, 61648.32, 0.00, 0.00, -187500.02, 0.00, 0.00, 0.00, 0.00, 0.000, 0.000, 0.000, 17:13:50.944
174, 61415.73, 0.00, 0.00, -187500.02, 0.00, 0.00, 0.00, 0.00, 0.000, 0.000, 0.000, 17:13:50.944
175, 61083.00, 0.00, 0.00, -187500.02, 0.00, 0.00, 0.00, 0.00, 0.000, 0.000, 0.000, 17:13:50.944
176, 61279.07, 0.00, 0.00, -187500.02, 0.00, 0.00, 0.00, 0.00, 0.000, 0.000, 0.000, 17:13:50.944
177, 61647.99, 0.00, 0.00, -187500.02, 0.00, 0.00, 0.00, 0.00, 0.000, 0.000, 0.000, 17:13:50.944
178, 61499.64, 0.00, 0.00, -187500.02, 0.00, 0.00, 0.00, 0.00, -0.354, 0.380, -0.854, 17:13:50.944
179, 61113.85, 0.00, 0.00, -187500.02, 0.00, 0.00, 0.00, 0.00, 0.000, 0.000, 0.000, 17:13:50.944
180, 61202.58, 0.00, 0.00, -187500.02, 0.00, 0.00, 0.00, 0.00, 0.000, 0.000, 0.000, 17:13:50.945
181, 61600.31, 0.00, 0.00, -187500.02, 0.00, 0.00, 0.00, 0.00, 0.000, 0.000, 0.000, 17:13:50.945
182, 61564.23, 0.00, 0.00, -187500.02, 0.00, 0.00, 0.00, 0.00, 0.000, 0.000, 0.000, 17:13:50.945
183, 61157.05, 0.00, 0.00, -187500.02, 0.00, 0.00, 0.00, 0.00, 0.000, 0.000, 0.000, 17:13:50.945
184, 61133.00, 0.00, 0.00, -187500.02, 0.00, 0.00, 0.00, 0.00, 0.000, 0.000, 0.000, 17:13:50.945
185, 61546.62, 0.00, 0.00, -187500.02, 0.00, 0.00, 0.00, 0.00, 0.000, 0.000, 0.000, 17:13:50.946
186, 61618.80, 0.00, 0.00, -187500.02, 0.00, 0.00, 0.00, 0.00, 0.000, 0.000, 0.000, 17:13:50.946
187, 61226.99, 0.00, 0.00, -187500.02, 0.00, 0.00, 0.00, 0.00, 0.000, 0.000, 0.000, 17:13:50.946
188, 61095.92, 0.00, 0.00, -187500.02, 0.00, 0.00, 0.00, 0.00, -0.350, 0.380, -0.850, 17:13:50.946
189, 61468.03, 0.00, 0.00, -187500.02, 0.00, 0.00, 0.00, 0.00, 0.000, 0.000, 0.000, 17:13:50.946
190, 61649.55, 0.00, 0.00, -187500.02, 0.00, 0.00, 0.00, 0.00, 0.000, 0.000, 0.000, 17:13:50.946
191, 61300.11, 0.00, 0.00, -187500.02, 0.00, 0.00, 0.00, 0.00, 0.000, 0.000, 0.000, 17:13:50.946
192, 61080.05, 0.00, 0.00, -187500.02, 0.00, 0.00, 0.00, 0.00, 0.000, 0.000, 0.000, 17:13:50.946
193, 61393.38, 0.00, 0.00, -187500.02, 0.00, 0.00, 0.00, 0.00, 0.000, 0.000, 0.000, 17:13:50.946
194, 61649.89, 0.00, 0.00, -187500.02, 0.00, 0.00, 0.00, 0.00, 0.000, 0.000, 0.000, 17:13:50.946
195, 61372.05, 0.00, 0.00, -187500.02, 0.00, 0.00, 0.00, 0.00, 0.000, 0.000, 0.000, 17:13:50.946
196, 61072.47, 0.00, 0.00, -187500.02, 0.00, 0.00, 0.00, 0.00, 0.000, 0.000, 0.000, 17:13:50.946
197, 61319.39, 0.00, 0.00, -187500.02, 0.00, 0.00, 0.00, 0.00, 0.000, 0.000, 0.000, 17:13:50.946
198, 61652.59, 0.00, 0.00, -187500.02, 0.00, 0.00, 0.00, 0.00, -0.358, 0.376, -0.858, 17:13:50.946
199, 61458.82, 0.00, 0.00, -187500.02, 0.00, 0.00, 0.00, 0.00, 0.000, 0.000, 0.000, 17:13:50.946
200, 61097.71, 0.00, 0.00, -187500.02, 0.00, 0.00, 0.00, 0.00, 0.000, 0.000, 0.000, 17:13:50.946
201, 61243.00, 0.00, 0.00, -187500.02, 0.00, 0.00, 0.00, 0.00, 0.000, 0.000, 0.000, 17:13:50.947
202, 61622.55, 0.00, 0.00, -187500.02, 0.00, 0.00, 0.00, 0.00, 0.000, 0.000, 0.000, 17:13:50.947
203, 61522.37, 0.00, 0.00, -187500.02, 0.00, 0.00, 0.00, 0.00, 0.000, 0.000, 0.000, 17:13:50.947
204, 61130.75, 0.00, 0.00, -187500.02, 0.00, 0.00, 0.00, 0.00, 0.000, 0.000, 0.000, 17:13:50.947
205, 61178.51, 0.00, 0.00, -187500.02, 0.00, 0.00, 0.00, 0.00, 0.000, 0.000, 0.000, 17:13:50.947
206, 61578.72, 0.00, 0.00, -187500.02, 0.00, 0.00, 0.00, 0.00, 0.000, 0.000, 0.000, 17:13:50.947
207, 61582.96, 0.00, 0.00, -187500.02, 0.00, 0.00, 0.00, 0.00, 0.000, 0.000, 0.000, 17:13:50.947
208, 61185.35, 0.00, 0.00, -187500.02, 0.00, 0.00, 0.00, 0.00, -0.352, 0.372, -0.858, 17:13:50.947
209, 61129.02, 0.00, 0.00, -187500.02, 0.00, 0.00, 0.00, 0.00, 0.000, 0.000, 0.000, 17:13:50.947
210, 61521.12, 0.00, 0.00, -187500.02, 0.00, 0.00, 0.00, 0.00, 0.000, 0.000, 0.000, 17:13:51.416
211, 61623.04, 0.00, 0.00, -187500.02, 0.00, 0.00, 0.00, 0.00, 0.000, 0.000, 0.000, 17:13:51.416
212, 61247.87, 0.00, 0.00, -187500.02, 0.00, 0.00, 0.00, 0.00, 0.000, 0.000, 0.000, 17:13:51.416
213, 61089.11, 0.00, 0.00, -187500.02, 0.00, 0.00, 0.00, 0.00, 0.000, 0.000, 0.000, 17:13:51.416
214, 61450.15, 0.00, 0.00, -187500.02, 0.00, 0.00, 0.00, 0.00, 0.000, 0.000, 0.000, 17:13:51.417
215, 61655.86, 0.00, 0.00, -187500.02, 0.00, 0.00, 0.00, 0.00, 0.000, 0.000, 0.000, 17:13:51.417
216, 61324.89, 0.00, 0.00, -187500.02, 0.00, 0.00, 0.00, 0.00, 0.000, 0.000, 0.000, 17:13:51.417
217, 61072.03, 0.00, 0.00, -187500.02, 0.00, 0.00, 0.00, 0.00, 0.000, 0.000, 0.000, 17:13:51.417
218, 61373.37, 0.00, 0.00, -187500.02, 0.00, 0.00, 0.00, 0.00, -0.350, 0.370, -0.858, 17:13:51.417
219, 61670.67, 0.00, 0.00, -187500.02, 0.00, 0.00, 0.00, 0.00, 0.000, 0.000, 0.000, 17:13:51.417
220, 61410.54, 0.00, 0.00, -187500.02, 0.00, 0.00, 0.00, 0.00, 0.000, 0.000, 0.000, 17:13:51.417
221, 61087.90, 0.00, 0.00, -187500.02, 0.00, 0.00, 0.00, 0.00, 0.000, 0.000, 0.000, 17:13:51.417
222, 61297.58, 0.00, 0.00, -187500.02, 0.00, 0.00, 0.00, 0.00, 0.000, 0.000, 0.000, 17:13:51.418
223, 61657.11, 0.00, 0.00, -187500.02, 0.00, 0.00, 0.00, 0.00, 0.000, 0.000, 0.000, 17:13:51.418
224, 61481.06, 0.00, 0.00, -187500.02, 0.00, 0.00, 0.00, 0.00, 0.000, 0.000, 0.000, 17:13:51.418
225, 61108.35, 0.00, 0.00, -187500.02, 0.00, 0.00, 0.00, 0.00, 0.000, 0.000, 0.000, 17:13:51.418
226, 61229.23, 0.00, 0.00, -187500.02, 0.00, 0.00, 0.00, 0.00, 0.000, 0.000, 0.000, 17:13:51.418
227, 61613.01, 0.00, 0.00, -187500.02, 0.00, 0.00, 0.00, 0.00, 0.000, 0.000, 0.000, 17:13:51.418
228, 61548.90, 0.00, 0.00, -187500.02, 0.00, 0.00, 0.00, 0.00, -0.356, 0.376, -0.854, 17:13:51.418
229, 61140.07, 0.00, 0.00, -187500.02, 0.00, 0.00, 0.00, 0.00, 0.000, 0.000, 0.000, 17:13:51.418
230, 61164.45, 0.00, 0.00, -187500.02, 0.00, 0.00, 0.00, 0.00, 0.000, 0.000, 0.000, 17:13:51.419
231, 61566.61, 0.00, 0.00, -187500.02, 0.00, 0.00, 0.00, 0.00, 0.000, 0.000, 0.000, 17:13:51.419
232, 61599.80, 0.00, 0.00, -187500.02, 0.00, 0.00, 0.00, 0.00, 0.000, 0.000, 0.000, 17:13:51.419
233, 61210.38, 0.00, 0.00, -187500.02, 0.00, 0.00, 0.00, 0.00, 0.000, 0.000, 0.000, 17:13:51.419
234, 61122.14, 0.00, 0.00, -187500.02, 0.00, 0.00, 0.00, 0.00, 0.000, 0.000, 0.000, 17:13:51.419
235, 61506.32, 0.00, 0.00, -187500.02, 0.00, 0.00, 0.00, 0.00, 0.000, 0.000, 0.000, 17:13:51.419
236, 61643.18, 0.00, 0.00, -187500.02, 0.00, 0.00, 0.00, 0.00, 0.000, 0.000, 0.000, 17:13:51.419
237, 61273.93, 0.00, 0.00, -187500.02, 0.00, 0.00, 0.00, 0.00, 0.000, 0.000, 0.000, 17:13:51.420
238, 61090.42, 0.00, 0.00, -187500.02, 0.00, 0.00, 0.00, 0.00, -0.354, 0.376, -0.852, 17:13:51.420
239, 61429.88, 0.00, 0.00, -187500.02, 0.00, 0.00, 0.00, 0.00, 0.000, 0.000, 0.000, 17:13:51.420
240, 61666.79, 0.00, 0.00, -187500.02, 0.00, 0.00, 0.00, 0.00, 0.000, 0.000, 0.000, 17:13:51.420
241, 61361.66, 0.00, 0.00, -187500.02, 0.00, 0.00, 0.00, 0.00, 0.000, 0.000, 0.000, 17:13:51.421
242, 61088.39, 0.00, 0.00, -187500.02, 0.00, 0.00, 0.00, 0.00, 0.000, 0.000, 0.000, 17:13:51.421
243, 61358.20, 0.00, 0.00, -187500.02, 0.00, 0.00, 0.00, 0.00, 0.000, 0.000, 0.000, 17:13:51.421
244, 61664.01, 0.00, 0.00, -187500.02, 0.00, 0.00, 0.00, 0.00, 0.000, 0.000, 0.000, 17:13:51.421
245, 61431.33, 0.00, 0.00, -187500.02, 0.00, 0.00, 0.00, 0.00, 0.000, 0.000, 0.000, 17:13:51.421
246, 61082.93, 0.00, 0.00, -187500.02, 0.00, 0.00, 0.00, 0.00, 0.000, 0.000, 0.000, 17:13:51.421
247, 61262.57, 0.00, 0.00, -187500.02, 0.00, 0.00, 0.00, 0.00, 0.000, 0.000, 0.000, 17:13:51.421
248, 61644.99, 0.00, 0.00, -187500.02, 0.00, 0.00, 0.00, 0.00, -0.354, 0.372, -0.850, 17:13:51.422
249, 61505.52, 0.00, 0.00, -187500.02, 0.00, 0.00, 0.00, 0.00, 0.000, 0.000, 0.000, 17:13:51.422
250, 61107.03, 0.00, 0.00, -187500.02, 0.00, 0.00, 0.00, 0.00, 0.000, 0.000, 0.000, 17:13:51.422
251, 61191.50, 0.00, 0.00, -187500.02, 0.00, 0.00, 0.00, 0.00, 0.000, 0.000, 0.000, 17:13:51.422
252, 61589.43, 0.00, 0.00, -187500.02, 0.00, 0.00, 0.00, 0.00, 0.000, 0.000, 0.000, 17:13:51.422
253, 61567.34, 0.00, 0.00, -187500.02, 0.00, 0.00, 0.00, 0.00, 0.000, 0.000, 0.000, 17:13:51.422
254, 61163.00, 0.00, 0.00, -187500.02, 0.00, 0.00, 0.00, 0.00, 0.000, 0.000, 0.000, 17:13:51.422
255, 61139.84, 0.00, 0.00, -187500.02, 0.00, 0.00, 0.00, 0.00, 0.000, 0.000, 0.000, 17:13:51.423
0, 61543.16, 0.00, 0.00, -187500.02, 0.00, 0.00, 0.00, 0.00, 0.000, 0.000, 0.000, 17:13:51.423
1, 61610.64, 0.00, 0.00, -187500.02, 0.00, 0.00, 0.00, 0.00, 0.000, 0.000, 0.000, 17:13:51.423
2, 61227.19, 0.00, 0.00, -187500.02, 0.00, 0.00, 0.00, 0.00, -0.352, 0.374, -0.852, 17:13:51.423
3, 61102.54, 0.00, 0.00, -187500.02, 0.00, 0.00, 0.00, 0.00, 0.000, 0.000, 0.000, 17:13:51.423
4, 61473.73, 0.00, 0.00, -187500.02, 0.00, 0.00, 0.00, 0.00, 0.000, 0.000, 0.000, 17:13:51.423
5, 61653.35, 0.00, 0.00, -187500.02, 0.00, 0.00, 0.00, 0.00, 0.000, 0.000, 0.000, 17:13:51.423
6, 61300.80, 0.00, 0.00, -187500.02, 0.00, 0.00, 0.00, 0.00, 0.000, 0.000, 0.000, 17:13:51.424
7, 61071.76, 0.00, 0.00, -187500.02, 0.00, 0.00, 0.00, 0.00, 0.000, 0.000, 0.000, 17:13:51.424
8, 61391.28, 0.00, 0.00, -187500.02, 0.00, 0.00, 0.00, 0.00, 0.000, 0.000, 0.000, 17:13:51.424
9, 61670.90, 0.00, 0.00, -187500.02, 0.00, 0.00, 0.00, 0.00, 0.000, 0.000, 0.000, 17:13:51.424
10, 61383.32, 0.00, 0.00, -187500.02, 0.00, 0.00, 0.00, 0.00, 0.000, 0.000, 0.000, 17:13:51.424
11, 61071.78, 0.00, 0.00, -187500.02, 0.00, 0.00, 0.00, 0.00, 0.000, 0.000, 0.000, 17:13:51.424
12, 61314.16, 0.00, 0.00, -187500.02, 0.00, 0.00, 0.00, 0.00, -0.356, 0.370, -0.854, 17:13:51.425
13, 61648.99, 0.00, 0.00, -187500.02, 0.00, 0.00, 0.00, 0.00, 0.000, 0.000, 0.000, 17:13:51.425
14, 61453.46, 0.00, 0.00, -187500.02, 0.00, 0.00, 0.00, 0.00, 0.000, 0.000, 0.000, 17:13:51.425
15, 61099.00, 0.00, 0.00, -187500.02, 0.00, 0.00, 0.00, 0.00, 0.000, 0.000, 0.000, 17:13:51.425
16, 61254.30, 0.00, 0.00, -187500.02, 0.00, 0.00, 0.00, 0.00, 0.000, 0.000, 0.000, 17:13:51.426
17, 61630.51, 0.00, 0.00, -187500.02, 0.00, 0.00, 0.00, 0.00, 0.000, 0.000, 0.000, 17:13:51.426
18, 61529.86, 0.00, 0.00, -187500.02, 0.00, 0.00, 0.00, 0.00, 0.000, 0.000, 0.000, 17:13:51.426
19, 61139.42, 0.00, 0.00, -187500.02, 0.00, 0.00, 0.00, 0.00, 0.000, 0.000, 0.000, 17:13:51.426
20, 61186.98, 0.00, 0.00, -187500.02, 0.00, 0.00, 0.00, 0.00, 0.000, 0.000, 0.000, 17:13:51.426
21, 61590.30, 0.00, 0.00, -187500.02, 0.00, 0.00, 0.00, 0.00, 0.000, 0.000, 0.000, 17:13:51.427
22, 61594.10, 0.00, 0.00, -187500.02, 0.00, 0.00, 0.00, 0.00, -0.356, 0.376, -0.854, 17:13:51.427
23, 61193.80, 0.00, 0.00, -187500.02, 0.00, 0.00, 0.00, 0.00, 0.000, 0.000, 0.000, 17:13:51.427
24, 61138.95, 0.00, 0.00, -187500.02, 0.00, 0.00, 0.00, 0.00, 0.000, 0.000, 0.000, 17:13:51.427
25, 61528.25, 0.00, 0.00, -187500.02, 0.00, 0.00, 0.00, 0.00, 0.000, 0.000, 0.000, 17:13:51.427
26, 61635.36, 0.00, 0.00, -187500.02, 0.00, 0.00, 0.00, 0.00, 0.000, 0.000, 0.000, 17:13:51.429
27, 61261.19, 0.00, 0.00, -187500.02, 0.00, 0.00, 0.00, 0.00, 0.000, 0.000, 0.000, 17:13:51.430
28, 61101.26, 0.00, 0.00, -187500.02, 0.00, 0.00, 0.00, 0.00, 0.000, 0.000, 0.000, 17:13:51.430
29, 61451.13, 0.00, 0.00, -187500.02, 0.00, 0.00, 0.00, 0.00, 0.000, 0.000, 0.000, 17:13:51.430
30, 61663.61, 0.00, 0.00, -187500.02, 0.00, 0.00, 0.00, 0.00, 0.000, 0.000, 0.000, 17:13:51.430
31, 61330.21, 0.00, 0.00, -187500.02, 0.00, 0.00, 0.00, 0.00, 0.000, 0.000, 0.000, 17:13:51.430
32, 61080.57, 0.00, 0.00, -187500.02, 0.00, 0.00, 0.00, 0.00, -0.356, 0.372, -0.848, 17:13:51.431
33, 61372.93, 0.00, 0.00, -187500.02, 0.00, 0.00, 0.00, 0.00, 0.000, 0.000, 0.000, 17:13:51.431
34, 61659.86, 0.00, 0.00, -187500.02, 0.00, 0.00, 0.00, 0.00, 0.000, 0.000, 0.000, 17:13:51.431
35, 61410.66, 0.00, 0.00, -187500.02, 0.00, 0.00, 0.00, 0.00, 0.000, 0.000, 0.000, 17:13:51.431
36, 61089.98, 0.00, 0.00, -187500.02, 0.00, 0.00, 0.00, 0.00, 0.000, 0.000, 0.000, 17:13:51.431
37, 61303.08, 0.00, 0.00, -187500.02, 0.00, 0.00, 0.00, 0.00, 0.000, 0.000, 0.000, 17:13:51.431
38, 61657.51, 0.00, 0.00, -187500.02, 0.00, 0.00, 0.00, 0.00, 0.000, 0.000, 0.000, 17:13:51.432
39, 61481.73, 0.00, 0.00, -187500.02, 0.00, 0.00, 0.00, 0.00, 0.000, 0.000, 0.000, 17:13:51.432
40, 61106.23, 0.00, 0.00, -187500.02, 0.00, 0.00, 0.00, 0.00, 0.000, 0.000, 0.000, 17:13:51.432
41, 61227.19, 0.00, 0.00, -187500.02, 0.00, 0.00, 0.00, 0.00, -0.358, 0.374, -0.848, 17:13:51.432
42, 61629.41, 0.00, 0.00, -187500.02, 0.00, 0.00, 0.00, 0.00, 0.000, 0.000, 0.000, 17:13:51.432
43, 61562.04, 0.00, 0.00, -187500.02, 0.00, 0.00, 0.00, 0.00, 0.000, 0.000, 0.000, 17:13:51.432
44, 61150.79, 0.00, 0.00, -187500.02, 0.00, 0.00, 0.00, 0.00, 0.000, 0.000, 0.000, 17:13:51.433
45, 61166.35, 0.00, 0.00, -187500.02, 0.00, 0.00, 0.00, 0.00, 0.000, 0.000, 0.000, 17:13:51.433
46, 61572.66, 0.00, 0.00, -187500.02, 0.00, 0.00, 0.00, 0.00, 0.000, 0.000, 0.000, 17:13:51.433
47, 61602.95, 0.00, 0.00, -187500.02, 0.00, 0.00, 0.00, 0.00, 0.000, 0.000, 0.000, 17:13:51.434
48, 61206.54, 0.00, 0.00, -187500.02, 0.00, 0.00, 0.00, 0.00, 0.000, 0.000, 0.000, 17:13:51.434
49, 61112.98, 0.00, 0.00, -187500.02, 0.00, 0.00, 0.00, 0.00, 0.000, 0.000, 0.000, 17:13:51.434
50, 61501.67, 0.00, 0.00, -187500.02, 0.00, 0.00, 0.00, 0.00, 0.000, 0.000, 0.000, 17:13:51.434
51, 61641.73, 0.00, 0.00, -187500.02, 0.00, 0.00, 0.00, 0.00, -0.362, 0.376, -0.854, 17:13:51.434
52, 61277.30, 0.00, 0.00, -187500.02, 0.00, 0.00, 0.00, 0.00, 0.000, 0.000, 0.000, 17:13:51.434
53, 61084.86, 0.00, 0.00, -187500.02, 0.00, 0.00, 0.00, 0.00, 0.000, 0.000, 0.000, 17:13:51.434
54, 61428.76, 0.00, 0.00, -187500.02, 0.00, 0.00, 0.00, 0.00, 0.000, 0.000, 0.000, 17:13:51.434
55, 61663.25, 0.00, 0.00, -187500.02, 0.00, 0.00, 0.00, 0.00, 0.000, 0.000, 0.000, 17:13:51.435
56, 61357.86, 0.00, 0.00, -187500.02, 0.00, 0.00, 0.00, 0.00, 0.000, 0.000, 0.000, 17:13:51.435
57, 61081.04, 0.00, 0.00, -187500.02, 0.00, 0.00, 0.00, 0.00, 0.000, 0.000, 0.000, 17:13:51.435
58, 61355.94, 0.00, 0.00, -187500.02, 0.00, 0.00, 0.00, 0.00, 0.000, 0.000, 0.000, 17:13:51.435
59, 61660.14, 0.00, 0.00, -187500.02, 0.00, 0.00, 0.00, 0.00, 0.000, 0.000, 0.000, 17:13:51.435
60, 61432.45, 0.00, 0.00, -187500.02, 0.00, 0.00, 0.00, 0.00, 0.000, 0.000, 0.000, 17:13:51.435
61, 61087.79, 0.00, 0.00, -187500.02, 0.00, 0.00, 0.00, 0.00, -0.360, 0.376, -0.852, 17:13:51.435
62, 61271.36, 0.00, 0.00, -187500.02, 0.00, 0.00, 0.00, 0.00, 0.000, 0.000, 0.000, 17:13:51.435
63, 61633.93, 0.00, 0.00, -187500.02, 0.00, 0.00, 0.00, 0.00, 0.000, 0.000, 0.000, 17:13:51.436
64, 61499.73, 0.00, 0.00, -187500.02, 0.00, 0.00, 0.00, 0.00, 0.000, 0.000, 0.000, 17:13:51.436
65, 61113.36, 0.00, 0.00, -187500.02, 0.00, 0.00, 0.00, 0.00, 0.000, 0.000, 0.000, 17:13:51.436
66, 61202.67, 0.00, 0.00, -187500.02, 0.00, 0.00, 0.00, 0.00, 0.000, 0.000, 0.000, 17:13:51.436
67, 61606.25, 0.00, 0.00, -187500.02, 0.00, 0.00, 0.00, 0.00, 0.000, 0.000, 0.000, 17:13:51.436
68, 61568.13, 0.00, 0.00, -187500.02, 0.00, 0.00, 0.00, 0.00, 0.000, 0.000, 0.000, 17:13:51.436
69, 61170.04, 0.00, 0.00, -187500.02, 0.00, 0.00, 0.00, 0.00, 0.000, 0.000, 0.000, 17:13:51.436
70, 61150.97, 0.00, 0.00, -187500.02, 0.00, 0.00, 0.00, 0.00, 0.000, 0.000, 0.000, 17:13:51.436
71, 61537.30, 0.00, 0.00, -187500.02, 0.00, 0.00, 0.00, 0.00, -0.352, 0.380, -0.854, 17:13:51.437
72, 61621.03, 0.00, 0.00, -187500.02, 0.00, 0.00, 0.00, 0.00, 0.000, 0.000, 0.000, 17:13:51.437
73, 61233.00, 0.00, 0.00, -187500.02, 0.00, 0.00, 0.00, 0.00, 0.000, 0.000, 0.000, 17:13:51.437
74, 61107.88, 0.00, 0.00, -187500.02, 0.00, 0.00, 0.00, 0.00, 0.000, 0.000, 0.000, 17:13:51.898
75, 61479.34, 0.00, 0.00, -187500.02, 0.00, 0.00, 0.00, 0.00, 0.000, 0.000, 0.000, 17:13:51.898
76, 61650.87, 0.00, 0.00, -187500.02, 0.00, 0.00, 0.00, 0.00, 0.000, 0.000, 0.000, 17:13:51.899
77, 61301.42, 0.00, 0.00, -187500.02, 0.00, 0.00, 0.00, 0.00, 0.000, 0.000, 0.000, 17:13:51.899
78, 61085.77, 0.00, 0.00, -187500.02, 0.00, 0.00, 0.00, 0.00, 0.000, 0.000, 0.000, 17:13:51.899
79, 61409.05, 0.00, 0.00, -187500.02, 0.00, 0.00, 0.00, 0.00, 0.000, 0.000, 0.000, 17:13:51.899
80, 61669.36, 0.00, 0.00, -187500.02, 0.00, 0.00, 0.00, 0.00, 0.000, 0.000, 0.000, 17:13:51.899
81, 61383.83, 0.00, 0.00, -187500.02, 0.00, 0.00, 0.00, 0.00, -0.354, 0.376, -0.856, 17:13:51.899
82, 61080.57, 0.00, 0.00, -187500.02, 0.00, 0.00, 0.00, 0.00, 0.000, 0.000, 0.000, 17:13:51.900
83, 61331.71, 0.00, 0.00, -187500.02, 0.00, 0.00, 0.00, 0.00, 0.000, 0.000, 0.000, 17:13:51.900
84, 61663.39, 0.00, 0.00, -187500.02, 0.00, 0.00, 0.00, 0.00, 0.000, 0.000, 0.000, 17:13:51.900
85, 61458.71, 0.00, 0.00, -187500.02, 0.00, 0.00, 0.00, 0.00, 0.000, 0.000, 0.000, 17:13:51.900
86, 61097.82, 0.00, 0.00, -187500.02, 0.00, 0.00, 0.00, 0.00, 0.000, 0.000, 0.000, 17:13:51.900
87, 61251.11, 0.00, 0.00, -187500.02, 0.00, 0.00, 0.00, 0.00, 0.000, 0.000, 0.000, 17:13:51.900
88, 61638.64, 0.00, 0.00, -187500.02, 0.00, 0.00, 0.00, 0.00, 0.000, 0.000, 0.000, 17:13:51.900
89, 61533.41, 0.00, 0.00, -187500.02, 0.00, 0.00, 0.00, 0.00, 0.000, 0.000, 0.000, 17:13:51.900
90, 61144.76, 0.00, 0.00, -187500.02, 0.00, 0.00, 0.00, 0.00, 0.000, 0.000, 0.000, 17:13:51.900
91, 61200.37, 0.00, 0.00, -187500.02, 0.00, 0.00, 0.00, 0.00, -0.350, 0.380, -0.852, 17:13:51.900
92, 61605.00, 0.00, 0.00, -187500.02, 0.00, 0.00, 0.00, 0.00, 0.000, 0.000, 0.000, 17:13:51.900
93, 61594.01, 0.00, 0.00, -187500.02, 0.00, 0.00, 0.00, 0.00, 0.000, 0.000, 0.000, 17:13:51.900
94, 61192.95, 0.00, 0.00, -187500.02, 0.00, 0.00, 0.00, 0.00, 0.000, 0.000, 0.000, 17:13:51.900
95, 61139.46, 0.00, 0.00, -187500.02, 0.00, 0.00, 0.00, 0.00, 0.000, 0.000, 0.000, 17:13:51.901
96, 61544.32, 0.00, 0.00, -187500.02, 0.00, 0.00, 0.00, 0.00, 0.000, 0.000, 0.000, 17:13:51.901
97, 61647.70, 0.00, 0.00, -187500.02, 0.00, 0.00, 0.00, 0.00, 0.000, 0.000, 0.000, 17:13:51.901
98, 61266.20, 0.00, 0.00, -187500.02, 0.00, 0.00, 0.00, 0.00, 0.000, 0.000, 0.000, 17:13:51.901
99, 61106.61, 0.00, 0.00, -187500.02, 0.00, 0.00, 0.00, 0.00, 0.000, 0.000, 0.000, 17:13:51.901
100, 61472.05, 0.00, 0.00, -187500.02, 0.00, 0.00, 0.00, 0.00, 0.000, 0.000, 0.000, 17:13:51.901
101, 61670.56, 0.00, 0.00, -187500.02, 0.00, 0.00, 0.00, 0.00, -0.352, 0.378, -0.858, 17:13:51.901
102, 61337.19, 0.00, 0.00, -187500.02, 0.00, 0.00, 0.00, 0.00, 0.000, 0.000, 0.000, 17:13:51.901
103, 61094.49, 0.00, 0.00, -187500.02, 0.00, 0.00, 0.00, 0.00, 0.000, 0.000, 0.000, 17:13:51.901
104, 61388.48, 0.00, 0.00, -187500.02, 0.00, 0.00, 0.00, 0.00, 0.000, 0.000, 0.000, 17:13:51.901
105, 61668.62, 0.00, 0.00, -187500.02, 0.00, 0.00, 0.00, 0.00, 0.000, 0.000, 0.000, 17:13:51.901
106, 61412.96, 0.00, 0.00, -187500.02, 0.00, 0.00, 0.00, 0.00, 0.000, 0.000, 0.000, 17:13:51.901
107, 61091.45, 0.00, 0.00, -187500.02, 0.00, 0.00, 0.00, 0.00, 0.000, 0.000, 0.000, 17:13:51.901
108, 61307.57, 0.00, 0.00, -187500.02, 0.00, 0.00, 0.00, 0.00, 0.000, 0.000, 0.000, 17:13:51.901
109, 61659.36, 0.00, 0.00, -187500.02, 0.00, 0.00, 0.00, 0.00, 0.000, 0.000, 0.000, 17:13:51.901
110, 61487.21, 0.00, 0.00, -187500.02, 0.00, 0.00, 0.00, 0.00, 0.000, 0.000, 0.000, 17:13:51.902
111, 61120.73, 0.00, 0.00, -187500.02, 0.00, 0.00, 0.00, 0.00, -0.356, 0.374, -0.852, 17:13:51.902
112, 61242.62, 0.00, 0.00, -187500.02, 0.00, 0.00, 0.00, 0.00, 0.000, 0.000, 0.000, 17:13:51.902
113, 61620.76, 0.00, 0.00, -187500.02, 0.00, 0.00, 0.00, 0.00, 0.000, 0.000, 0.000, 17:13:51.902
114, 61551.29, 0.00, 0.00, -187500.02, 0.00, 0.00, 0.00, 0.00, 0.000, 0.000, 0.000, 17:13:51.902
115, 61161.72, 0.00, 0.00, -187500.02, 0.00, 0.00, 0.00, 0.00, 0.000, 0.000, 0.000, 17:13:51.902
116, 61175.70, 0.00, 0.00, -187500.02, 0.00, 0.00, 0.00, 0.00, 0.000, 0.000, 0.000, 17:13:51.902
117, 61577.40, 0.00, 0.00, -187500.02, 0.00, 0.00, 0.00, 0.00, 0.000, 0.000, 0.000, 17:13:51.902
118, 61615.13, 0.00, 0.00, -187500.02, 0.00, 0.00, 0.00, 0.00, 0.000, 0.000, 0.000, 17:13:51.902
119, 61218.30, 0.00, 0.00, -187500.02, 0.00, 0.00, 0.00, 0.00, 0.000, 0.000, 0.000, 17:13:51.902
120, 61127.64, 0.00, 0.00, -187500.02, 0.00, 0.00, 0.00, 0.00, 0.000, 0.000, 0.000, 17:13:51.902
121, 61508.38, 0.00, 0.00, -187500.02, 0.00, 0.00, 0.00, 0.00, -0.356, 0.374, -0.862, 17:13:51.902
122, 61645.57, 0.00, 0.00, -187500.02, 0.00, 0.00, 0.00, 0.00, 0.000, 0.000, 0.000, 17:13:51.902
123, 61277.60, 0.00, 0.00, -187500.02, 0.00, 0.00, 0.00, 0.00, 0.000, 0.000, 0.000, 17:13:51.903
124, 61094.96, 0.00, 0.00, -187500.02, 0.00, 0.00, 0.00, 0.00, 0.000, 0.000, 0.000, 17:13:51.903
125, 61436.47, 0.00, 0.00, -187500.02, 0.00, 0.00, 0.00, 0.00, 0.000, 0.000, 0.000, 17:13:51.903
126, 61667.75, 0.00, 0.00, -187500.02, 0.00, 0.00, 0.00, 0.00, 0.000, 0.000, 0.000, 17:13:51.903
127, 61360.41, 0.00, 0.00, -187500.02, 0.00, 0.00, 0.00, 0.00, 0.000, 0.000, 0.000, 17:13:51.903
128, 61088.70, 0.00, 0.00, -187500.02, 0.00, 0.00, 0.00, 0.00, 0.000, 0.000, 0.000, 17:13:51.903
129, 61360.10, 0.00, 0.00, -187500.02, 0.00, 0.00, 0.00, 0.00, 0.000, 0.000, 0.000, 17:13:51.903
130, 61673.02, 0.00, 0.00, -187500.02, 0.00, 0.00, 0.00, 0.00, 0.000, 0.000, 0.000, 17:13:51.903
131, 61450.62, 0.00, 0.00, -187500.02, 0.00, 0.00, 0.00, 0.00, -0.352, 0.376, -0.856, 17:13:51.903
132, 61100.08, 0.00, 0.00, -187500.02, 0.00, 0.00, 0.00, 0.00, 0.000, 0.000, 0.000, 17:13:51.903
133, 61287.09, 0.00, 0.00, -187500.02, 0.00, 0.00, 0.00, 0.00, 0.000, 0.000, 0.000, 17:13:51.903
134, 61652.70, 0.00, 0.00, -187500.02, 0.00, 0.00, 0.00, 0.00, 0.000, 0.000, 0.000, 17:13:51.903
135, 61517.81, 0.00, 0.00, -187500.02, 0.00, 0.00, 0.00, 0.00, 0.000, 0.000, 0.000, 17:13:51.903
136, 61133.14, 0.00, 0.00, -187500.02, 0.00, 0.00, 0.00, 0.00, 0.000, 0.000, 0.000, 17:13:51.903
137, 61215.97, 0.00, 0.00, -187500.02, 0.00, 0.00, 0.00, 0.00, 0.000, 0.000, 0.000, 17:13:51.903
138, 61609.30, 0.00, 0.00, -187500.02, 0.00, 0.00, 0.00, 0.00, 0.000, 0.000, 0.000, 17:13:51.904
139, 61576.06, 0.00, 0.00, -187500.02, 0.00, 0.00, 0.00, 0.00, 0.000, 0.000, 0.000, 17:13:51.904
140, 61175.54, 0.00, 0.00, -187500.02, 0.00, 0.00, 0.00, 0.00, 0.000, 0.000, 0.000, 17:13:51.904
141, 61157.05, 0.00, 0.00, -187500.02, 0.00, 0.00, 0.00, 0.00, -0.352, 0.374, -0.858, 17:13:51.904
142, 61560.34, 0.00, 0.00, -187500.02, 0.00, 0.00, 0.00, 0.00, 0.000, 0.000, 0.000, 17:13:51.904
143, 61626.98, 0.00, 0.00, -187500.02, 0.00, 0.00, 0.00, 0.00, 0.000, 0.000, 0.000, 17:13:51.904
144, 61235.42, 0.00, 0.00, -187500.02, 0.00, 0.00, 0.00, 0.00, 0.000, 0.000, 0.000, 17:13:51.904
145, 61116.29, 0.00, 0.00, -187500.02, 0.00, 0.00, 0.00, 0.00, 0.000, 0.000, 0.000, 17:13:51.904
146, 61482.85, 0.00, 0.00, -187500.02, 0.00, 0.00, 0.00, 0.00, 0.000, 0.000, 0.000, 17:13:51.904
147, 61668.59, 0.00, 0.00, -187500.02, 0.00, 0.00, 0.00, 0.00, 0.000, 0.000, 0.000, 17:13:51.904
148, 61317.00, 0.00, 0.00, -187500.02, 0.00, 0.00, 0.00, 0.00, 0.000, 0.000, 0.000, 17:13:51.904
149, 61095.27, 0.00, 0.00, -187500.02, 0.00, 0.00, 0.00, 0.00, 0.000, 0.000, 0.000, 17:13:51.904
150, 61414.57, 0.00, 0.00, -187500.02, 0.00, 0.00, 0.00, 0.00, -0.350, 0.376, -0.858, 17:13:51.904
151, 61672.06, 0.00, 0.00, -187500.02, 0.00, 0.00, 0.00, 0.00, 0.000, 0.000, 0.000, 17:13:51.904
152, 61391.01, 0.00, 0.00, -187500.02, 0.00, 0.00, 0.00, 0.00, 0.000, 0.000, 0.000, 17:13:51.905
153, 61089.39, 0.00, 0.00, -187500.02, 0.00, 0.00, 0.00, 0.00, 0.000, 0.000, 0.000, 17:13:51.905
154, 61336.22, 0.00, 0.00, -187500.02, 0.00, 0.00, 0.00, 0.00, 0.000, 0.000, 0.000, 17:13:51.905
155, 61658.31, 0.00, 0.00, -187500.02, 0.00, 0.00, 0.00, 0.00, 0.000, 0.000, 0.000, 17:13:51.905
156, 61451.94, 0.00, 0.00, -187500.02, 0.00, 0.00, 0.00, 0.00, 0.000, 0.000, 0.000, 17:13:51.905
157, 61101.04, 0.00, 0.00, -187500.02, 0.00, 0.00, 0.00, 0.00, 0.000, 0.000, 0.000, 17:13:51.905
158, 61256.36, 0.00, 0.00, -187500.02, 0.00, 0.00, 0.00, 0.00, 0.000, 0.000, 0.000, 17:13:51.905
159, 61638.62, 0.00, 0.00, -187500.02, 0.00, 0.00, 0.00, 0.00, 0.000, 0.000, 0.000, 17:13:51.905
160, 61530.80, 0.00, 0.00, -187500.02, 0.00, 0.00, 0.00, 0.00, -0.356, 0.378, -0.860, 17:13:51.905
161, 61149.48, 0.00, 0.00, -187500.02, 0.00, 0.00, 0.00, 0.00, 0.000, 0.000, 0.000, 17:13:51.905
162, 61208.08, 0.00, 0.00, -187500.02, 0.00, 0.00, 0.00, 0.00, 0.000, 0.000, 0.000, 17:13:51.906
163, 61599.53, 0.00, 0.00, -187500.02, 0.00, 0.00, 0.00, 0.00, 0.000, 0.000, 0.000, 17:13:51.906
164, 61589.80, 0.00, 0.00, -187500.02, 0.00, 0.00, 0.00, 0.00, 0.000, 0.000, 0.000, 17:13:51.906
165, 61190.78, 0.00, 0.00, -187500.02, 0.00, 0.00, 0.00, 0.00, 0.000, 0.000, 0.000, 17:13:51.907
166, 61138.39, 0.00, 0.00, -187500.02, 0.00, 0.00, 0.00, 0.00, 0.000, 0.000, 0.000, 17:13:51.907
167, 61534.46, 0.00, 0.00, -187500.02, 0.00, 0.00, 0.00, 0.00, 0.000, 0.000, 0.000, 17:13:51.907
168, 61640.66, 0.00, 0.00, -187500.02, 0.00, 0.00, 0.00, 0.00, 0.000, 0.000, 0.000, 17:13:51.907
169, 61254.13, 0.00, 0.00, -187500.02, 0.00, 0.00, 0.00, 0.00, 0.000, 0.000, 0.000, 17:13:51.907
170, 61094.47, 0.00, 0.00, -187500.02, 0.00, 0.00, 0.00, 0.00, -0.354, 0.376, -0.866, 17:13:51.908
171, 61457.26, 0.00, 0.00, -187500.02, 0.00, 0.00, 0.00, 0.00, 0.000, 0.000, 0.000, 17:13:51.908
172, 61654.07, 0.00, 0.00, -187500.02, 0.00, 0.00, 0.00, 0.00, 0.000, 0.000, 0.000, 17:13:51.908
173, 61319.77, 0.00, 0.00, -187500.02, 0.00, 0.00, 0.00, 0.00, 0.000, 0.000, 0.000, 17:13:51.908
174, 61081.71, 0.00, 0.00, -187500.02, 0.00, 0.00, 0.00, 0.00, 0.000, 0.000, 0.000, 17:13:51.908
175, 61382.22, 0.00, 0.00, -187500.02, 0.00, 0.00, 0.00, 0.00, 0.000, 0.000, 0.000, 17:13:51.908
176, 61662.34, 0.00, 0.00, -187500.02, 0.00, 0.00, 0.00, 0.00, 0.000, 0.000, 0.000, 17:13:51.908
177, 61399.08, 0.00, 0.00, -187500.02, 0.00, 0.00, 0.00, 0.00, 0.000, 0.000, 0.000, 17:13:51.908
178, 61079.67, 0.00, 0.00, -187500.02, 0.00, 0.00, 0.00, 0.00, 0.000, 0.000, 0.000, 17:13:51.908
179, 61287.45, 0.00, 0.00, -187500.02, 0.00, 0.00, 0.00, 0.00, 0.000, 0.000, 0.000, 17:13:51.908
180, 61634.29, 0.00, 0.00, -187500.02, 0.00, 0.00, 0.00, 0.00, -0.354, 0.372, -0.862, 17:13:51.908
181, 61469.06, 0.00, 0.00, -187500.02, 0.00, 0.00, 0.00, 0.00, 0.000, 0.000, 0.000, 17:13:51.908
182, 61096.99, 0.00, 0.00, -187500.02, 0.00, 0.00, 0.00, 0.00, 0.000, 0.000, 0.000, 17:13:51.908
183, 61214.23, 0.00, 0.00, -187500.02, 0.00, 0.00, 0.00, 0.00, 0.000, 0.000, 0.000, 17:13:51.909
184, 61612.38, 0.00, 0.00, -187500.02, 0.00, 0.00, 0.00, 0.00, 0.000, 0.000, 0.000, 17:13:51.909
185, 61553.57, 0.00, 0.00, -187500.02, 0.00, 0.00, 0.00, 0.00, 0.000, 0.000, 0.000, 17:13:51.909
186, 61154.50, 0.00, 0.00, -187500.02, 0.00, 0.00, 0.00, 0.00, 0.000, 0.000, 0.000, 17:13:51.909
187, 61165.79, 0.00, 0.00, -187500.02, 0.00, 0.00, 0.00, 0.00, 0.000, 0.000, 0.000, 17:13:51.909
188, 61559.56, 0.00, 0.00, -187500.02, 0.00, 0.00, 0.00, 0.00, 0.000, 0.000, 0.000, 17:13:51.909
189, 61587.08, 0.00, 0.00, -187500.02, 0.00, 0.00, 0.00, 0.00, 0.000, 0.000, 0.000, 17:13:51.909
190, 61190.29, 0.00, 0.00, -187500.02, 0.00, 0.00, 0.00, 0.00, -0.352, 0.370, -0.858, 17:13:51.909
191, 61109.38, 0.00, 0.00, -187500.02, 0.00, 0.00, 0.00, 0.00, 0.000, 0.000, 0.000, 17:13:51.909
192, 61497.38, 0.00, 0.00, -187500.02, 0.00, 0.00, 0.00, 0.00, 0.000, 0.000, 0.000, 17:13:51.910
193, 61633.39, 0.00, 0.00, -187500.02, 0.00, 0.00, 0.00, 0.00, 0.000, 0.000, 0.000, 17:13:51.910
194, 61267.45, 0.00, 0.00, -187500.02, 0.00, 0.00, 0.00, 0.00, 0.000, 0.000, 0.000, 17:13:51.910
195, 61074.98, 0.00, 0.00, -187500.02, 0.00, 0.00, 0.00, 0.00, 0.000, 0.000, 0.000, 17:13:52.418
196, 61424.43, 0.00, 0.00, -187500.02, 0.00, 0.00, 0.00, 0.00, 0.000, 0.000, 0.000, 17:13:52.418
197, 61657.35, 0.00, 0.00, -187500.02, 0.00, 0.00, 0.00, 0.00, 0.000, 0.000, 0.000, 17:13:52.418
198, 61346.17, 0.00, 0.00, -187500.02, 0.00, 0.00, 0.00, 0.00, 0.000, 0.000, 0.000, 17:13:52.418
199, 61067.51, 0.00, 0.00, -187500.02, 0.00, 0.00, 0.00, 0.00, 0.000, 0.000, 0.000, 17:13:52.418
200, 61335.09, 0.00, 0.00, -187500.02, 0.00, 0.00, 0.00, 0.00, -0.354, 0.368, -0.854, 17:13:52.418
201, 61649.02, 0.00, 0.00, -187500.02, 0.00, 0.00, 0.00, 0.00, 0.000, 0.000, 0.000, 17:13:52.418
202, 61403.88, 0.00, 0.00, -187500.02, 0.00, 0.00, 0.00, 0.00, 0.000, 0.000, 0.000, 17:13:52.418
203, 61068.07, 0.00, 0.00, -187500.02, 0.00, 0.00, 0.00, 0.00, 0.000, 0.000, 0.000, 17:13:52.418
204, 61258.39, 0.00, 0.00, -187500.02, 0.00, 0.00, 0.00, 0.00, 0.000, 0.000, 0.000, 17:13:52.418
205, 61615.78, 0.00, 0.00, -187500.02, 0.00, 0.00, 0.00, 0.00, 0.000, 0.000, 0.000, 17:13:52.418
206, 61479.79, 0.00, 0.00, -187500.02, 0.00, 0.00, 0.00, 0.00, 0.000, 0.000, 0.000, 17:13:52.419
207, 61107.54, 0.00, 0.00, -187500.02, 0.00, 0.00, 0.00, 0.00, 0.000, 0.000, 0.000, 17:13:52.419
208, 61185.68, 0.00, 0.00, -187500.02, 0.00, 0.00, 0.00, 0.00, 0.000, 0.000, 0.000, 17:13:52.419
209, 61590.72, 0.00, 0.00, -187500.02, 0.00, 0.00, 0.00, 0.00, 0.000, 0.000, 0.000, 17:13:52.419
210, 61557.24, 0.00, 0.00, -187500.02, 0.00, 0.00, 0.00, 0.00, -0.356, 0.370, -0.846, 17:13:52.419
211, 61154.10, 0.00, 0.00, -187500.02, 0.00, 0.00, 0.00, 0.00, 0.000, 0.000, 0.000, 17:13:52.419
212, 61130.66, 0.00, 0.00, -187500.02, 0.00, 0.00, 0.00, 0.00, 0.000, 0.000, 0.000, 17:13:52.419
213, 61523.58, 0.00, 0.00, -187500.02, 0.00, 0.00, 0.00, 0.00, 0.000, 0.000, 0.000, 17:13:52.419
214, 61599.93, 0.00, 0.00, -187500.02, 0.00, 0.00, 0.00, 0.00, 0.000, 0.000, 0.000, 17:13:52.419
215, 61204.35, 0.00, 0.00, -187500.02, 0.00, 0.00, 0.00, 0.00, 0.000, 0.000, 0.000, 17:13:52.419
216, 61084.72, 0.00, 0.00, -187500.02, 0.00, 0.00, 0.00, 0.00, 0.000, 0.000, 0.000, 17:13:52.419
217, 61459.18, 0.00, 0.00, -187500.02, 0.00, 0.00, 0.00, 0.00, 0.000, 0.000, 0.000, 17:13:52.419
218, 61628.54, 0.00, 0.00, -187500.02, 0.00, 0.00, 0.00, 0.00, 0.000, 0.000, 0.000, 17:13:52.419
219, 61277.55, 0.00, 0.00, -187500.02, 0.00, 0.00, 0.00, 0.00, 0.000, 0.000, 0.000, 17:13:52.419
220, 61056.65, 0.00, 0.00, -187500.02, 0.00, 0.00, 0.00, 0.00, -0.358, 0.372, -0.850, 17:13:52.419
221, 61375.83, 0.00, 0.00, -187500.02, 0.00, 0.00, 0.00, 0.00, 0.000, 0.000, 0.000, 17:13:52.419
222, 61638.29, 0.00, 0.00, -187500.02, 0.00, 0.00, 0.00, 0.00, 0.000, 0.000, 0.000, 17:13:52.419
223, 61352.61, 0.00, 0.00, -187500.02, 0.00, 0.00, 0.00, 0.00, 0.000, 0.000, 0.000, 17:13:52.419
224, 61059.71, 0.00, 0.00, -187500.02, 0.00, 0.00, 0.00, 0.00, 0.000, 0.000, 0.000, 17:13:52.419
225, 61308.13, 0.00, 0.00, -187500.02, 0.00, 0.00, 0.00, 0.00, 0.000, 0.000, 0.000, 17:13:52.419
226, 61631.60, 0.00, 0.00, -187500.02, 0.00, 0.00, 0.00, 0.00, 0.000, 0.000, 0.000, 17:13:52.420
227, 61422.93, 0.00, 0.00, -187500.02, 0.00, 0.00, 0.00, 0.00, 0.000, 0.000, 0.000, 17:13:52.420
228, 61067.07, 0.00, 0.00, -187500.02, 0.00, 0.00, 0.00, 0.00, 0.000, 0.000, 0.000, 17:13:52.420
229, 61229.54, 0.00, 0.00, -187500.02, 0.00, 0.00, 0.00, 0.00, 0.000, 0.000, 0.000, 17:13:52.420
230, 61608.09, 0.00, 0.00, -187500.02, 0.00, 0.00, 0.00, 0.00, -0.352, 0.372, -0.852, 17:13:52.420
231, 61499.08, 0.00, 0.00, -187500.02, 0.00, 0.00, 0.00, 0.00, 0.000, 0.000, 0.000, 17:13:52.420
232, 61108.50, 0.00, 0.00, -187500.02, 0.00, 0.00, 0.00, 0.00, 0.000, 0.000, 0.000, 17:13:52.420
233, 61164.79, 0.00, 0.00, -187500.02, 0.00, 0.00, 0.00, 0.00, 0.000, 0.000, 0.000, 17:13:52.420
234, 61565.33, 0.00, 0.00, -187500.02, 0.00, 0.00, 0.00, 0.00, 0.000, 0.000, 0.000, 17:13:52.420
235, 61560.75, 0.00, 0.00, -187500.02, 0.00, 0.00, 0.00, 0.00, 0.000, 0.000, 0.000, 17:13:52.420
236, 61154.59, 0.00, 0.00, -187500.02, 0.00, 0.00, 0.00, 0.00, 0.000, 0.000, 0.000, 17:13:52.420
237, 61100.32, 0.00, 0.00, -187500.02, 0.00, 0.00, 0.00, 0.00, 0.000, 0.000, 0.000, 17:13:52.420
238, 61510.14, 0.00, 0.00, -187500.02, 0.00, 0.00, 0.00, 0.00, 0.000, 0.000, 0.000, 17:13:52.420
239, 61614.84, 0.00, 0.00, -187500.02, 0.00, 0.00, 0.00, 0.00, 0.000, 0.000, 0.000, 17:13:52.420
240, 61233.92, 0.00, 0.00, -187500.02, 0.00, 0.00, 0.00, 0.00, -0.354, 0.374, -0.856, 17:13:52.420
241, 61078.62, 0.00, 0.00, -187500.02, 0.00, 0.00, 0.00, 0.00, 0.000, 0.000, 0.000, 17:13:52.420
242, 61435.58, 0.00, 0.00, -187500.02, 0.00, 0.00, 0.00, 0.00, 0.000, 0.000, 0.000, 17:13:52.420
243, 61631.71, 0.00, 0.00, -187500.02, 0.00, 0.00, 0.00, 0.00, 0.000, 0.000, 0.000, 17:13:52.421
244, 61294.65, 0.00, 0.00, -187500.02, 0.00, 0.00, 0.00, 0.00, 0.000, 0.000, 0.000, 17:13:52.421
245, 61057.61, 0.00, 0.00, -187500.02, 0.00, 0.00, 0.00, 0.00, 0.000, 0.000, 0.000, 17:13:52.421
246, 61358.24, 0.00, 0.00, -187500.02, 0.00, 0.00, 0.00, 0.00, 0.000, 0.000, 0.000, 17:13:52.421
247, 61643.61, 0.00, 0.00, -187500.02, 0.00, 0.00, 0.00, 0.00, 0.000, 0.000, 0.000, 17:13:52.421
248, 61378.29, 0.00, 0.00, -187500.02, 0.00, 0.00, 0.00, 0.00, 0.000, 0.000, 0.000, 17:13:52.421
249, 61057.90, 0.00, 0.00, -187500.02, 0.00, 0.00, 0.00, 0.00, 0.000, 0.000, 0.000, 17:13:52.421
250, 61274.67, 0.00, 0.00, -187500.02, 0.00, 0.00, 0.00, 0.00, -0.356, 0.376, -0.862, 17:13:52.421
251, 61625.14, 0.00, 0.00, -187500.02, 0.00, 0.00, 0.00, 0.00, 0.000, 0.000, 0.000, 17:13:52.421
252, 61451.78, 0.00, 0.00, -187500.02, 0.00, 0.00, 0.00, 0.00, 0.000, 0.000, 0.000, 17:13:52.421
253, 61076.00, 0.00, 0.00, -187500.02, 0.00, 0.00, 0.00, 0.00, 0.000, 0.000, 0.000, 17:13:52.421
254, 61200.28, 0.00, 0.00, -187500.02, 0.00, 0.00, 0.00, 0.00, 0.000, 0.000, 0.000, 17:13:52.421
255, 61587.30, 0.00, 0.00, -187500.02, 0.00, 0.00, 0.00, 0.00, 0.000, 0.000, 0.000, 17:13:52.421
0, 61526.32, 0.00, 0.00, -187500.02, 0.00, 0.00, 0.00, 0.00, 0.000, 0.000, 0.000, 17:13:52.421
1, 61130.03, 0.00, 0.00, -187500.02, 0.00, 0.00, 0.00, 0.00, 0.000, 0.000, 0.000, 17:13:52.421
2, 61147.66, 0.00, 0.00, -187500.02, 0.00, 0.00, 0.00, 0.00, 0.000, 0.000, 0.000, 17:13:52.421
3, 61556.23, 0.00, 0.00, -187500.02, 0.00, 0.00, 0.00, 0.00, -0.350, 0.376, -0.868, 17:13:52.421
4, 61581.98, 0.00, 0.00, -187500.02, 0.00, 0.00, 0.00, 0.00, 0.000, 0.000, 0.000, 17:13:52.421
5, 61184.86, 0.00, 0.00, -187500.02, 0.00, 0.00, 0.00, 0.00, 0.000, 0.000, 0.000, 17:13:52.422
6, 61101.31, 0.00, 0.00, -187500.02, 0.00, 0.00, 0.00, 0.00, 0.000, 0.000, 0.000, 17:13:52.422
7, 61486.38, 0.00, 0.00, -187500.02, 0.00, 0.00, 0.00, 0.00, 0.000, 0.000, 0.000, 17:13:52.422
8, 61616.09, 0.00, 0.00, -187500.02, 0.00, 0.00, 0.00, 0.00, 0.000, 0.000, 0.000, 17:13:52.422
9, 61249.43, 0.00, 0.00, -187500.02, 0.00, 0.00, 0.00, 0.00, 0.000, 0.000, 0.000, 17:13:52.422
10, 61059.53, 0.00, 0.00, -187500.02, 0.00, 0.00, 0.00, 0.00, 0.000, 0.000, 0.000, 17:13:52.422
11, 61410.59, 0.00, 0.00, -187500.02, 0.00, 0.00, 0.00, 0.00, 0.000, 0.000, 0.000, 17:13:52.422
12, 61644.30, 0.00, 0.00, -187500.02, 0.00, 0.00, 0.00, 0.00, 0.000, 0.000, 0.000, 17:13:52.422
13, 61330.66, 0.00, 0.00, -187500.02, 0.00, 0.00, 0.00, 0.00, -0.348, 0.374, -0.866, 17:13:52.422
14, 61067.02, 0.00, 0.00, -187500.02, 0.00, 0.00, 0.00, 0.00, 0.000, 0.000, 0.000, 17:13:52.422
15, 61340.79, 0.00, 0.00, -187500.02, 0.00, 0.00, 0.00, 0.00, 0.000, 0.000, 0.000, 17:13:52.422
16, 61642.15, 0.00, 0.00, -187500.02, 0.00, 0.00, 0.00, 0.00, 0.000, 0.000, 0.000, 17:13:52.422
17, 61408.46, 0.00, 0.00, -187500.02, 0.00, 0.00, 0.00, 0.00, 0.000, 0.000, 0.000, 17:13:52.422
18, 61067.89, 0.00, 0.00, -187500.02, 0.00, 0.00, 0.00, 0.00, 0.000, 0.000, 0.000, 17:13:52.422
19, 61261.68, 0.00, 0.00, -187500.02, 0.00, 0.00, 0.00, 0.00, 0.000, 0.000, 0.000, 17:13:52.422
20, 61621.79, 0.00, 0.00, -187500.02, 0.00, 0.00, 0.00, 0.00, 0.000, 0.000, 0.000, 17:13:52.422
21, 61476.64, 0.00, 0.00, -187500.02, 0.00, 0.00, 0.00, 0.00, 0.000, 0.000, 0.000, 17:13:52.422
22, 61092.61, 0.00, 0.00, -187500.02, 0.00, 0.00, 0.00, 0.00, 0.000, 0.000, 0.000, 17:13:52.422
23, 61180.14, 0.00, 0.00, -187500.02, 0.00, 0.00, 0.00, 0.00, -0.356, 0.372, -0.860, 17:13:52.422
24, 61575.88, 0.00, 0.00, -187500.02, 0.00, 0.00, 0.00, 0.00, 0.000, 0.000, 0.000, 17:13:52.422
25, 61536.32, 0.00, 0.00, -187500.02, 0.00, 0.00, 0.00, 0.00, 0.000, 0.000, 0.000, 17:13:52.422
26, 61143.02, 0.00, 0.00, -187500.02, 0.00, 0.00, 0.00, 0.00, 0.000, 0.000, 0.000, 17:13:52.423
27, 61127.01, 0.00, 0.00, -187500.02, 0.00, 0.00, 0.00, 0.00, 0.000, 0.000, 0.000, 17:13:52.423
28, 61525.77, 0.00, 0.00, -187500.02, 0.00, 0.00, 0.00, 0.00, 0.000, 0.000, 0.000, 17:13:52.423
29, 61596.55, 0.00, 0.00, -187500.02, 0.00, 0.00, 0.00, 0.00, 0.000, 0.000, 0.000, 17:13:52.424
30, 61210.56, 0.00, 0.00, -187500.02, 0.00, 0.00, 0.00, 0.00, 0.000, 0.000, 0.000, 17:13:52.424
31, 61087.96, 0.00, 0.00, -187500.02, 0.00, 0.00, 0.00, 0.00, 0.000, 0.000, 0.000, 17:13:52.424
32, 61462.42, 0.00, 0.00, -187500.02, 0.00, 0.00, 0.00, 0.00, 0.000, 0.000, 0.000, 17:13:52.424
33, 61633.10, 0.00, 0.00, -187500.02, 0.00, 0.00, 0.00, 0.00, -0.354, 0.376, -0.858, 17:13:52.424
34, 61284.70, 0.00, 0.00, -187500.02, 0.00, 0.00, 0.00, 0.00, 0.000, 0.000, 0.000, 17:13:52.424
35, 61070.30, 0.00, 0.00, -187500.02, 0.00, 0.00, 0.00, 0.00, 0.000, 0.000, 0.000, 17:13:52.425
36, 61395.59, 0.00, 0.00, -187500.02, 0.00, 0.00, 0.00, 0.00, 0.000, 0.000, 0.000, 17:13:52.425
37, 61651.54, 0.00, 0.00, -187500.02, 0.00, 0.00, 0.00, 0.00, 0.000, 0.000, 0.000, 17:13:52.432
38, 61358.02, 0.00, 0.00, -187500.02, 0.00, 0.00, 0.00, 0.00, 0.000, 0.000, 0.000, 17:13:52.432
39, 61065.14, 0.00, 0.00, -187500.02, 0.00, 0.00, 0.00, 0.00, 0.000, 0.000, 0.000, 17:13:52.432
40, 61318.39, 0.00, 0.00, -187500.02, 0.00, 0.00, 0.00, 0.00, 0.000, 0.000, 0.000, 17:13:52.432
41, 61652.17, 0.00, 0.00, -187500.02, 0.00, 0.00, 0.00, 0.00, 0.000, 0.000, 0.000, 17:13:52.432
42, 61447.25, 0.00, 0.00, -187500.02, 0.00, 0.00, 0.00, 0.00, 0.000, 0.000, 0.000, 17:13:52.432
43, 61091.70, 0.00, 0.00, -187500.02, 0.00, 0.00, 0.00, 0.00, -0.352, 0.374, -0.854, 17:13:52.432
44, 61240.83, 0.00, 0.00, -187500.02, 0.00, 0.00, 0.00, 0.00, 0.000, 0.000, 0.000, 17:13:52.432
45, 61617.92, 0.00, 0.00, -187500.02, 0.00, 0.00, 0.00, 0.00, 0.000, 0.000, 0.000, 17:13:52.432
46, 61514.32, 0.00, 0.00, -187500.02, 0.00, 0.00, 0.00, 0.00, 0.000, 0.000, 0.000, 17:13:52.432
47, 61118.12, 0.00, 0.00, -187500.02, 0.00, 0.00, 0.00, 0.00, 0.000, 0.000, 0.000, 17:13:52.432
48, 61172.09, 0.00, 0.00, -187500.02, 0.00, 0.00, 0.00, 0.00, 0.000, 0.000, 0.000, 17:13:52.432
49, 61568.30, 0.00, 0.00, -187500.02, 0.00, 0.00, 0.00, 0.00, 0.000, 0.000, 0.000, 17:13:52.432
50, 61567.05, 0.00, 0.00, -187500.02, 0.00, 0.00, 0.00, 0.00, 0.000, 0.000, 0.000, 17:13:52.432
51, 61165.73, 0.00, 0.00, -187500.02, 0.00, 0.00, 0.00, 0.00, 0.000, 0.000, 0.000, 17:13:52.432
52, 61115.66, 0.00, 0.00, -187500.02, 0.00, 0.00, 0.00, 0.00, 0.000, 0.000, 0.000, 17:13:52.432
53, 61513.25, 0.00, 0.00, -187500.02, 0.00, 0.00, 0.00, 0.00, -0.356, 0.374, -0.858, 17:13:52.432
54, 61609.63, 0.00, 0.00, -187500.02, 0.00, 0.00, 0.00, 0.00, 0.000, 0.000, 0.000, 17:13:52.433
55, 61230.99, 0.00, 0.00, -187500.02, 0.00, 0.00, 0.00, 0.00, 0.000, 0.000, 0.000, 17:13:52.433
56, 61081.41, 0.00, 0.00, -187500.02, 0.00, 0.00, 0.00, 0.00, 0.000, 0.000, 0.000, 17:13:52.433
57, 61445.30, 0.00, 0.00, -187500.02, 0.00, 0.00, 0.00, 0.00, 0.000, 0.000, 0.000, 17:13:52.433
58, 61639.34, 0.00, 0.00, -187500.02, 0.00, 0.00, 0.00, 0.00, 0.000, 0.000, 0.000, 17:13:52.433
59, 61303.86, 0.00, 0.00, -187500.02, 0.00, 0.00, 0.00, 0.00, 0.000, 0.000, 0.000, 17:13:52.857
60, 61068.74, 0.00, 0.00, -187500.02, 0.00, 0.00, 0.00, 0.00, 0.000, 0.000, 0.000, 17:13:52.857
61, 61371.74, 0.00, 0.00, -187500.02, 0.00, 0.00, 0.00, 0.00, 0.000, 0.000, 0.000, 17:13:52.857
62, 61649.77, 0.00, 0.00, -187500.02, 0.00, 0.00, 0.00, 0.00, 0.000, 0.000, 0.000, 17:13:52.857
63, 61385.20, 0.00, 0.00, -187500.02, 0.00, 0.00, 0.00, 0.00, -0.356, 0.376, -0.852, 17:13:52.857
64, 61071.29, 0.00, 0.00, -187500.02, 0.00, 0.00, 0.00, 0.00, 0.000, 0.000, 0.000, 17:13:52.857
65, 61289.51, 0.00, 0.00, -187500.02, 0.00, 0.00, 0.00, 0.00, 0.000, 0.000, 0.000, 17:13:52.857
66, 61631.20, 0.00, 0.00, -187500.02, 0.00, 0.00, 0.00, 0.00, 0.000, 0.000, 0.000, 17:13:52.857
67, 61463.68, 0.00, 0.00, -187500.02, 0.00, 0.00, 0.00, 0.00, 0.000, 0.000, 0.000, 17:13:52.857
68, 61097.51, 0.00, 0.00, -187500.02, 0.00, 0.00, 0.00, 0.00, 0.000, 0.000, 0.000, 17:13:52.857
69, 61226.77, 0.00, 0.00, -187500.02, 0.00, 0.00, 0.00, 0.00, 0.000, 0.000, 0.000, 17:13:52.858
70, 61611.04, 0.00, 0.00, -187500.02, 0.00, 0.00, 0.00, 0.00, 0.000, 0.000, 0.000, 17:13:52.858
71, 61542.44, 0.00, 0.00, -187500.02, 0.00, 0.00, 0.00, 0.00, 0.000, 0.000, 0.000, 17:13:52.858
72, 61147.84, 0.00, 0.00, -187500.02, 0.00, 0.00, 0.00, 0.00, 0.000, 0.000, 0.000, 17:13:52.858
73, 61164.94, 0.00, 0.00, -187500.02, 0.00, 0.00, 0.00, 0.00, -0.356, 0.374, -0.854, 17:13:52.858
74, 61563.61, 0.00, 0.00, -187500.02, 0.00, 0.00, 0.00, 0.00, 0.000, 0.000, 0.000, 17:13:52.858
75, 61597.29, 0.00, 0.00, -187500.02, 0.00, 0.00, 0.00, 0.00, 0.000, 0.000, 0.000, 17:13:52.858
76, 61196.35, 0.00, 0.00, -187500.02, 0.00, 0.00, 0.00, 0.00, 0.000, 0.000, 0.000, 17:13:52.858
77, 61112.59, 0.00, 0.00, -187500.02, 0.00, 0.00, 0.00, 0.00, 0.000, 0.000, 0.000, 17:13:52.858
78, 61498.32, 0.00, 0.00, -187500.02, 0.00, 0.00, 0.00, 0.00, 0.000, 0.000, 0.000, 17:13:52.858
79, 61636.27, 0.00, 0.00, -187500.02, 0.00, 0.00, 0.00, 0.00, 0.000, 0.000, 0.000, 17:13:52.858
80, 61268.63, 0.00, 0.00, -187500.02, 0.00, 0.00, 0.00, 0.00, 0.000, 0.000, 0.000, 17:13:52.858
81, 61085.15, 0.00, 0.00, -187500.02, 0.00, 0.00, 0.00, 0.00, 0.000, 0.000, 0.000, 17:13:52.858
82, 61435.54, 0.00, 0.00, -187500.02, 0.00, 0.00, 0.00, 0.00, 0.000, 0.000, 0.000, 17:13:52.858
83, 61664.08, 0.00, 0.00, -187500.02, 0.00, 0.00, 0.00, 0.00, -0.356, 0.376, -0.852, 17:13:52.858
84, 61353.64, 0.00, 0.00, -187500.02, 0.00, 0.00, 0.00, 0.00, 0.000, 0.000, 0.000, 17:13:52.858
85, 61085.71, 0.00, 0.00, -187500.02, 0.00, 0.00, 0.00, 0.00, 0.000, 0.000, 0.000, 17:13:52.858
86, 61357.73, 0.00, 0.00, -187500.02, 0.00, 0.00, 0.00, 0.00, 0.000, 0.000, 0.000, 17:13:52.858
87, 61667.84, 0.00, 0.00, -187500.02, 0.00, 0.00, 0.00, 0.00, 0.000, 0.000, 0.000, 17:13:52.859
88, 61434.15, 0.00, 0.00, -187500.02, 0.00, 0.00, 0.00, 0.00, 0.000, 0.000, 0.000, 17:13:52.859
89, 61085.44, 0.00, 0.00, -187500.02, 0.00, 0.00, 0.00, 0.00, 0.000, 0.000, 0.000, 17:13:52.859
90, 61277.55, 0.00, 0.00, -187500.02, 0.00, 0.00, 0.00, 0.00, 0.000, 0.000, 0.000, 17:13:52.859
91, 61650.38, 0.00, 0.00, -187500.02, 0.00, 0.00, 0.00, 0.00, 0.000, 0.000, 0.000, 17:13:52.859
92, 61507.84, 0.00, 0.00, -187500.02, 0.00, 0.00, 0.00, 0.00, 0.000, 0.000, 0.000, 17:13:52.859
93, 61119.93, 0.00, 0.00, -187500.02, 0.00, 0.00, 0.00, 0.00, -0.354, 0.370, -0.850, 17:13:52.859
94, 61219.59, 0.00, 0.00, -187500.02, 0.00, 0.00, 0.00, 0.00, 0.000, 0.000, 0.000, 17:13:52.859
95, 61616.76, 0.00, 0.00, -187500.02, 0.00, 0.00, 0.00, 0.00, 0.000, 0.000, 0.000, 17:13:52.859
96, 61570.36, 0.00, 0.00, -187500.02, 0.00, 0.00, 0.00, 0.00, 0.000, 0.000, 0.000, 17:13:52.860
97, 61169.61, 0.00, 0.00, -187500.02, 0.00, 0.00, 0.00, 0.00, 0.000, 0.000, 0.000, 17:13:52.860
98, 61157.14, 0.00, 0.00, -187500.02, 0.00, 0.00, 0.00, 0.00, 0.000, 0.000, 0.000, 17:13:52.860
99, 61566.25, 0.00, 0.00, -187500.02, 0.00, 0.00, 0.00, 0.00, 0.000, 0.000, 0.000, 17:13:52.860
100, 61624.23, 0.00, 0.00, -187500.02, 0.00, 0.00, 0.00, 0.00, 0.000, 0.000, 0.000, 17:13:52.860
101, 61233.52, 0.00, 0.00, -187500.02, 0.00, 0.00, 0.00, 0.00, 0.000, 0.000, 0.000, 17:13:52.860
102, 61119.73, 0.00, 0.00, -187500.02, 0.00, 0.00, 0.00, 0.00, 0.000, 0.000, 0.000, 17:13:52.860
103, 61493.27, 0.00, 0.00, -187500.02, 0.00, 0.00, 0.00, 0.00, -0.352, 0.376, -0.852, 17:13:52.860
104, 61661.96, 0.00, 0.00, -187500.02, 0.00, 0.00, 0.00, 0.00, 0.000, 0.000, 0.000, 17:13:52.860
105, 61315.28, 0.00, 0.00, -187500.02, 0.00, 0.00, 0.00, 0.00, 0.000, 0.000, 0.000, 17:13:52.860
106, 61105.04, 0.00, 0.00, -187500.02, 0.00, 0.00, 0.00, 0.00, 0.000, 0.000, 0.000, 17:13:52.860
107, 61428.20, 0.00, 0.00, -187500.02, 0.00, 0.00, 0.00, 0.00, 0.000, 0.000, 0.000, 17:13:52.860
108, 61689.32, 0.00, 0.00, -187500.02, 0.00, 0.00, 0.00, 0.00, 0.000, 0.000, 0.000, 17:13:52.861
109, 61396.98, 0.00, 0.00, -187500.02, 0.00, 0.00, 0.00, 0.00, 0.000, 0.000, 0.000, 17:13:52.861
110, 61095.27, 0.00, 0.00, -187500.02, 0.00, 0.00, 0.00, 0.00, 0.000, 0.000, 0.000, 17:13:52.861
111, 61349.17, 0.00, 0.00, -187500.02, 0.00, 0.00, 0.00, 0.00, 0.000, 0.000, 0.000, 17:13:52.861
112, 61674.79, 0.00, 0.00, -187500.02, 0.00, 0.00, 0.00, 0.00, -0.354, 0.374, -0.860, 17:13:52.861
113, 61470.92, 0.00, 0.00, -187500.02, 0.00, 0.00, 0.00, 0.00, 0.000, 0.000, 0.000, 17:13:52.861
114, 61110.11, 0.00, 0.00, -187500.02, 0.00, 0.00, 0.00, 0.00, 0.000, 0.000, 0.000, 17:13:52.861
115, 61279.09, 0.00, 0.00, -187500.02, 0.00, 0.00, 0.00, 0.00, 0.000, 0.000, 0.000, 17:13:52.861
116, 61655.25, 0.00, 0.00, -187500.02, 0.00, 0.00, 0.00, 0.00, 0.000, 0.000, 0.000, 17:13:52.861
117, 61539.45, 0.00, 0.00, -187500.02, 0.00, 0.00, 0.00, 0.00, 0.000, 0.000, 0.000, 17:13:52.861
118, 61147.08, 0.00, 0.00, -187500.02, 0.00, 0.00, 0.00, 0.00, 0.000, 0.000, 0.000, 17:13:52.861
119, 61208.48, 0.00, 0.00, -187500.02, 0.00, 0.00, 0.00, 0.00, 0.000, 0.000, 0.000, 17:13:52.861
120, 61609.74, 0.00, 0.00, -187500.02, 0.00, 0.00, 0.00, 0.00, 0.000, 0.000, 0.000, 17:13:52.861
121, 61603.37, 0.00, 0.00, -187500.02, 0.00, 0.00, 0.00, 0.00, 0.000, 0.000, 0.000, 17:13:52.861
122, 61194.20, 0.00, 0.00, -187500.02, 0.00, 0.00, 0.00, 0.00, -0.352, 0.378, -0.858, 17:13:52.861
123, 61147.51, 0.00, 0.00, -187500.02, 0.00, 0.00, 0.00, 0.00, 0.000, 0.000, 0.000, 17:13:52.861
124, 61549.59, 0.00, 0.00, -187500.02, 0.00, 0.00, 0.00, 0.00, 0.000, 0.000, 0.000, 17:13:52.862
125, 61651.68, 0.00, 0.00, -187500.02, 0.00, 0.00, 0.00, 0.00, 0.000, 0.000, 0.000, 17:13:52.862
126, 61275.38, 0.00, 0.00, -187500.02, 0.00, 0.00, 0.00, 0.00, 0.000, 0.000, 0.000, 17:13:52.862
127, 61122.59, 0.00, 0.00, -187500.02, 0.00, 0.00, 0.00, 0.00, 0.000, 0.000, 0.000, 17:13:52.862
128, 61480.55, 0.00, 0.00, -187500.02, 0.00, 0.00, 0.00, 0.00, 0.000, 0.000, 0.000, 17:13:52.862
129, 61678.99, 0.00, 0.00, -187500.02, 0.00, 0.00, 0.00, 0.00, 0.000, 0.000, 0.000, 17:13:52.862
130, 61342.71, 0.00, 0.00, -187500.02, 0.00, 0.00, 0.00, 0.00, 0.000, 0.000, 0.000, 17:13:52.862
131, 61100.46, 0.00, 0.00, -187500.02, 0.00, 0.00, 0.00, 0.00, 0.000, 0.000, 0.000, 17:13:52.862
132, 61399.61, 0.00, 0.00, -187500.02, 0.00, 0.00, 0.00, 0.00, -0.354, 0.382, -0.854, 17:13:52.862
133, 61675.14, 0.00, 0.00, -187500.02, 0.00, 0.00, 0.00, 0.00, 0.000, 0.000, 0.000, 17:13:52.862
134, 61410.48, 0.00, 0.00, -187500.02, 0.00, 0.00, 0.00, 0.00, 0.000, 0.000, 0.000, 17:13:52.862
135, 61103.95, 0.00, 0.00, -187500.02, 0.00, 0.00, 0.00, 0.00, 0.000, 0.000, 0.000, 17:13:52.862
136, 61325.47, 0.00, 0.00, -187500.02, 0.00, 0.00, 0.00, 0.00, 0.000, 0.000, 0.000, 17:13:52.862
137, 61663.21, 0.00, 0.00, -187500.02, 0.00, 0.00, 0.00, 0.00, 0.000, 0.000, 0.000, 17:13:52.862
138, 61490.90, 0.00, 0.00, -187500.02, 0.00, 0.00, 0.00, 0.00, 0.000, 0.000, 0.000, 17:13:52.862
139, 61129.83, 0.00, 0.00, -187500.02, 0.00, 0.00, 0.00, 0.00, 0.000, 0.000, 0.000, 17:13:52.862
140, 61250.77, 0.00, 0.00, -187500.02, 0.00, 0.00, 0.00, 0.00, 0.000, 0.000, 0.000, 17:13:52.862
141, 61632.39, 0.00, 0.00, -187500.02, 0.00, 0.00, 0.00, 0.00, 0.000, 0.000, 0.000, 17:13:52.862
142, 61556.23, 0.00, 0.00, -187500.02, 0.00, 0.00, 0.00, 0.00, -0.354, 0.382, -0.850, 17:13:52.862
143, 61159.60, 0.00, 0.00, -187500.02, 0.00, 0.00, 0.00, 0.00, 0.000, 0.000, 0.000, 17:13:52.862
144, 61185.06, 0.00, 0.00, -187500.02, 0.00, 0.00, 0.00, 0.00, 0.000, 0.000, 0.000, 17:13:52.862
145, 61586.30, 0.00, 0.00, -187500.02, 0.00, 0.00, 0.00, 0.00, 0.000, 0.000, 0.000, 17:13:52.863
146, 61613.61, 0.00, 0.00, -187500.02, 0.00, 0.00, 0.00, 0.00, 0.000, 0.000, 0.000, 17:13:52.863
147, 61218.39, 0.00, 0.00, -187500.02, 0.00, 0.00, 0.00, 0.00, 0.000, 0.000, 0.000, 17:13:52.863
148, 61140.42, 0.00, 0.00, -187500.02, 0.00, 0.00, 0.00, 0.00, 0.000, 0.000, 0.000, 17:13:52.863
149, 61518.93, 0.00, 0.00, -187500.02, 0.00, 0.00, 0.00, 0.00, 0.000, 0.000, 0.000, 17:13:52.863
150, 61654.47, 0.00, 0.00, -187500.02, 0.00, 0.00, 0.00, 0.00, 0.000, 0.000, 0.000, 17:13:52.864
151, 61290.54, 0.00, 0.00, -187500.02, 0.00, 0.00, 0.00, 0.00, 0.000, 0.000, 0.000, 17:13:52.864
152, 61100.93, 0.00, 0.00, -187500.02, 0.00, 0.00, 0.00, 0.00, -0.352, 0.380, -0.854, 17:13:52.864
153, 61448.92, 0.00, 0.00, -187500.02, 0.00, 0.00, 0.00, 0.00, 0.000, 0.000, 0.000, 17:13:52.864
154, 61675.05, 0.00, 0.00, -187500.02, 0.00, 0.00, 0.00, 0.00, 0.000, 0.000, 0.000, 17:13:52.864
155, 61359.16, 0.00, 0.00, -187500.02, 0.00, 0.00, 0.00, 0.00, 0.000, 0.000, 0.000, 17:13:52.864
156, 61084.32, 0.00, 0.00, -187500.02, 0.00, 0.00, 0.00, 0.00, 0.000, 0.000, 0.000, 17:13:52.864
157, 61362.60, 0.00, 0.00, -187500.02, 0.00, 0.00, 0.00, 0.00, 0.000, 0.000, 0.000, 17:13:52.864
158, 61673.18, 0.00, 0.00, -187500.02, 0.00, 0.00, 0.00, 0.00, 0.000, 0.000, 0.000, 17:13:52.864
159, 61436.36, 0.00, 0.00, -187500.02, 0.00, 0.00, 0.00, 0.00, 0.000, 0.000, 0.000, 17:13:52.864
160, 61095.34, 0.00, 0.00, -187500.02, 0.00, 0.00, 0.00, 0.00, 0.000, 0.000, 0.000, 17:13:52.864
161, 61287.45, 0.00, 0.00, -187500.02, 0.00, 0.00, 0.00, 0.00, 0.000, 0.000, 0.000, 17:13:52.864
162, 61653.82, 0.00, 0.00, -187500.02, 0.00, 0.00, 0.00, 0.00, -0.350, 0.382, -0.860, 17:13:52.865
163, 61511.30, 0.00, 0.00, -187500.02, 0.00, 0.00, 0.00, 0.00, 0.000, 0.000, 0.000, 17:13:52.865
164, 61125.65, 0.00, 0.00, -187500.02, 0.00, 0.00, 0.00, 0.00, 0.000, 0.000, 0.000, 17:13:52.865
165, 61214.56, 0.00, 0.00, -187500.02, 0.00, 0.00, 0.00, 0.00, 0.000, 0.000, 0.000, 17:13:52.865
166, 61612.67, 0.00, 0.00, -187500.02, 0.00, 0.00, 0.00, 0.00, 0.000, 0.000, 0.000, 17:13:52.865
167, 61573.98, 0.00, 0.00, -187500.02, 0.00, 0.00, 0.00, 0.00, 0.000, 0.000, 0.000, 17:13:52.865
168, 61170.64, 0.00, 0.00, -187500.02, 0.00, 0.00, 0.00, 0.00, 0.000, 0.000, 0.000, 17:13:52.865
169, 61148.52, 0.00, 0.00, -187500.02, 0.00, 0.00, 0.00, 0.00, 0.000, 0.000, 0.000, 17:13:52.865
170, 61546.18, 0.00, 0.00, -187500.02, 0.00, 0.00, 0.00, 0.00, 0.000, 0.000, 0.000, 17:13:52.865
171, 61621.93, 0.00, 0.00, -187500.02, 0.00, 0.00, 0.00, 0.00, 0.000, 0.000, 0.000, 17:13:52.865
172, 61238.57, 0.00, 0.00, -187500.02, 0.00, 0.00, 0.00, 0.00, -0.354, 0.382, -0.864, 17:13:52.865
173, 61118.05, 0.00, 0.00, -187500.02, 0.00, 0.00, 0.00, 0.00, 0.000, 0.000, 0.000, 17:13:52.871
174, 61493.71, 0.00, 0.00, -187500.02, 0.00, 0.00, 0.00, 0.00, 0.000, 0.000, 0.000, 17:13:52.871
175, 61656.86, 0.00, 0.00, -187500.02, 0.00, 0.00, 0.00, 0.00, 0.000, 0.000, 0.000, 17:13:52.871
176, 61304.35, 0.00, 0.00, -187500.02, 0.00, 0.00, 0.00, 0.00, 0.000, 0.000, 0.000, 17:13:52.871
177, 61089.39, 0.00, 0.00, -187500.02, 0.00, 0.00, 0.00, 0.00, 0.000, 0.000, 0.000, 17:13:52.872
178, 61415.37, 0.00, 0.00, -187500.02, 0.00, 0.00, 0.00, 0.00, 0.000, 0.000, 0.000, 17:13:52.872
179, 61666.43, 0.00, 0.00, -187500.02, 0.00, 0.00, 0.00, 0.00, 0.000, 0.000, 0.000, 17:13:53.336
180, 61381.15, 0.00, 0.00, -187500.02, 0.00, 0.00, 0.00, 0.00, 0.000, 0.000, 0.000, 17:13:53.336
181, 61082.09, 0.00, 0.00, -187500.02, 0.00, 0.00, 0.00, 0.00, 0.000, 0.000, 0.000, 17:13:53.336
182, 61327.73, 0.00, 0.00, -187500.02, 0.00, 0.00, 0.00, 0.00, -0.354, 0.380, -0.862, 17:13:53.336
183, 61659.41, 0.00, 0.00, -187500.02, 0.00, 0.00, 0.00, 0.00, 0.000, 0.000, 0.000, 17:13:53.337
184, 61455.27, 0.00, 0.00, -187500.02, 0.00, 0.00, 0.00, 0.00, 0.000, 0.000, 0.000, 17:13:53.337
185, 61095.77, 0.00, 0.00, -187500.02, 0.00, 0.00, 0.00, 0.00, 0.000, 0.000, 0.000, 17:13:53.337
186, 61259.02, 0.00, 0.00, -187500.02, 0.00, 0.00, 0.00, 0.00, 0.000, 0.000, 0.000, 17:13:53.337
187, 61640.16, 0.00, 0.00, -187500.02, 0.00, 0.00, 0.00, 0.00, 0.000, 0.000, 0.000, 17:13:53.337
188, 61530.73, 0.00, 0.00, -187500.02, 0.00, 0.00, 0.00, 0.00, 0.000, 0.000, 0.000, 17:13:53.337
189, 61136.20, 0.00, 0.00, -187500.02, 0.00, 0.00, 0.00, 0.00, 0.000, 0.000, 0.000, 17:13:53.337
190, 61193.33, 0.00, 0.00, -187500.02, 0.00, 0.00, 0.00, 0.00, 0.000, 0.000, 0.000, 17:13:53.337
191, 61591.82, 0.00, 0.00, -187500.02, 0.00, 0.00, 0.00, 0.00, 0.000, 0.000, 0.000, 17:13:53.338
192, 61586.86, 0.00, 0.00, -187500.02, 0.00, 0.00, 0.00, 0.00, -0.358, 0.378, -0.858, 17:13:53.338
193, 61184.46, 0.00, 0.00, -187500.02, 0.00, 0.00, 0.00, 0.00, 0.000, 0.000, 0.000, 17:13:53.338
194, 61135.02, 0.00, 0.00, -187500.02, 0.00, 0.00, 0.00, 0.00, 0.000, 0.000, 0.000, 17:13:53.338
195, 61534.08, 0.00, 0.00, -187500.02, 0.00, 0.00, 0.00, 0.00, 0.000, 0.000, 0.000, 17:13:53.338
196, 61636.25, 0.00, 0.00, -187500.02, 0.00, 0.00, 0.00, 0.00, 0.000, 0.000, 0.000, 17:13:53.338
197, 61260.54, 0.00, 0.00, -187500.02, 0.00, 0.00, 0.00, 0.00, 0.000, 0.000, 0.000, 17:13:53.338
198, 61101.87, 0.00, 0.00, -187500.02, 0.00, 0.00, 0.00, 0.00, 0.000, 0.000, 0.000, 17:13:53.338
199, 61463.99, 0.00, 0.00, -187500.02, 0.00, 0.00, 0.00, 0.00, 0.000, 0.000, 0.000, 17:13:53.339
200, 61674.81, 0.00, 0.00, -187500.02, 0.00, 0.00, 0.00, 0.00, 0.000, 0.000, 0.000, 17:13:53.339
201, 61343.64, 0.00, 0.00, -187500.02, 0.00, 0.00, 0.00, 0.00, 0.000, 0.000, 0.000, 17:13:53.339
202, 61093.66, 0.00, 0.00, -187500.02, 0.00, 0.00, 0.00, 0.00, -0.360, 0.382, -0.858, 17:13:53.339
203, 61390.88, 0.00, 0.00, -187500.02, 0.00, 0.00, 0.00, 0.00, 0.000, 0.000, 0.000, 17:13:53.339
204, 61675.17, 0.00, 0.00, -187500.02, 0.00, 0.00, 0.00, 0.00, 0.000, 0.000, 0.000, 17:13:53.339
205, 61409.43, 0.00, 0.00, -187500.02, 0.00, 0.00, 0.00, 0.00, 0.000, 0.000, 0.000, 17:13:53.339
206, 61094.89, 0.00, 0.00, -187500.02, 0.00, 0.00, 0.00, 0.00, 0.000, 0.000, 0.000, 17:13:53.339
207, 61317.00, 0.00, 0.00, -187500.02, 0.00, 0.00, 0.00, 0.00, 0.000, 0.000, 0.000, 17:13:53.339
208, 61672.84, 0.00, 0.00, -187500.02, 0.00, 0.00, 0.00, 0.00, 0.000, 0.000, 0.000, 17:13:53.339
209, 61491.95, 0.00, 0.00, -187500.02, 0.00, 0.00, 0.00, 0.00, 0.000, 0.000, 0.000, 17:13:53.340
210, 61118.83, 0.00, 0.00, -187500.02, 0.00, 0.00, 0.00, 0.00, 0.000, 0.000, 0.000, 17:13:53.342
211, 61246.10, 0.00, 0.00, -187500.02, 0.00, 0.00, 0.00, 0.00, 0.000, 0.000, 0.000, 17:13:53.342
212, 61638.02, 0.00, 0.00, -187500.02, 0.00, 0.00, 0.00, 0.00, -0.354, 0.378, -0.860, 17:13:53.342
213, 61558.51, 0.00, 0.00, -187500.02, 0.00, 0.00, 0.00, 0.00, 0.000, 0.000, 0.000, 17:13:53.342
