%OpenBCI Raw EEG Data
%
%Sample Rate = 250.0 Hz
%First Column = SampleIndex
%Last Column = Timestamp 
%Other Columns = EEG data in microvolts followed by Accel Data (in G) interleaved with Aux Data
0, 61372.70, 0.00, 0.00, 0.00, 0.00, 0.00, 0.00, -187500.02, -0.146, 0.318, -0.858, 17:19:00.608
1, 62000.56, 0.00, 0.00, 0.00, 0.00, 0.00, 0.00, -187500.02, 0.000, 0.000, 0.000, 17:19:00.608
2, 62181.52, 0.00, 0.00, 0.00, 0.00, 0.00, 0.00, -187500.02, 0.000, 0.000, 0.000, 17:19:00.608
3, 61572.66, 0.00, 0.00, 0.00, 0.00, 0.00, 0.00, -187500.02, 0.000, 0.000, 0.000, 17:19:00.608
4, 61312.18, 0.00, 0.00, 0.00, 0.00, 0.00, 0.00, -187500.02, 0.000, 0.000, 0.000, 17:19:00.608
5, 61874.45, 0.00, 0.00, 0.00, 0.00, 0.00, 0.00, -187500.02, 0.000, 0.000, 0.000, 17:19:00.608
6, 62203.36, 0.00, 0.00, 0.00, 0.00, 0.00, 0.00, -187500.02, 0.000, 0.000, 0.000, 17:19:00.608
7, 61684.87, 0.00, 0.00, 0.00, 0.00, 0.00, 0.00, -187500.02, 0.034, 0.258, -0.916, 17:19:00.608
8, 61279.12, 0.00, 0.00, 0.00, 0.00, 0.00, 0.00, -187500.02, 0.000, 0.000, 0.000, 17:19:00.608
9, 61746.49, 0.00, 0.00, 0.00, 0.00, 0.00, 0.00, -187500.02, 0.000, 0.000, 0.000, 17:19:00.608
10, 62206.67, 0.00, 0.00, 0.00, 0.00, 0.00, 0.00, -187500.02, 0.000, 0.000, 0.000, 17:19:00.609
11, 61799.75, 0.00, 0.00, 0.00, 0.00, 0.00, 0.00, -187500.02, 0.000, 0.000, 0.000, 17:19:00.609
12, 61273.02, 0.00, 0.00, 0.00, 0.00, 0.00, 0.00, -187500.02, 0.000, 0.000, 0.000, 17:19:00.609
13, 61621.88, 0.00, 0.00, 0.00, 0.00, 0.00, 0.00, -187500.02, 0.000, 0.000, 0.000, 17:19:00.609
14, 62202.29, 0.00, 0.00, 0.00, 0.00, 0.00, 0.00, -187500.02, 0.000, 0.000, 0.000, 17:19:00.609
15, 61935.03, 0.00, 0.00, 0.00, 0.00, 0.00, 0.00, -187500.02, 0.000, 0.000, 0.000, 17:19:00.609
16, 61320.58, 0.00, 0.00, 0.00, 0.00, 0.00, 0.00, -187500.02, 0.000, 0.000, 0.000, 17:19:00.609
17, 61506.54, 0.00, 0.00, 0.00, 0.00, 0.00, 0.00, -187500.02, 0.126, 0.230, -0.948, 17:19:00.609
18, 62140.04, 0.00, 0.00, 0.00, 0.00, 0.00, 0.00, -187500.02, 0.000, 0.000, 0.000, 17:19:00.609
19, 62047.30, 0.00, 0.00, 0.00, 0.00, 0.00, 0.00, -187500.02, 0.000, 0.000, 0.000, 17:19:00.609
20, 61412.24, 0.00, 0.00, 0.00, 0.00, 0.00, 0.00, -187500.02, 0.000, 0.000, 0.000, 17:19:00.609
21, 61438.71, 0.00, 0.00, 0.00, 0.00, 0.00, 0.00, -187500.02, 0.000, 0.000, 0.000, 17:19:00.609
22, 62081.77, 0.00, 0.00, 0.00, 0.00, 0.00, 0.00, -187500.02, 0.000, 0.000, 0.000, 17:19:00.609
23, 62147.66, 0.00, 0.00, 0.00, 0.00, 0.00, 0.00, -187500.02, 0.000, 0.000, 0.000, 17:19:00.609
24, 61516.74, 0.00, 0.00, 0.00, 0.00, 0.00, 0.00, -187500.02, 0.000, 0.000, 0.000, 17:19:00.610
25, 61379.25, 0.00, 0.00, 0.00, 0.00, 0.00, 0.00, -187500.02, 0.000, 0.000, 0.000, 17:19:00.610
26, 61989.95, 0.00, 0.00, 0.00, 0.00, 0.00, 0.00, -187500.02, 0.166, 0.214, -0.964, 17:19:00.610
27, 62213.82, 0.00, 0.00, 0.00, 0.00, 0.00, 0.00, -187500.02, 0.000, 0.000, 0.000, 17:19:00.610
28, 61626.39, 0.00, 0.00, 0.00, 0.00, 0.00, 0.00, -187500.02, 0.000, 0.000, 0.000, 17:19:00.610
29, 61346.46, 0.00, 0.00, 0.00, 0.00, 0.00, 0.00, -187500.02, 0.000, 0.000, 0.000, 17:19:00.610
30, 61903.29, 0.00, 0.00, 0.00, 0.00, 0.00, 0.00, -187500.02, 0.000, 0.000, 0.000, 17:19:00.610
31, 62272.81, 0.00, 0.00, 0.00, 0.00, 0.00, 0.00, -187500.02, 0.000, 0.000, 0.000, 17:19:00.610
32, 61774.36, 0.00, 0.00, 0.00, 0.00, 0.00, 0.00, -187500.02, 0.000, 0.000, 0.000, 17:19:00.610
33, 61328.16, 0.00, 0.00, 0.00, 0.00, 0.00, 0.00, -187500.02, 0.000, 0.000, 0.000, 17:19:00.610
34, 61768.35, 0.00, 0.00, 0.00, 0.00, 0.00, 0.00, -187500.02, 0.000, 0.000, 0.000, 17:19:00.610
35, 62269.25, 0.00, 0.00, 0.00, 0.00, 0.00, 0.00, -187500.02, 0.000, 0.000, 0.000, 17:19:00.610
36, 61879.04, 0.00, 0.00, 0.00, 0.00, 0.00, 0.00, -187500.02, 0.190, 0.208, -0.972, 17:19:00.610
37, 61330.82, 0.00, 0.00, 0.00, 0.00, 0.00, 0.00, -187500.02, 0.000, 0.000, 0.000, 17:19:00.611
38, 61644.63, 0.00, 0.00, 0.00, 0.00, 0.00, 0.00, -187500.02, 0.000, 0.000, 0.000, 17:19:00.611
39, 62227.39, 0.00, 0.00, 0.00, 0.00, 0.00, 0.00, -187500.02, 0.000, 0.000, 0.000, 17:19:00.611
40, 61990.97, 0.00, 0.00, 0.00, 0.00, 0.00, 0.00, -187500.02, 0.000, 0.000, 0.000, 17:19:00.611
41, 61380.68, 0.00, 0.00, 0.00, 0.00, 0.00, 0.00, -187500.02, 0.000, 0.000, 0.000, 17:19:00.611
42, 61518.21, 0.00, 0.00, 0.00, 0.00, 0.00, 0.00, -187500.02, 0.000, 0.000, 0.000, 17:19:00.611
43, 62149.87, 0.00, 0.00, 0.00, 0.00, 0.00, 0.00, -187500.02, 0.000, 0.000, 0.000, 17:19:00.611
44, 62094.30, 0.00, 0.00, 0.00, 0.00, 0.00, 0.00, -187500.02, 0.000, 0.000, 0.000, 17:19:00.611
45, 61431.80, 0.00, 0.00, 0.00, 0.00, 0.00, 0.00, -187500.02, 0.000, 0.000, 0.000, 17:19:00.611
46, 61407.53, 0.00, 0.00, 0.00, 0.00, 0.00, 0.00, -187500.02, 0.198, 0.200, -0.974, 17:19:00.611
47, 62050.14, 0.00, 0.00, 0.00, 0.00, 0.00, 0.00, -187500.02, 0.000, 0.000, 0.000, 17:19:00.611
48, 62164.13, 0.00, 0.00, 0.00, 0.00, 0.00, 0.00, -187500.02, 0.000, 0.000, 0.000, 17:19:00.611
49, 61532.16, 0.00, 0.00, 0.00, 0.00, 0.00, 0.00, -187500.02, 0.000, 0.000, 0.000, 17:19:00.611
50, 61335.53, 0.00, 0.00, 0.00, 0.00, 0.00, 0.00, -187500.02, 0.000, 0.000, 0.000, 17:19:00.611
51, 61940.17, 0.00, 0.00, 0.00, 0.00, 0.00, 0.00, -187500.02, 0.000, 0.000, 0.000, 17:19:00.612
52, 62200.32, 0.00, 0.00, 0.00, 0.00, 0.00, 0.00, -187500.02, 0.000, 0.000, 0.000, 17:19:00.612
53, 61628.43, 0.00, 0.00, 0.00, 0.00, 0.00, 0.00, -187500.02, 0.000, 0.000, 0.000, 17:19:00.612
54, 61288.50, 0.00, 0.00, 0.00, 0.00, 0.00, 0.00, -187500.02, 0.000, 0.000, 0.000, 17:19:00.612
55, 61816.63, 0.00, 0.00, 0.00, 0.00, 0.00, 0.00, -187500.02, 0.000, 0.000, 0.000, 17:19:00.612
56, 62225.54, 0.00, 0.00, 0.00, 0.00, 0.00, 0.00, -187500.02, 0.206, 0.204, -0.974, 17:19:00.612
57, 61761.73, 0.00, 0.00, 0.00, 0.00, 0.00, 0.00, -187500.02, 0.000, 0.000, 0.000, 17:19:00.612
58, 61299.16, 0.00, 0.00, 0.00, 0.00, 0.00, 0.00, -187500.02, 0.000, 0.000, 0.000, 17:19:00.612
59, 61706.14, 0.00, 0.00, 0.00, 0.00, 0.00, 0.00, -187500.02, 0.000, 0.000, 0.000, 17:19:00.612
60, 62234.61, 0.00, 0.00, 0.00, 0.00, 0.00, 0.00, -187500.02, 0.000, 0.000, 0.000, 17:19:00.612
61, 61888.31, 0.00, 0.00, 0.00, 0.00, 0.00, 0.00, -187500.02, 0.000, 0.000, 0.000, 17:19:00.612
62, 61316.67, 0.00, 0.00, 0.00, 0.00, 0.00, 0.00, -187500.02, 0.000, 0.000, 0.000, 17:19:00.612
63, 61579.50, 0.00, 0.00, 0.00, 0.00, 0.00, 0.00, -187500.02, 0.000, 0.000, 0.000, 17:19:00.612
64, 62173.97, 0.00, 0.00, 0.00, 0.00, 0.00, 0.00, -187500.02, 0.000, 0.000, 0.000, 17:19:00.612
65, 62008.12, 0.00, 0.00, 0.00, 0.00, 0.00, 0.00, -187500.02, 0.000, 0.000, 0.000, 17:19:00.613
66, 61376.23, 0.00, 0.00, 0.00, 0.00, 0.00, 0.00, -187500.02, 0.212, 0.204, -0.974, 17:19:00.613
67, 61472.66, 0.00, 0.00, 0.00, 0.00, 0.00, 0.00, -187500.02, 0.000, 0.000, 0.000, 17:19:00.613
68, 62113.75, 0.00, 0.00, 0.00, 0.00, 0.00, 0.00, -187500.02, 0.000, 0.000, 0.000, 17:19:00.613
69, 62101.44, 0.00, 0.00, 0.00, 0.00, 0.00, 0.00, -187500.02, 0.000, 0.000, 0.000, 17:19:00.613
70, 61467.18, 0.00, 0.00, 0.00, 0.00, 0.00, 0.00, -187500.02, 0.000, 0.000, 0.000, 17:19:00.613
71, 61378.47, 0.00, 0.00, 0.00, 0.00, 0.00, 0.00, -187500.02, 0.000, 0.000, 0.000, 17:19:00.613
72, 62011.25, 0.00, 0.00, 0.00, 0.00, 0.00, 0.00, -187500.02, 0.000, 0.000, 0.000, 17:19:00.613
73, 62180.05, 0.00, 0.00, 0.00, 0.00, 0.00, 0.00, -187500.02, 0.000, 0.000, 0.000, 17:19:00.613
74, 61576.89, 0.00, 0.00, 0.00, 0.00, 0.00, 0.00, -187500.02, 0.000, 0.000, 0.000, 17:19:00.613
75, 61350.42, 0.00, 0.00, 0.00, 0.00, 0.00, 0.00, -187500.02, 0.000, 0.000, 0.000, 17:19:00.613
76, 61935.21, 0.00, 0.00, 0.00, 0.00, 0.00, 0.00, -187500.02, 0.210, 0.204, -0.974, 17:19:00.613
77, 62237.43, 0.00, 0.00, 0.00, 0.00, 0.00, 0.00, -187500.02, 0.000, 0.000, 0.000, 17:19:00.613
78, 61696.82, 0.00, 0.00, 0.00, 0.00, 0.00, 0.00, -187500.02, 0.000, 0.000, 0.000, 17:19:00.613
79, 61316.98, 0.00, 0.00, 0.00, 0.00, 0.00, 0.00, -187500.02, 0.000, 0.000, 0.000, 17:19:00.614
80, 61814.75, 0.00, 0.00, 0.00, 0.00, 0.00, 0.00, -187500.02, 0.000, 0.000, 0.000, 17:19:00.614
81, 62260.80, 0.00, 0.00, 0.00, 0.00, 0.00, 0.00, -187500.02, 0.000, 0.000, 0.000, 17:19:00.614
82, 61816.05, 0.00, 0.00, 0.00, 0.00, 0.00, 0.00, -187500.02, 0.000, 0.000, 0.000, 17:19:00.614
83, 61316.96, 0.00, 0.00, 0.00, 0.00, 0.00, 0.00, -187500.02, 0.000, 0.000, 0.000, 17:19:00.614
84, 61695.06, 0.00, 0.00, 0.00, 0.00, 0.00, 0.00, -187500.02, 0.000, 0.000, 0.000, 17:19:00.614
85, 62239.53, 0.00, 0.00, 0.00, 0.00, 0.00, 0.00, -187500.02, 0.000, 0.000, 0.000, 17:19:00.614
86, 61950.23, 0.00, 0.00, 0.00, 0.00, 0.00, 0.00, -187500.02, 0.210, 0.200, -0.974, 17:19:00.614
87, 61364.52, 0.00, 0.00, 0.00, 0.00, 0.00, 0.00, -187500.02, 0.000, 0.000, 0.000, 17:19:00.615
88, 61572.30, 0.00, 0.00, 0.00, 0.00, 0.00, 0.00, -187500.02, 0.000, 0.000, 0.000, 17:19:00.615
89, 62184.36, 0.00, 0.00, 0.00, 0.00, 0.00, 0.00, -187500.02, 0.000, 0.000, 0.000, 17:19:00.615
90, 62047.79, 0.00, 0.00, 0.00, 0.00, 0.00, 0.00, -187500.02, 0.000, 0.000, 0.000, 17:19:00.615
91, 61419.51, 0.00, 0.00, 0.00, 0.00, 0.00, 0.00, -187500.02, 0.000, 0.000, 0.000, 17:19:00.615
92, 61461.30, 0.00, 0.00, 0.00, 0.00, 0.00, 0.00, -187500.02, 0.000, 0.000, 0.000, 17:19:00.615
93, 62088.67, 0.00, 0.00, 0.00, 0.00, 0.00, 0.00, -187500.02, 0.000, 0.000, 0.000, 17:19:00.615
94, 62122.11, 0.00, 0.00, 0.00, 0.00, 0.00, 0.00, -187500.02, 0.000, 0.000, 0.000, 17:19:00.615
95, 61489.20, 0.00, 0.00, 0.00, 0.00, 0.00, 0.00, -187500.02, 0.000, 0.000, 0.000, 17:19:00.615
96, 61368.70, 0.00, 0.00, 0.00, 0.00, 0.00, 0.00, -187500.02, 0.208, 0.198, -0.972, 17:19:00.615
97, 61990.86, 0.00, 0.00, 0.00, 0.00, 0.00, 0.00, -187500.02, 0.000, 0.000, 0.000, 17:19:00.615
98, 62194.64, 0.00, 0.00, 0.00, 0.00, 0.00, 0.00, -187500.02, 0.000, 0.000, 0.000, 17:19:00.615
99, 61610.10, 0.00, 0.00, 0.00, 0.00, 0.00, 0.00, -187500.02, 0.000, 0.000, 0.000, 17:19:00.615
100, 61339.76, 0.00, 0.00, 0.00, 0.00, 0.00, 0.00, -187500.02, 0.000, 0.000, 0.000, 17:19:00.616
101, 61898.24, 0.00, 0.00, 0.00, 0.00, 0.00, 0.00, -187500.02, 0.000, 0.000, 0.000, 17:19:00.616
102, 62237.98, 0.00, 0.00, 0.00, 0.00, 0.00, 0.00, -187500.02, 0.000, 0.000, 0.000, 17:19:00.616
103, 61723.58, 0.00, 0.00, 0.00, 0.00, 0.00, 0.00, -187500.02, 0.000, 0.000, 0.000, 17:19:00.616
104, 61308.55, 0.00, 0.00, 0.00, 0.00, 0.00, 0.00, -187500.02, 0.000, 0.000, 0.000, 17:19:00.616
105, 61776.73, 0.00, 0.00, 0.00, 0.00, 0.00, 0.00, -187500.02, 0.000, 0.000, 0.000, 17:19:00.616
106, 62249.23, 0.00, 0.00, 0.00, 0.00, 0.00, 0.00, -187500.02, 0.208, 0.194, -0.972, 17:19:00.616
107, 61848.19, 0.00, 0.00, 0.00, 0.00, 0.00, 0.00, -187500.02, 0.000, 0.000, 0.000, 17:19:00.616
108, 61317.34, 0.00, 0.00, 0.00, 0.00, 0.00, 0.00, -187500.02, 0.000, 0.000, 0.000, 17:19:00.616
109, 61646.63, 0.00, 0.00, 0.00, 0.00, 0.00, 0.00, -187500.02, 0.000, 0.000, 0.000, 17:19:00.616
110, 62220.06, 0.00, 0.00, 0.00, 0.00, 0.00, 0.00, -187500.02, 0.000, 0.000, 0.000, 17:19:00.616
111, 61960.40, 0.00, 0.00, 0.00, 0.00, 0.00, 0.00, -187500.02, 0.000, 0.000, 0.000, 17:19:00.616
112, 61356.65, 0.00, 0.00, 0.00, 0.00, 0.00, 0.00, -187500.02, 0.000, 0.000, 0.000, 17:19:00.616
113, 61533.46, 0.00, 0.00, 0.00, 0.00, 0.00, 0.00, -187500.02, 0.000, 0.000, 0.000, 17:19:00.616
114, 62161.70, 0.00, 0.00, 0.00, 0.00, 0.00, 0.00, -187500.02, 0.000, 0.000, 0.000, 17:19:00.617
115, 62060.76, 0.00, 0.00, 0.00, 0.00, 0.00, 0.00, -187500.02, 0.000, 0.000, 0.000, 17:19:00.617
116, 61424.63, 0.00, 0.00, 0.00, 0.00, 0.00, 0.00, -187500.02, 0.206, 0.196, -0.972, 17:19:00.617
117, 61430.86, 0.00, 0.00, 0.00, 0.00, 0.00, 0.00, -187500.02, 0.000, 0.000, 0.000, 17:19:00.617
118, 62066.79, 0.00, 0.00, 0.00, 0.00, 0.00, 0.00, -187500.02, 0.000, 0.000, 0.000, 17:19:00.617
119, 62148.87, 0.00, 0.00, 0.00, 0.00, 0.00, 0.00, -187500.02, 0.000, 0.000, 0.000, 17:19:00.617
120, 61517.61, 0.00, 0.00, 0.00, 0.00, 0.00, 0.00, -187500.02, 0.000, 0.000, 0.000, 17:19:01.085
121, 61356.90, 0.00, 0.00, 0.00, 0.00, 0.00, 0.00, -187500.02, 0.000, 0.000, 0.000, 17:19:01.085
122, 61959.77, 0.00, 0.00, 0.00, 0.00, 0.00, 0.00, -187500.02, 0.000, 0.000, 0.000, 17:19:01.085
123, 62204.81, 0.00, 0.00, 0.00, 0.00, 0.00, 0.00, -187500.02, 0.000, 0.000, 0.000, 17:19:01.085
124, 61628.09, 0.00, 0.00, 0.00, 0.00, 0.00, 0.00, -187500.02, 0.000, 0.000, 0.000, 17:19:01.085
125, 61317.67, 0.00, 0.00, 0.00, 0.00, 0.00, 0.00, -187500.02, 0.000, 0.000, 0.000, 17:19:01.086
126, 61845.02, 0.00, 0.00, 0.00, 0.00, 0.00, 0.00, -187500.02, 0.212, 0.198, -0.966, 17:19:01.086
127, 62215.59, 0.00, 0.00, 0.00, 0.00, 0.00, 0.00, -187500.02, 0.000, 0.000, 0.000, 17:19:01.086
128, 61733.57, 0.00, 0.00, 0.00, 0.00, 0.00, 0.00, -187500.02, 0.000, 0.000, 0.000, 17:19:01.086
129, 61302.41, 0.00, 0.00, 0.00, 0.00, 0.00, 0.00, -187500.02, 0.000, 0.000, 0.000, 17:19:01.086
130, 61732.07, 0.00, 0.00, 0.00, 0.00, 0.00, 0.00, -187500.02, 0.000, 0.000, 0.000, 17:19:01.086
131, 62233.42, 0.00, 0.00, 0.00, 0.00, 0.00, 0.00, -187500.02, 0.000, 0.000, 0.000, 17:19:01.086
132, 61873.40, 0.00, 0.00, 0.00, 0.00, 0.00, 0.00, -187500.02, 0.000, 0.000, 0.000, 17:19:01.086
133, 61316.36, 0.00, 0.00, 0.00, 0.00, 0.00, 0.00, -187500.02, 0.000, 0.000, 0.000, 17:19:01.086
134, 61604.42, 0.00, 0.00, 0.00, 0.00, 0.00, 0.00, -187500.02, 0.000, 0.000, 0.000, 17:19:01.086
135, 62183.98, 0.00, 0.00, 0.00, 0.00, 0.00, 0.00, -187500.02, 0.212, 0.202, -0.966, 17:19:01.087
136, 61952.66, 0.00, 0.00, 0.00, 0.00, 0.00, 0.00, -187500.02, 0.000, 0.000, 0.000, 17:19:01.087
137, 61352.12, 0.00, 0.00, 0.00, 0.00, 0.00, 0.00, -187500.02, 0.000, 0.000, 0.000, 17:19:01.087
138, 61499.19, 0.00, 0.00, 0.00, 0.00, 0.00, 0.00, -187500.02, 0.000, 0.000, 0.000, 17:19:01.087
139, 62131.19, 0.00, 0.00, 0.00, 0.00, 0.00, 0.00, -187500.02, 0.000, 0.000, 0.000, 17:19:01.087
140, 62068.58, 0.00, 0.00, 0.00, 0.00, 0.00, 0.00, -187500.02, 0.000, 0.000, 0.000, 17:19:01.087
141, 61422.59, 0.00, 0.00, 0.00, 0.00, 0.00, 0.00, -187500.02, 0.000, 0.000, 0.000, 17:19:01.087
142, 61381.09, 0.00, 0.00, 0.00, 0.00, 0.00, 0.00, -187500.02, 0.000, 0.000, 0.000, 17:19:01.087
143, 62031.43, 0.00, 0.00, 0.00, 0.00, 0.00, 0.00, -187500.02, 0.000, 0.000, 0.000, 17:19:01.087
144, 62145.25, 0.00, 0.00, 0.00, 0.00, 0.00, 0.00, -187500.02, 0.000, 0.000, 0.000, 17:19:01.088
145, 61522.84, 0.00, 0.00, 0.00, 0.00, 0.00, 0.00, -187500.02, 0.208, 0.206, -0.968, 17:19:01.088
146, 61329.68, 0.00, 0.00, 0.00, 0.00, 0.00, 0.00, -187500.02, 0.000, 0.000, 0.000, 17:19:01.088
147, 61916.86, 0.00, 0.00, 0.00, 0.00, 0.00, 0.00, -187500.02, 0.000, 0.000, 0.000, 17:19:01.088
148, 62198.15, 0.00, 0.00, 0.00, 0.00, 0.00, 0.00, -187500.02, 0.000, 0.000, 0.000, 17:19:01.088
149, 61629.99, 0.00, 0.00, 0.00, 0.00, 0.00, 0.00, -187500.02, 0.000, 0.000, 0.000, 17:19:01.088
150, 61284.75, 0.00, 0.00, 0.00, 0.00, 0.00, 0.00, -187500.02, 0.000, 0.000, 0.000, 17:19:01.089
151, 61798.91, 0.00, 0.00, 0.00, 0.00, 0.00, 0.00, -187500.02, 0.000, 0.000, 0.000, 17:19:01.089
152, 62199.52, 0.00, 0.00, 0.00, 0.00, 0.00, 0.00, -187500.02, 0.000, 0.000, 0.000, 17:19:01.089
153, 61743.74, 0.00, 0.00, 0.00, 0.00, 0.00, 0.00, -187500.02, 0.000, 0.000, 0.000, 17:19:01.090
154, 61270.89, 0.00, 0.00, 0.00, 0.00, 0.00, 0.00, -187500.02, 0.000, 0.000, 0.000, 17:19:01.090
155, 61663.30, 0.00, 0.00, 0.00, 0.00, 0.00, 0.00, -187500.02, 0.208, 0.198, -0.976, 17:19:01.090
156, 62185.25, 0.00, 0.00, 0.00, 0.00, 0.00, 0.00, -187500.02, 0.000, 0.000, 0.000, 17:19:01.090
157, 61875.13, 0.00, 0.00, 0.00, 0.00, 0.00, 0.00, -187500.02, 0.000, 0.000, 0.000, 17:19:01.090
158, 61308.78, 0.00, 0.00, 0.00, 0.00, 0.00, 0.00, -187500.02, 0.000, 0.000, 0.000, 17:19:01.090
159, 61552.59, 0.00, 0.00, 0.00, 0.00, 0.00, 0.00, -187500.02, 0.000, 0.000, 0.000, 17:19:01.090
160, 62144.80, 0.00, 0.00, 0.00, 0.00, 0.00, 0.00, -187500.02, 0.000, 0.000, 0.000, 17:19:01.091
161, 61968.73, 0.00, 0.00, 0.00, 0.00, 0.00, 0.00, -187500.02, 0.000, 0.000, 0.000, 17:19:01.091
162, 61348.03, 0.00, 0.00, 0.00, 0.00, 0.00, 0.00, -187500.02, 0.000, 0.000, 0.000, 17:19:01.091
163, 61435.33, 0.00, 0.00, 0.00, 0.00, 0.00, 0.00, -187500.02, 0.000, 0.000, 0.000, 17:19:01.091
164, 62076.78, 0.00, 0.00, 0.00, 0.00, 0.00, 0.00, -187500.02, 0.000, 0.000, 0.000, 17:19:01.091
165, 62069.65, 0.00, 0.00, 0.00, 0.00, 0.00, 0.00, -187500.02, 0.210, 0.196, -0.976, 17:19:01.091
166, 61432.34, 0.00, 0.00, 0.00, 0.00, 0.00, 0.00, -187500.02, 0.000, 0.000, 0.000, 17:19:01.091
167, 61358.71, 0.00, 0.00, 0.00, 0.00, 0.00, 0.00, -187500.02, 0.000, 0.000, 0.000, 17:19:01.091
168, 61981.27, 0.00, 0.00, 0.00, 0.00, 0.00, 0.00, -187500.02, 0.000, 0.000, 0.000, 17:19:01.091
169, 62131.95, 0.00, 0.00, 0.00, 0.00, 0.00, 0.00, -187500.02, 0.000, 0.000, 0.000, 17:19:01.092
170, 61529.72, 0.00, 0.00, 0.00, 0.00, 0.00, 0.00, -187500.02, 0.000, 0.000, 0.000, 17:19:01.092
171, 61298.36, 0.00, 0.00, 0.00, 0.00, 0.00, 0.00, -187500.02, 0.000, 0.000, 0.000, 17:19:01.092
172, 61866.23, 0.00, 0.00, 0.00, 0.00, 0.00, 0.00, -187500.02, 0.000, 0.000, 0.000, 17:19:01.092
173, 62165.96, 0.00, 0.00, 0.00, 0.00, 0.00, 0.00, -187500.02, 0.000, 0.000, 0.000, 17:19:01.092
174, 61628.63, 0.00, 0.00, 0.00, 0.00, 0.00, 0.00, -187500.02, 0.000, 0.000, 0.000, 17:19:01.092
175, 61252.70, 0.00, 0.00, 0.00, 0.00, 0.00, 0.00, -187500.02, 0.208, 0.198, -0.976, 17:19:01.092
176, 61750.34, 0.00, 0.00, 0.00, 0.00, 0.00, 0.00, -187500.02, 0.000, 0.000, 0.000, 17:19:01.092
177, 62189.57, 0.00, 0.00, 0.00, 0.00, 0.00, 0.00, -187500.02, 0.000, 0.000, 0.000, 17:19:01.092
178, 61775.75, 0.00, 0.00, 0.00, 0.00, 0.00, 0.00, -187500.02, 0.000, 0.000, 0.000, 17:19:01.092
179, 61271.25, 0.00, 0.00, 0.00, 0.00, 0.00, 0.00, -187500.02, 0.000, 0.000, 0.000, 17:19:01.092
180, 61626.73, 0.00, 0.00, 0.00, 0.00, 0.00, 0.00, -187500.02, 0.000, 0.000, 0.000, 17:19:01.093
181, 62163.13, 0.00, 0.00, 0.00, 0.00, 0.00, 0.00, -187500.02, 0.000, 0.000, 0.000, 17:19:01.093
182, 61887.39, 0.00, 0.00, 0.00, 0.00, 0.00, 0.00, -187500.02, 0.000, 0.000, 0.000, 17:19:01.093
183, 61309.45, 0.00, 0.00, 0.00, 0.00, 0.00, 0.00, -187500.02, 0.000, 0.000, 0.000, 17:19:01.093
184, 61514.39, 0.00, 0.00, 0.00, 0.00, 0.00, 0.00, -187500.02, 0.000, 0.000, 0.000, 17:19:01.093
185, 62113.95, 0.00, 0.00, 0.00, 0.00, 0.00, 0.00, -187500.02, 0.206, 0.194, -0.980, 17:19:01.093
186, 61988.34, 0.00, 0.00, 0.00, 0.00, 0.00, 0.00, -187500.02, 0.000, 0.000, 0.000, 17:19:01.093
187, 61372.08, 0.00, 0.00, 0.00, 0.00, 0.00, 0.00, -187500.02, 0.000, 0.000, 0.000, 17:19:01.093
188, 61424.31, 0.00, 0.00, 0.00, 0.00, 0.00, 0.00, -187500.02, 0.000, 0.000, 0.000, 17:19:01.093
189, 62047.90, 0.00, 0.00, 0.00, 0.00, 0.00, 0.00, -187500.02, 0.000, 0.000, 0.000, 17:19:01.093
190, 62090.60, 0.00, 0.00, 0.00, 0.00, 0.00, 0.00, -187500.02, 0.000, 0.000, 0.000, 17:19:01.093
191, 61468.91, 0.00, 0.00, 0.00, 0.00, 0.00, 0.00, -187500.02, 0.000, 0.000, 0.000, 17:19:01.094
192, 61361.41, 0.00, 0.00, 0.00, 0.00, 0.00, 0.00, -187500.02, 0.000, 0.000, 0.000, 17:19:01.094
193, 61958.45, 0.00, 0.00, 0.00, 0.00, 0.00, 0.00, -187500.02, 0.000, 0.000, 0.000, 17:19:01.094
194, 62150.34, 0.00, 0.00, 0.00, 0.00, 0.00, 0.00, -187500.02, 0.000, 0.000, 0.000, 17:19:01.094
195, 61569.02, 0.00, 0.00, 0.00, 0.00, 0.00, 0.00, -187500.02, 0.210, 0.198, -0.976, 17:19:01.094
196, 61296.21, 0.00, 0.00, 0.00, 0.00, 0.00, 0.00, -187500.02, 0.000, 0.000, 0.000, 17:19:01.094
197, 61840.05, 0.00, 0.00, 0.00, 0.00, 0.00, 0.00, -187500.02, 0.000, 0.000, 0.000, 17:19:01.094
198, 62193.97, 0.00, 0.00, 0.00, 0.00, 0.00, 0.00, -187500.02, 0.000, 0.000, 0.000, 17:19:01.094
199, 61684.62, 0.00, 0.00, 0.00, 0.00, 0.00, 0.00, -187500.02, 0.000, 0.000, 0.000, 17:19:01.095
200, 61264.32, 0.00, 0.00, 0.00, 0.00, 0.00, 0.00, -187500.02, 0.000, 0.000, 0.000, 17:19:01.095
201, 61714.53, 0.00, 0.00, 0.00, 0.00, 0.00, 0.00, -187500.02, 0.000, 0.000, 0.000, 17:19:01.095
202, 62187.82, 0.00, 0.00, 0.00, 0.00, 0.00, 0.00, -187500.02, 0.000, 0.000, 0.000, 17:19:01.095
203, 61789.18, 0.00, 0.00, 0.00, 0.00, 0.00, 0.00, -187500.02, 0.000, 0.000, 0.000, 17:19:01.095
204, 61263.52, 0.00, 0.00, 0.00, 0.00, 0.00, 0.00, -187500.02, 0.000, 0.000, 0.000, 17:19:01.095
205, 61589.63, 0.00, 0.00, 0.00, 0.00, 0.00, 0.00, -187500.02, 0.212, 0.196, -0.970, 17:19:01.095
206, 62152.58, 0.00, 0.00, 0.00, 0.00, 0.00, 0.00, -187500.02, 0.000, 0.000, 0.000, 17:19:01.095
207, 61909.17, 0.00, 0.00, 0.00, 0.00, 0.00, 0.00, -187500.02, 0.000, 0.000, 0.000, 17:19:01.095
208, 61317.63, 0.00, 0.00, 0.00, 0.00, 0.00, 0.00, -187500.02, 0.000, 0.000, 0.000, 17:19:01.095
209, 61481.58, 0.00, 0.00, 0.00, 0.00, 0.00, 0.00, -187500.02, 0.000, 0.000, 0.000, 17:19:01.096
210, 62095.80, 0.00, 0.00, 0.00, 0.00, 0.00, 0.00, -187500.02, 0.000, 0.000, 0.000, 17:19:01.096
211, 62017.44, 0.00, 0.00, 0.00, 0.00, 0.00, 0.00, -187500.02, 0.000, 0.000, 0.000, 17:19:01.096
212, 61387.68, 0.00, 0.00, 0.00, 0.00, 0.00, 0.00, -187500.02, 0.000, 0.000, 0.000, 17:19:01.096
213, 61381.66, 0.00, 0.00, 0.00, 0.00, 0.00, 0.00, -187500.02, 0.000, 0.000, 0.000, 17:19:01.096
214, 62009.44, 0.00, 0.00, 0.00, 0.00, 0.00, 0.00, -187500.02, 0.000, 0.000, 0.000, 17:19:01.096
215, 62091.33, 0.00, 0.00, 0.00, 0.00, 0.00, 0.00, -187500.02, 0.218, 0.196, -0.968, 17:19:01.096
216, 61474.58, 0.00, 0.00, 0.00, 0.00, 0.00, 0.00, -187500.02, 0.000, 0.000, 0.000, 17:19:01.096
217, 61314.70, 0.00, 0.00, 0.00, 0.00, 0.00, 0.00, -187500.02, 0.000, 0.000, 0.000, 17:19:01.097
218, 61904.96, 0.00, 0.00, 0.00, 0.00, 0.00, 0.00, -187500.02, 0.000, 0.000, 0.000, 17:19:01.097
219, 62142.36, 0.00, 0.00, 0.00, 0.00, 0.00, 0.00, -187500.02, 0.000, 0.000, 0.000, 17:19:01.097
220, 61600.76, 0.00, 0.00, 0.00, 0.00, 0.00, 0.00, -187500.02, 0.000, 0.000, 0.000, 17:19:01.097
221, 61293.42, 0.00, 0.00, 0.00, 0.00, 0.00, 0.00, -187500.02, 0.000, 0.000, 0.000, 17:19:01.097
222, 61795.69, 0.00, 0.00, 0.00, 0.00, 0.00, 0.00, -187500.02, 0.000, 0.000, 0.000, 17:19:01.097
223, 62174.50, 0.00, 0.00, 0.00, 0.00, 0.00, 0.00, -187500.02, 0.000, 0.000, 0.000, 17:19:01.097
224, 61714.95, 0.00, 0.00, 0.00, 0.00, 0.00, 0.00, -187500.02, 0.000, 0.000, 0.000, 17:19:01.097
225, 61254.21, 0.00, 0.00, 0.00, 0.00, 0.00, 0.00, -187500.02, 0.220, 0.198, -0.974, 17:19:01.097
226, 61674.85, 0.00, 0.00, 0.00, 0.00, 0.00, 0.00, -187500.02, 0.000, 0.000, 0.000, 17:19:01.097
227, 62169.00, 0.00, 0.00, 0.00, 0.00, 0.00, 0.00, -187500.02, 0.000, 0.000, 0.000, 17:19:01.098
228, 61817.26, 0.00, 0.00, 0.00, 0.00, 0.00, 0.00, -187500.02, 0.000, 0.000, 0.000, 17:19:01.098
229, 61277.48, 0.00, 0.00, 0.00, 0.00, 0.00, 0.00, -187500.02, 0.000, 0.000, 0.000, 17:19:01.098
230, 61557.17, 0.00, 0.00, 0.00, 0.00, 0.00, 0.00, -187500.02, 0.000, 0.000, 0.000, 17:19:01.098
231, 62144.46, 0.00, 0.00, 0.00, 0.00, 0.00, 0.00, -187500.02, 0.000, 0.000, 0.000, 17:19:01.098
232, 61937.38, 0.00, 0.00, 0.00, 0.00, 0.00, 0.00, -187500.02, 0.000, 0.000, 0.000, 17:19:01.098
233, 61336.67, 0.00, 0.00, 0.00, 0.00, 0.00, 0.00, -187500.02, 0.000, 0.000, 0.000, 17:19:01.098
234, 61454.00, 0.00, 0.00, 0.00, 0.00, 0.00, 0.00, -187500.02, 0.000, 0.000, 0.000, 17:19:01.098
235, 62076.13, 0.00, 0.00, 0.00, 0.00, 0.00, 0.00, -187500.02, 0.216, 0.196, -0.980, 17:19:01.098
236, 62029.29, 0.00, 0.00, 0.00, 0.00, 0.00, 0.00, -187500.02, 0.000, 0.000, 0.000, 17:19:01.098
237, 61401.65, 0.00, 0.00, 0.00, 0.00, 0.00, 0.00, -187500.02, 0.000, 0.000, 0.000, 17:19:01.099
238, 61368.59, 0.00, 0.00, 0.00, 0.00, 0.00, 0.00, -187500.02, 0.000, 0.000, 0.000, 17:19:01.099
239, 61986.19, 0.00, 0.00, 0.00, 0.00, 0.00, 0.00, -187500.02, 0.000, 0.000, 0.000, 17:19:01.099
240, 62102.84, 0.00, 0.00, 0.00, 0.00, 0.00, 0.00, -187500.02, 0.000, 0.000, 0.000, 17:19:01.568
241, 61508.80, 0.00, 0.00, 0.00, 0.00, 0.00, 0.00, -187500.02, 0.000, 0.000, 0.000, 17:19:01.568
242, 61306.77, 0.00, 0.00, 0.00, 0.00, 0.00, 0.00, -187500.02, 0.000, 0.000, 0.000, 17:19:01.568
243, 61880.85, 0.00, 0.00, 0.00, 0.00, 0.00, 0.00, -187500.02, 0.000, 0.000, 0.000, 17:19:01.568
244, 62165.43, 0.00, 0.00, 0.00, 0.00, 0.00, 0.00, -187500.02, 0.216, 0.200, -0.978, 17:19:01.569
245, 61629.59, 0.00, 0.00, 0.00, 0.00, 0.00, 0.00, -187500.02, 0.000, 0.000, 0.000, 17:19:01.569
246, 61277.21, 0.00, 0.00, 0.00, 0.00, 0.00, 0.00, -187500.02, 0.000, 0.000, 0.000, 17:19:01.569
247, 61762.32, 0.00, 0.00, 0.00, 0.00, 0.00, 0.00, -187500.02, 0.000, 0.000, 0.000, 17:19:01.569
248, 62176.70, 0.00, 0.00, 0.00, 0.00, 0.00, 0.00, -187500.02, 0.000, 0.000, 0.000, 17:19:01.569
249, 61748.39, 0.00, 0.00, 0.00, 0.00, 0.00, 0.00, -187500.02, 0.000, 0.000, 0.000, 17:19:01.570
250, 61271.36, 0.00, 0.00, 0.00, 0.00, 0.00, 0.00, -187500.02, 0.000, 0.000, 0.000, 17:19:01.570
251, 61648.34, 0.00, 0.00, 0.00, 0.00, 0.00, 0.00, -187500.02, 0.000, 0.000, 0.000, 17:19:01.570
252, 62164.63, 0.00, 0.00, 0.00, 0.00, 0.00, 0.00, -187500.02, 0.000, 0.000, 0.000, 17:19:01.570
253, 61852.77, 0.00, 0.00, 0.00, 0.00, 0.00, 0.00, -187500.02, 0.000, 0.000, 0.000, 17:19:01.571
254, 61300.73, 0.00, 0.00, 0.00, 0.00, 0.00, 0.00, -187500.02, 0.214, 0.200, -0.976, 17:19:01.571
255, 61534.21, 0.00, 0.00, 0.00, 0.00, 0.00, 0.00, -187500.02, 0.000, 0.000, 0.000, 17:19:01.571
0, 62126.70, 0.00, 0.00, 0.00, 0.00, 0.00, 0.00, -187500.02, 0.000, 0.000, 0.000, 17:19:01.571
1, 61980.74, 0.00, 0.00, 0.00, 0.00, 0.00, 0.00, -187500.02, 0.000, 0.000, 0.000, 17:19:01.572
2, 61369.42, 0.00, 0.00, 0.00, 0.00, 0.00, 0.00, -187500.02, 0.000, 0.000, 0.000, 17:19:01.572
3, 61446.13, 0.00, 0.00, 0.00, 0.00, 0.00, 0.00, -187500.02, 0.000, 0.000, 0.000, 17:19:01.572
4, 62060.84, 0.00, 0.00, 0.00, 0.00, 0.00, 0.00, -187500.02, 0.000, 0.000, 0.000, 17:19:01.572
5, 62072.56, 0.00, 0.00, 0.00, 0.00, 0.00, 0.00, -187500.02, 0.000, 0.000, 0.000, 17:19:01.572
6, 61451.65, 0.00, 0.00, 0.00, 0.00, 0.00, 0.00, -187500.02, 0.000, 0.000, 0.000, 17:19:01.573
7, 61357.30, 0.00, 0.00, 0.00, 0.00, 0.00, 0.00, -187500.02, 0.000, 0.000, 0.000, 17:19:01.573
8, 61968.93, 0.00, 0.00, 0.00, 0.00, 0.00, 0.00, -187500.02, 0.214, 0.202, -0.972, 17:19:01.573
9, 62135.30, 0.00, 0.00, 0.00, 0.00, 0.00, 0.00, -187500.02, 0.000, 0.000, 0.000, 17:19:01.573
10, 61548.52, 0.00, 0.00, 0.00, 0.00, 0.00, 0.00, -187500.02, 0.000, 0.000, 0.000, 17:19:01.574
11, 61302.43, 0.00, 0.00, 0.00, 0.00, 0.00, 0.00, -187500.02, 0.000, 0.000, 0.000, 17:19:01.574
12, 61855.61, 0.00, 0.00, 0.00, 0.00, 0.00, 0.00, -187500.02, 0.000, 0.000, 0.000, 17:19:01.574
13, 62177.84, 0.00, 0.00, 0.00, 0.00, 0.00, 0.00, -187500.02, 0.000, 0.000, 0.000, 17:19:01.574
14, 61664.86, 0.00, 0.00, 0.00, 0.00, 0.00, 0.00, -187500.02, 0.000, 0.000, 0.000, 17:19:01.575
15, 61273.86, 0.00, 0.00, 0.00, 0.00, 0.00, 0.00, -187500.02, 0.000, 0.000, 0.000, 17:19:01.575
16, 61732.23, 0.00, 0.00, 0.00, 0.00, 0.00, 0.00, -187500.02, 0.000, 0.000, 0.000, 17:19:01.575
17, 62181.39, 0.00, 0.00, 0.00, 0.00, 0.00, 0.00, -187500.02, 0.000, 0.000, 0.000, 17:19:01.575
18, 61776.51, 0.00, 0.00, 0.00, 0.00, 0.00, 0.00, -187500.02, 0.214, 0.200, -0.978, 17:19:01.576
19, 61278.20, 0.00, 0.00, 0.00, 0.00, 0.00, 0.00, -187500.02, 0.000, 0.000, 0.000, 17:19:01.576
20, 61618.55, 0.00, 0.00, 0.00, 0.00, 0.00, 0.00, -187500.02, 0.000, 0.000, 0.000, 17:19:01.576
21, 62159.93, 0.00, 0.00, 0.00, 0.00, 0.00, 0.00, -187500.02, 0.000, 0.000, 0.000, 17:19:01.576
22, 61888.13, 0.00, 0.00, 0.00, 0.00, 0.00, 0.00, -187500.02, 0.000, 0.000, 0.000, 17:19:01.577
23, 61311.82, 0.00, 0.00, 0.00, 0.00, 0.00, 0.00, -187500.02, 0.000, 0.000, 0.000, 17:19:01.577
24, 61513.54, 0.00, 0.00, 0.00, 0.00, 0.00, 0.00, -187500.02, 0.000, 0.000, 0.000, 17:19:01.577
25, 62122.60, 0.00, 0.00, 0.00, 0.00, 0.00, 0.00, -187500.02, 0.000, 0.000, 0.000, 17:19:01.577
26, 62003.87, 0.00, 0.00, 0.00, 0.00, 0.00, 0.00, -187500.02, 0.000, 0.000, 0.000, 17:19:01.577
27, 61384.84, 0.00, 0.00, 0.00, 0.00, 0.00, 0.00, -187500.02, 0.000, 0.000, 0.000, 17:19:01.578
28, 61420.98, 0.00, 0.00, 0.00, 0.00, 0.00, 0.00, -187500.02, 0.214, 0.196, -0.976, 17:19:01.578
29, 62047.34, 0.00, 0.00, 0.00, 0.00, 0.00, 0.00, -187500.02, 0.000, 0.000, 0.000, 17:19:01.578
30, 62089.93, 0.00, 0.00, 0.00, 0.00, 0.00, 0.00, -187500.02, 0.000, 0.000, 0.000, 17:19:01.578
31, 61481.80, 0.00, 0.00, 0.00, 0.00, 0.00, 0.00, -187500.02, 0.000, 0.000, 0.000, 17:19:01.578
32, 61348.45, 0.00, 0.00, 0.00, 0.00, 0.00, 0.00, -187500.02, 0.000, 0.000, 0.000, 17:19:01.579
33, 61950.61, 0.00, 0.00, 0.00, 0.00, 0.00, 0.00, -187500.02, 0.000, 0.000, 0.000, 17:19:01.579
34, 62162.46, 0.00, 0.00, 0.00, 0.00, 0.00, 0.00, -187500.02, 0.000, 0.000, 0.000, 17:19:01.579
35, 61577.15, 0.00, 0.00, 0.00, 0.00, 0.00, 0.00, -187500.02, 0.000, 0.000, 0.000, 17:19:01.579
36, 61299.50, 0.00, 0.00, 0.00, 0.00, 0.00, 0.00, -187500.02, 0.000, 0.000, 0.000, 17:19:01.580
37, 61841.80, 0.00, 0.00, 0.00, 0.00, 0.00, 0.00, -187500.02, 0.000, 0.000, 0.000, 17:19:01.580
38, 62190.96, 0.00, 0.00, 0.00, 0.00, 0.00, 0.00, -187500.02, 0.214, 0.196, -0.974, 17:19:01.580
39, 61689.20, 0.00, 0.00, 0.00, 0.00, 0.00, 0.00, -187500.02, 0.000, 0.000, 0.000, 17:19:01.580
40, 61266.80, 0.00, 0.00, 0.00, 0.00, 0.00, 0.00, -187500.02, 0.000, 0.000, 0.000, 17:19:01.580
41, 61697.63, 0.00, 0.00, 0.00, 0.00, 0.00, 0.00, -187500.02, 0.000, 0.000, 0.000, 17:19:01.581
42, 62184.07, 0.00, 0.00, 0.00, 0.00, 0.00, 0.00, -187500.02, 0.000, 0.000, 0.000, 17:19:01.581
43, 61814.60, 0.00, 0.00, 0.00, 0.00, 0.00, 0.00, -187500.02, 0.000, 0.000, 0.000, 17:19:01.581
44, 61305.94, 0.00, 0.00, 0.00, 0.00, 0.00, 0.00, -187500.02, 0.000, 0.000, 0.000, 17:19:01.581
45, 61602.50, 0.00, 0.00, 0.00, 0.00, 0.00, 0.00, -187500.02, 0.000, 0.000, 0.000, 17:19:01.581
46, 62164.02, 0.00, 0.00, 0.00, 0.00, 0.00, 0.00, -187500.02, 0.000, 0.000, 0.000, 17:19:01.581
47, 61929.39, 0.00, 0.00, 0.00, 0.00, 0.00, 0.00, -187500.02, 0.000, 0.000, 0.000, 17:19:01.581
48, 61329.63, 0.00, 0.00, 0.00, 0.00, 0.00, 0.00, -187500.02, 0.214, 0.200, -0.978, 17:19:01.582
49, 61490.05, 0.00, 0.00, 0.00, 0.00, 0.00, 0.00, -187500.02, 0.000, 0.000, 0.000, 17:19:01.582
50, 62096.56, 0.00, 0.00, 0.00, 0.00, 0.00, 0.00, -187500.02, 0.000, 0.000, 0.000, 17:19:01.582
51, 62021.75, 0.00, 0.00, 0.00, 0.00, 0.00, 0.00, -187500.02, 0.000, 0.000, 0.000, 17:19:01.582
52, 61396.73, 0.00, 0.00, 0.00, 0.00, 0.00, 0.00, -187500.02, 0.000, 0.000, 0.000, 17:19:01.582
53, 61382.05, 0.00, 0.00, 0.00, 0.00, 0.00, 0.00, -187500.02, 0.000, 0.000, 0.000, 17:19:01.583
54, 62005.70, 0.00, 0.00, 0.00, 0.00, 0.00, 0.00, -187500.02, 0.000, 0.000, 0.000, 17:19:01.583
55, 62105.23, 0.00, 0.00, 0.00, 0.00, 0.00, 0.00, -187500.02, 0.000, 0.000, 0.000, 17:19:01.583
56, 61482.88, 0.00, 0.00, 0.00, 0.00, 0.00, 0.00, -187500.02, 0.000, 0.000, 0.000, 17:19:01.583
57, 61312.42, 0.00, 0.00, 0.00, 0.00, 0.00, 0.00, -187500.02, 0.000, 0.000, 0.000, 17:19:01.583
58, 61909.79, 0.00, 0.00, 0.00, 0.00, 0.00, 0.00, -187500.02, 0.212, 0.196, -0.974, 17:19:01.584
59, 62149.89, 0.00, 0.00, 0.00, 0.00, 0.00, 0.00, -187500.02, 0.000, 0.000, 0.000, 17:19:01.584
60, 61596.87, 0.00, 0.00, 0.00, 0.00, 0.00, 0.00, -187500.02, 0.000, 0.000, 0.000, 17:19:01.584
61, 61278.11, 0.00, 0.00, 0.00, 0.00, 0.00, 0.00, -187500.02, 0.000, 0.000, 0.000, 17:19:01.584
62, 61793.70, 0.00, 0.00, 0.00, 0.00, 0.00, 0.00, -187500.02, 0.000, 0.000, 0.000, 17:19:01.585
63, 62166.32, 0.00, 0.00, 0.00, 0.00, 0.00, 0.00, -187500.02, 0.000, 0.000, 0.000, 17:19:01.585
64, 61714.35, 0.00, 0.00, 0.00, 0.00, 0.00, 0.00, -187500.02, 0.000, 0.000, 0.000, 17:19:01.585
65, 61265.05, 0.00, 0.00, 0.00, 0.00, 0.00, 0.00, -187500.02, 0.000, 0.000, 0.000, 17:19:01.585
66, 61660.88, 0.00, 0.00, 0.00, 0.00, 0.00, 0.00, -187500.02, 0.000, 0.000, 0.000, 17:19:01.585
67, 62153.23, 0.00, 0.00, 0.00, 0.00, 0.00, 0.00, -187500.02, 0.000, 0.000, 0.000, 17:19:01.586
68, 61833.02, 0.00, 0.00, 0.00, 0.00, 0.00, 0.00, -187500.02, 0.210, 0.196, -0.972, 17:19:01.586
69, 61293.69, 0.00, 0.00, 0.00, 0.00, 0.00, 0.00, -187500.02, 0.000, 0.000, 0.000, 17:19:01.586
70, 61550.00, 0.00, 0.00, 0.00, 0.00, 0.00, 0.00, -187500.02, 0.000, 0.000, 0.000, 17:19:01.586
71, 62123.16, 0.00, 0.00, 0.00, 0.00, 0.00, 0.00, -187500.02, 0.000, 0.000, 0.000, 17:19:01.586
72, 61951.23, 0.00, 0.00, 0.00, 0.00, 0.00, 0.00, -187500.02, 0.000, 0.000, 0.000, 17:19:01.587
73, 61341.79, 0.00, 0.00, 0.00, 0.00, 0.00, 0.00, -187500.02, 0.000, 0.000, 0.000, 17:19:01.587
74, 61437.99, 0.00, 0.00, 0.00, 0.00, 0.00, 0.00, -187500.02, 0.000, 0.000, 0.000, 17:19:01.587
75, 62072.02, 0.00, 0.00, 0.00, 0.00, 0.00, 0.00, -187500.02, 0.000, 0.000, 0.000, 17:19:01.587
76, 62044.93, 0.00, 0.00, 0.00, 0.00, 0.00, 0.00, -187500.02, 0.000, 0.000, 0.000, 17:19:01.587
77, 61420.82, 0.00, 0.00, 0.00, 0.00, 0.00, 0.00, -187500.02, 0.000, 0.000, 0.000, 17:19:01.588
78, 61352.96, 0.00, 0.00, 0.00, 0.00, 0.00, 0.00, -187500.02, 0.206, 0.194, -0.974, 17:19:01.588
79, 61958.27, 0.00, 0.00, 0.00, 0.00, 0.00, 0.00, -187500.02, 0.000, 0.000, 0.000, 17:19:01.588
80, 62091.16, 0.00, 0.00, 0.00, 0.00, 0.00, 0.00, -187500.02, 0.000, 0.000, 0.000, 17:19:01.588
81, 61501.16, 0.00, 0.00, 0.00, 0.00, 0.00, 0.00, -187500.02, 0.000, 0.000, 0.000, 17:19:01.589
82, 61292.23, 0.00, 0.00, 0.00, 0.00, 0.00, 0.00, -187500.02, 0.000, 0.000, 0.000, 17:19:01.589
83, 61851.32, 0.00, 0.00, 0.00, 0.00, 0.00, 0.00, -187500.02, 0.000, 0.000, 0.000, 17:19:01.589
84, 62135.75, 0.00, 0.00, 0.00, 0.00, 0.00, 0.00, -187500.02, 0.000, 0.000, 0.000, 17:19:01.589
85, 61611.82, 0.00, 0.00, 0.00, 0.00, 0.00, 0.00, -187500.02, 0.000, 0.000, 0.000, 17:19:01.590
86, 61257.12, 0.00, 0.00, 0.00, 0.00, 0.00, 0.00, -187500.02, 0.000, 0.000, 0.000, 17:19:01.590
87, 61745.57, 0.00, 0.00, 0.00, 0.00, 0.00, 0.00, -187500.02, 0.000, 0.000, 0.000, 17:19:01.590
88, 62162.39, 0.00, 0.00, 0.00, 0.00, 0.00, 0.00, -187500.02, 0.208, 0.196, -0.972, 17:19:01.590
89, 61730.44, 0.00, 0.00, 0.00, 0.00, 0.00, 0.00, -187500.02, 0.000, 0.000, 0.000, 17:19:01.591
90, 61267.31, 0.00, 0.00, 0.00, 0.00, 0.00, 0.00, -187500.02, 0.000, 0.000, 0.000, 17:19:01.591
91, 61633.08, 0.00, 0.00, 0.00, 0.00, 0.00, 0.00, -187500.02, 0.000, 0.000, 0.000, 17:19:01.591
92, 62150.61, 0.00, 0.00, 0.00, 0.00, 0.00, 0.00, -187500.02, 0.000, 0.000, 0.000, 17:19:01.591
93, 61839.81, 0.00, 0.00, 0.00, 0.00, 0.00, 0.00, -187500.02, 0.000, 0.000, 0.000, 17:19:01.592
94, 61296.35, 0.00, 0.00, 0.00, 0.00, 0.00, 0.00, -187500.02, 0.000, 0.000, 0.000, 17:19:01.592
95, 61524.79, 0.00, 0.00, 0.00, 0.00, 0.00, 0.00, -187500.02, 0.000, 0.000, 0.000, 17:19:01.592
96, 62107.58, 0.00, 0.00, 0.00, 0.00, 0.00, 0.00, -187500.02, 0.000, 0.000, 0.000, 17:19:01.592
97, 61967.37, 0.00, 0.00, 0.00, 0.00, 0.00, 0.00, -187500.02, 0.206, 0.202, -0.970, 17:19:01.593
98, 61355.94, 0.00, 0.00, 0.00, 0.00, 0.00, 0.00, -187500.02, 0.000, 0.000, 0.000, 17:19:01.593
99, 61423.11, 0.00, 0.00, 0.00, 0.00, 0.00, 0.00, -187500.02, 0.000, 0.000, 0.000, 17:19:01.593
100, 62043.55, 0.00, 0.00, 0.00, 0.00, 0.00, 0.00, -187500.02, 0.000, 0.000, 0.000, 17:19:01.593
101, 62056.04, 0.00, 0.00, 0.00, 0.00, 0.00, 0.00, -187500.02, 0.000, 0.000, 0.000, 17:19:01.594
102, 61441.77, 0.00, 0.00, 0.00, 0.00, 0.00, 0.00, -187500.02, 0.000, 0.000, 0.000, 17:19:01.594
103, 61348.77, 0.00, 0.00, 0.00, 0.00, 0.00, 0.00, -187500.02, 0.000, 0.000, 0.000, 17:19:01.594
104, 61955.59, 0.00, 0.00, 0.00, 0.00, 0.00, 0.00, -187500.02, 0.000, 0.000, 0.000, 17:19:01.866
105, 62128.01, 0.00, 0.00, 0.00, 0.00, 0.00, 0.00, -187500.02, 0.000, 0.000, 0.000, 17:19:01.867
106, 61547.05, 0.00, 0.00, 0.00, 0.00, 0.00, 0.00, -187500.02, 0.000, 0.000, 0.000, 17:19:01.867
107, 61294.07, 0.00, 0.00, 0.00, 0.00, 0.00, 0.00, -187500.02, 0.210, 0.200, -0.976, 17:19:01.867
108, 61837.15, 0.00, 0.00, 0.00, 0.00, 0.00, 0.00, -187500.02, 0.000, 0.000, 0.000, 17:19:01.868
109, 62179.31, 0.00, 0.00, 0.00, 0.00, 0.00, 0.00, -187500.02, 0.000, 0.000, 0.000, 17:19:01.868
110, 61672.62, 0.00, 0.00, 0.00, 0.00, 0.00, 0.00, -187500.02, 0.000, 0.000, 0.000, 17:19:01.868
111, 61278.73, 0.00, 0.00, 0.00, 0.00, 0.00, 0.00, -187500.02, 0.000, 0.000, 0.000, 17:19:01.868
112, 61734.40, 0.00, 0.00, 0.00, 0.00, 0.00, 0.00, -187500.02, 0.000, 0.000, 0.000, 17:19:01.869
113, 62191.69, 0.00, 0.00, 0.00, 0.00, 0.00, 0.00, -187500.02, 0.000, 0.000, 0.000, 17:19:01.869
114, 61790.90, 0.00, 0.00, 0.00, 0.00, 0.00, 0.00, -187500.02, 0.000, 0.000, 0.000, 17:19:01.869
115, 61279.32, 0.00, 0.00, 0.00, 0.00, 0.00, 0.00, -187500.02, 0.000, 0.000, 0.000, 17:19:01.870
116, 61613.83, 0.00, 0.00, 0.00, 0.00, 0.00, 0.00, -187500.02, 0.000, 0.000, 0.000, 17:19:01.870
117, 62161.07, 0.00, 0.00, 0.00, 0.00, 0.00, 0.00, -187500.02, 0.216, 0.196, -0.970, 17:19:01.870
118, 61904.54, 0.00, 0.00, 0.00, 0.00, 0.00, 0.00, -187500.02, 0.000, 0.000, 0.000, 17:19:01.870
119, 61304.86, 0.00, 0.00, 0.00, 0.00, 0.00, 0.00, -187500.02, 0.000, 0.000, 0.000, 17:19:01.871
120, 61487.21, 0.00, 0.00, 0.00, 0.00, 0.00, 0.00, -187500.02, 0.000, 0.000, 0.000, 17:19:01.871
121, 62097.17, 0.00, 0.00, 0.00, 0.00, 0.00, 0.00, -187500.02, 0.000, 0.000, 0.000, 17:19:01.871
122, 61999.67, 0.00, 0.00, 0.00, 0.00, 0.00, 0.00, -187500.02, 0.000, 0.000, 0.000, 17:19:01.877
123, 61391.75, 0.00, 0.00, 0.00, 0.00, 0.00, 0.00, -187500.02, 0.000, 0.000, 0.000, 17:19:01.877
124, 61418.50, 0.00, 0.00, 0.00, 0.00, 0.00, 0.00, -187500.02, 0.000, 0.000, 0.000, 17:19:01.877
125, 62033.51, 0.00, 0.00, 0.00, 0.00, 0.00, 0.00, -187500.02, 0.000, 0.000, 0.000, 17:19:01.877
126, 62076.78, 0.00, 0.00, 0.00, 0.00, 0.00, 0.00, -187500.02, 0.000, 0.000, 0.000, 17:19:01.878
127, 61470.56, 0.00, 0.00, 0.00, 0.00, 0.00, 0.00, -187500.02, 0.216, 0.200, -0.972, 17:19:01.878
128, 61342.57, 0.00, 0.00, 0.00, 0.00, 0.00, 0.00, -187500.02, 0.000, 0.000, 0.000, 17:19:01.878
129, 61933.51, 0.00, 0.00, 0.00, 0.00, 0.00, 0.00, -187500.02, 0.000, 0.000, 0.000, 17:19:01.878
130, 62141.51, 0.00, 0.00, 0.00, 0.00, 0.00, 0.00, -187500.02, 0.000, 0.000, 0.000, 17:19:01.878
131, 61565.57, 0.00, 0.00, 0.00, 0.00, 0.00, 0.00, -187500.02, 0.000, 0.000, 0.000, 17:19:01.879
132, 61271.58, 0.00, 0.00, 0.00, 0.00, 0.00, 0.00, -187500.02, 0.000, 0.000, 0.000, 17:19:01.879
133, 61803.58, 0.00, 0.00, 0.00, 0.00, 0.00, 0.00, -187500.02, 0.000, 0.000, 0.000, 17:19:01.880
134, 62167.78, 0.00, 0.00, 0.00, 0.00, 0.00, 0.00, -187500.02, 0.000, 0.000, 0.000, 17:19:01.880
135, 61694.86, 0.00, 0.00, 0.00, 0.00, 0.00, 0.00, -187500.02, 0.000, 0.000, 0.000, 17:19:01.880
136, 61269.82, 0.00, 0.00, 0.00, 0.00, 0.00, 0.00, -187500.02, 0.000, 0.000, 0.000, 17:19:01.880
137, 61686.88, 0.00, 0.00, 0.00, 0.00, 0.00, 0.00, -187500.02, 0.212, 0.194, -0.978, 17:19:01.881
138, 62162.46, 0.00, 0.00, 0.00, 0.00, 0.00, 0.00, -187500.02, 0.000, 0.000, 0.000, 17:19:01.881
139, 61812.38, 0.00, 0.00, 0.00, 0.00, 0.00, 0.00, -187500.02, 0.000, 0.000, 0.000, 17:19:01.881
140, 61285.60, 0.00, 0.00, 0.00, 0.00, 0.00, 0.00, -187500.02, 0.000, 0.000, 0.000, 17:19:01.881
141, 61573.58, 0.00, 0.00, 0.00, 0.00, 0.00, 0.00, -187500.02, 0.000, 0.000, 0.000, 17:19:01.881
142, 62139.28, 0.00, 0.00, 0.00, 0.00, 0.00, 0.00, -187500.02, 0.000, 0.000, 0.000, 17:19:01.882
143, 61937.89, 0.00, 0.00, 0.00, 0.00, 0.00, 0.00, -187500.02, 0.000, 0.000, 0.000, 17:19:01.882
144, 61341.75, 0.00, 0.00, 0.00, 0.00, 0.00, 0.00, -187500.02, 0.000, 0.000, 0.000, 17:19:01.882
145, 61476.04, 0.00, 0.00, 0.00, 0.00, 0.00, 0.00, -187500.02, 0.000, 0.000, 0.000, 17:19:01.882
146, 62082.26, 0.00, 0.00, 0.00, 0.00, 0.00, 0.00, -187500.02, 0.000, 0.000, 0.000, 17:19:01.882
147, 62033.04, 0.00, 0.00, 0.00, 0.00, 0.00, 0.00, -187500.02, 0.210, 0.194, -0.976, 17:19:01.883
148, 61406.72, 0.00, 0.00, 0.00, 0.00, 0.00, 0.00, -187500.02, 0.000, 0.000, 0.000, 17:19:01.883
149, 61371.45, 0.00, 0.00, 0.00, 0.00, 0.00, 0.00, -187500.02, 0.000, 0.000, 0.000, 17:19:01.883
150, 61980.67, 0.00, 0.00, 0.00, 0.00, 0.00, 0.00, -187500.02, 0.000, 0.000, 0.000, 17:19:01.883
151, 62098.02, 0.00, 0.00, 0.00, 0.00, 0.00, 0.00, -187500.02, 0.000, 0.000, 0.000, 17:19:01.884
152, 61509.94, 0.00, 0.00, 0.00, 0.00, 0.00, 0.00, -187500.02, 0.000, 0.000, 0.000, 17:19:01.884
153, 61323.93, 0.00, 0.00, 0.00, 0.00, 0.00, 0.00, -187500.02, 0.000, 0.000, 0.000, 17:19:01.884
154, 61900.27, 0.00, 0.00, 0.00, 0.00, 0.00, 0.00, -187500.02, 0.000, 0.000, 0.000, 17:19:01.884
155, 62151.57, 0.00, 0.00, 0.00, 0.00, 0.00, 0.00, -187500.02, 0.000, 0.000, 0.000, 17:19:01.884
156, 61604.85, 0.00, 0.00, 0.00, 0.00, 0.00, 0.00, -187500.02, 0.000, 0.000, 0.000, 17:19:01.885
157, 61277.35, 0.00, 0.00, 0.00, 0.00, 0.00, 0.00, -187500.02, 0.212, 0.200, -0.968, 17:19:01.885
158, 61783.84, 0.00, 0.00, 0.00, 0.00, 0.00, 0.00, -187500.02, 0.000, 0.000, 0.000, 17:19:01.885
159, 62177.57, 0.00, 0.00, 0.00, 0.00, 0.00, 0.00, -187500.02, 0.000, 0.000, 0.000, 17:19:01.885
160, 61732.19, 0.00, 0.00, 0.00, 0.00, 0.00, 0.00, -187500.02, 0.000, 0.000, 0.000, 17:19:01.886
161, 61262.02, 0.00, 0.00, 0.00, 0.00, 0.00, 0.00, -187500.02, 0.000, 0.000, 0.000, 17:19:01.886
162, 61651.88, 0.00, 0.00, 0.00, 0.00, 0.00, 0.00, -187500.02, 0.000, 0.000, 0.000, 17:19:01.886
163, 62169.63, 0.00, 0.00, 0.00, 0.00, 0.00, 0.00, -187500.02, 0.000, 0.000, 0.000, 17:19:01.886
164, 61828.30, 0.00, 0.00, 0.00, 0.00, 0.00, 0.00, -187500.02, 0.000, 0.000, 0.000, 17:19:01.887
165, 61287.81, 0.00, 0.00, 0.00, 0.00, 0.00, 0.00, -187500.02, 0.000, 0.000, 0.000, 17:19:01.889
166, 61532.32, 0.00, 0.00, 0.00, 0.00, 0.00, 0.00, -187500.02, 0.000, 0.000, 0.000, 17:19:01.889
167, 62118.69, 0.00, 0.00, 0.00, 0.00, 0.00, 0.00, -187500.02, 0.210, 0.200, -0.976, 17:19:01.890
168, 61959.32, 0.00, 0.00, 0.00, 0.00, 0.00, 0.00, -187500.02, 0.000, 0.000, 0.000, 17:19:01.890
169, 61349.97, 0.00, 0.00, 0.00, 0.00, 0.00, 0.00, -187500.02, 0.000, 0.000, 0.000, 17:19:01.890
170, 61431.27, 0.00, 0.00, 0.00, 0.00, 0.00, 0.00, -187500.02, 0.000, 0.000, 0.000, 17:19:01.890
171, 62053.29, 0.00, 0.00, 0.00, 0.00, 0.00, 0.00, -187500.02, 0.000, 0.000, 0.000, 17:19:01.891
172, 62049.09, 0.00, 0.00, 0.00, 0.00, 0.00, 0.00, -187500.02, 0.000, 0.000, 0.000, 17:19:01.891
173, 61432.79, 0.00, 0.00, 0.00, 0.00, 0.00, 0.00, -187500.02, 0.000, 0.000, 0.000, 17:19:01.891
174, 61350.11, 0.00, 0.00, 0.00, 0.00, 0.00, 0.00, -187500.02, 0.000, 0.000, 0.000, 17:19:01.891
175, 61969.67, 0.00, 0.00, 0.00, 0.00, 0.00, 0.00, -187500.02, 0.000, 0.000, 0.000, 17:19:01.892
176, 62140.82, 0.00, 0.00, 0.00, 0.00, 0.00, 0.00, -187500.02, 0.000, 0.000, 0.000, 17:19:01.892
177, 61534.95, 0.00, 0.00, 0.00, 0.00, 0.00, 0.00, -187500.02, 0.216, 0.194, -0.976, 17:19:02.335
178, 61313.20, 0.00, 0.00, 0.00, 0.00, 0.00, 0.00, -187500.02, 0.000, 0.000, 0.000, 17:19:02.335
179, 61881.47, 0.00, 0.00, 0.00, 0.00, 0.00, 0.00, -187500.02, 0.000, 0.000, 0.000, 17:19:02.335
180, 62179.27, 0.00, 0.00, 0.00, 0.00, 0.00, 0.00, -187500.02, 0.000, 0.000, 0.000, 17:19:02.335
181, 61648.75, 0.00, 0.00, 0.00, 0.00, 0.00, 0.00, -187500.02, 0.000, 0.000, 0.000, 17:19:02.336
182, 61269.32, 0.00, 0.00, 0.00, 0.00, 0.00, 0.00, -187500.02, 0.000, 0.000, 0.000, 17:19:02.336
183, 61757.15, 0.00, 0.00, 0.00, 0.00, 0.00, 0.00, -187500.02, 0.000, 0.000, 0.000, 17:19:02.336
184, 62183.24, 0.00, 0.00, 0.00, 0.00, 0.00, 0.00, -187500.02, 0.000, 0.000, 0.000, 17:19:02.336
185, 61755.43, 0.00, 0.00, 0.00, 0.00, 0.00, 0.00, -187500.02, 0.000, 0.000, 0.000, 17:19:02.336
186, 61275.36, 0.00, 0.00, 0.00, 0.00, 0.00, 0.00, -187500.02, 0.000, 0.000, 0.000, 17:19:02.336
187, 61620.58, 0.00, 0.00, 0.00, 0.00, 0.00, 0.00, -187500.02, 0.216, 0.196, -0.970, 17:19:02.336
188, 62152.51, 0.00, 0.00, 0.00, 0.00, 0.00, 0.00, -187500.02, 0.000, 0.000, 0.000, 17:19:02.336
189, 61879.15, 0.00, 0.00, 0.00, 0.00, 0.00, 0.00, -187500.02, 0.000, 0.000, 0.000, 17:19:02.336
190, 61302.59, 0.00, 0.00, 0.00, 0.00, 0.00, 0.00, -187500.02, 0.000, 0.000, 0.000, 17:19:02.336
191, 61505.32, 0.00, 0.00, 0.00, 0.00, 0.00, 0.00, -187500.02, 0.000, 0.000, 0.000, 17:19:02.336
192, 62101.44, 0.00, 0.00, 0.00, 0.00, 0.00, 0.00, -187500.02, 0.000, 0.000, 0.000, 17:19:02.336
193, 61982.23, 0.00, 0.00, 0.00, 0.00, 0.00, 0.00, -187500.02, 0.000, 0.000, 0.000, 17:19:02.337
194, 61372.50, 0.00, 0.00, 0.00, 0.00, 0.00, 0.00, -187500.02, 0.000, 0.000, 0.000, 17:19:02.337
195, 61411.13, 0.00, 0.00, 0.00, 0.00, 0.00, 0.00, -187500.02, 0.000, 0.000, 0.000, 17:19:02.337
196, 62019.85, 0.00, 0.00, 0.00, 0.00, 0.00, 0.00, -187500.02, 0.214, 0.196, -0.972, 17:19:02.337
197, 62060.64, 0.00, 0.00, 0.00, 0.00, 0.00, 0.00, -187500.02, 0.000, 0.000, 0.000, 17:19:02.337
198, 61450.66, 0.00, 0.00, 0.00, 0.00, 0.00, 0.00, -187500.02, 0.000, 0.000, 0.000, 17:19:02.337
199, 61338.93, 0.00, 0.00, 0.00, 0.00, 0.00, 0.00, -187500.02, 0.000, 0.000, 0.000, 17:19:02.337
200, 61944.68, 0.00, 0.00, 0.00, 0.00, 0.00, 0.00, -187500.02, 0.000, 0.000, 0.000, 17:19:02.337
201, 62133.31, 0.00, 0.00, 0.00, 0.00, 0.00, 0.00, -187500.02, 0.000, 0.000, 0.000, 17:19:02.337
202, 61548.19, 0.00, 0.00, 0.00, 0.00, 0.00, 0.00, -187500.02, 0.000, 0.000, 0.000, 17:19:02.337
203, 61277.13, 0.00, 0.00, 0.00, 0.00, 0.00, 0.00, -187500.02, 0.000, 0.000, 0.000, 17:19:02.338
204, 61818.84, 0.00, 0.00, 0.00, 0.00, 0.00, 0.00, -187500.02, 0.000, 0.000, 0.000, 17:19:02.338
205, 62153.47, 0.00, 0.00, 0.00, 0.00, 0.00, 0.00, -187500.02, 0.000, 0.000, 0.000, 17:19:02.338
206, 61672.86, 0.00, 0.00, 0.00, 0.00, 0.00, 0.00, -187500.02, 0.224, 0.198, -0.976, 17:19:02.338
207, 61261.08, 0.00, 0.00, 0.00, 0.00, 0.00, 0.00, -187500.02, 0.000, 0.000, 0.000, 17:19:02.338
208, 61705.00, 0.00, 0.00, 0.00, 0.00, 0.00, 0.00, -187500.02, 0.000, 0.000, 0.000, 17:19:02.338
209, 62157.20, 0.00, 0.00, 0.00, 0.00, 0.00, 0.00, -187500.02, 0.000, 0.000, 0.000, 17:19:02.339
210, 61778.07, 0.00, 0.00, 0.00, 0.00, 0.00, 0.00, -187500.02, 0.000, 0.000, 0.000, 17:19:02.339
211, 61273.82, 0.00, 0.00, 0.00, 0.00, 0.00, 0.00, -187500.02, 0.000, 0.000, 0.000, 17:19:02.339
212, 61587.68, 0.00, 0.00, 0.00, 0.00, 0.00, 0.00, -187500.02, 0.000, 0.000, 0.000, 17:19:02.339
213, 62129.89, 0.00, 0.00, 0.00, 0.00, 0.00, 0.00, -187500.02, 0.000, 0.000, 0.000, 17:19:02.339
214, 61890.82, 0.00, 0.00, 0.00, 0.00, 0.00, 0.00, -187500.02, 0.000, 0.000, 0.000, 17:19:02.339
215, 61308.64, 0.00, 0.00, 0.00, 0.00, 0.00, 0.00, -187500.02, 0.000, 0.000, 0.000, 17:19:02.339
216, 61475.03, 0.00, 0.00, 0.00, 0.00, 0.00, 0.00, -187500.02, 0.214, 0.202, -0.972, 17:19:02.339
217, 62069.25, 0.00, 0.00, 0.00, 0.00, 0.00, 0.00, -187500.02, 0.000, 0.000, 0.000, 17:19:02.339
218, 61986.70, 0.00, 0.00, 0.00, 0.00, 0.00, 0.00, -187500.02, 0.000, 0.000, 0.000, 17:19:02.339
219, 61380.59, 0.00, 0.00, 0.00, 0.00, 0.00, 0.00, -187500.02, 0.000, 0.000, 0.000, 17:19:02.339
220, 61387.66, 0.00, 0.00, 0.00, 0.00, 0.00, 0.00, -187500.02, 0.000, 0.000, 0.000, 17:19:02.339
221, 61992.94, 0.00, 0.00, 0.00, 0.00, 0.00, 0.00, -187500.02, 0.000, 0.000, 0.000, 17:19:02.339
222, 62075.40, 0.00, 0.00, 0.00, 0.00, 0.00, 0.00, -187500.02, 0.000, 0.000, 0.000, 17:19:02.339
223, 61478.07, 0.00, 0.00, 0.00, 0.00, 0.00, 0.00, -187500.02, 0.000, 0.000, 0.000, 17:19:02.340
224, 61324.87, 0.00, 0.00, 0.00, 0.00, 0.00, 0.00, -187500.02, 0.000, 0.000, 0.000, 17:19:02.340
225, 61904.92, 0.00, 0.00, 0.00, 0.00, 0.00, 0.00, -187500.02, 0.000, 0.000, 0.000, 17:19:02.340
226, 62136.71, 0.00, 0.00, 0.00, 0.00, 0.00, 0.00, -187500.02, 0.214, 0.202, -0.970, 17:19:02.340
227, 61593.20, 0.00, 0.00, 0.00, 0.00, 0.00, 0.00, -187500.02, 0.000, 0.000, 0.000, 17:19:02.340
228, 61284.59, 0.00, 0.00, 0.00, 0.00, 0.00, 0.00, -187500.02, 0.000, 0.000, 0.000, 17:19:02.340
229, 61800.18, 0.00, 0.00, 0.00, 0.00, 0.00, 0.00, -187500.02, 0.000, 0.000, 0.000, 17:19:02.340
230, 62181.32, 0.00, 0.00, 0.00, 0.00, 0.00, 0.00, -187500.02, 0.000, 0.000, 0.000, 17:19:02.340
231, 61710.66, 0.00, 0.00, 0.00, 0.00, 0.00, 0.00, -187500.02, 0.000, 0.000, 0.000, 17:19:02.340
232, 61270.44, 0.00, 0.00, 0.00, 0.00, 0.00, 0.00, -187500.02, 0.000, 0.000, 0.000, 17:19:02.340
233, 61675.93, 0.00, 0.00, 0.00, 0.00, 0.00, 0.00, -187500.02, 0.000, 0.000, 0.000, 17:19:02.340
234, 62175.96, 0.00, 0.00, 0.00, 0.00, 0.00, 0.00, -187500.02, 0.000, 0.000, 0.000, 17:19:02.340
235, 61833.21, 0.00, 0.00, 0.00, 0.00, 0.00, 0.00, -187500.02, 0.000, 0.000, 0.000, 17:19:02.340
236, 61286.34, 0.00, 0.00, 0.00, 0.00, 0.00, 0.00, -187500.02, 0.210, 0.194, -0.974, 17:19:02.341
237, 61558.91, 0.00, 0.00, 0.00, 0.00, 0.00, 0.00, -187500.02, 0.000, 0.000, 0.000, 17:19:02.341
238, 62130.18, 0.00, 0.00, 0.00, 0.00, 0.00, 0.00, -187500.02, 0.000, 0.000, 0.000, 17:19:02.341
239, 61933.26, 0.00, 0.00, 0.00, 0.00, 0.00, 0.00, -187500.02, 0.000, 0.000, 0.000, 17:19:02.341
240, 61347.78, 0.00, 0.00, 0.00, 0.00, 0.00, 0.00, -187500.02, 0.000, 0.000, 0.000, 17:19:02.341
241, 61477.40, 0.00, 0.00, 0.00, 0.00, 0.00, 0.00, -187500.02, 0.000, 0.000, 0.000, 17:19:02.341
242, 62079.58, 0.00, 0.00, 0.00, 0.00, 0.00, 0.00, -187500.02, 0.000, 0.000, 0.000, 17:19:02.341
243, 62034.49, 0.00, 0.00, 0.00, 0.00, 0.00, 0.00, -187500.02, 0.000, 0.000, 0.000, 17:19:02.341
244, 61416.58, 0.00, 0.00, 0.00, 0.00, 0.00, 0.00, -187500.02, 0.000, 0.000, 0.000, 17:19:02.341
245, 61369.89, 0.00, 0.00, 0.00, 0.00, 0.00, 0.00, -187500.02, 0.000, 0.000, 0.000, 17:19:02.341
246, 61973.88, 0.00, 0.00, 0.00, 0.00, 0.00, 0.00, -187500.02, 0.208, 0.198, -0.974, 17:19:02.341
247, 62093.61, 0.00, 0.00, 0.00, 0.00, 0.00, 0.00, -187500.02, 0.000, 0.000, 0.000, 17:19:02.341
248, 61523.67, 0.00, 0.00, 0.00, 0.00, 0.00, 0.00, -187500.02, 0.000, 0.000, 0.000, 17:19:02.342
249, 61319.21, 0.00, 0.00, 0.00, 0.00, 0.00, 0.00, -187500.02, 0.000, 0.000, 0.000, 17:19:02.342
250, 61882.16, 0.00, 0.00, 0.00, 0.00, 0.00, 0.00, -187500.02, 0.000, 0.000, 0.000, 17:19:02.342
251, 62162.66, 0.00, 0.00, 0.00, 0.00, 0.00, 0.00, -187500.02, 0.000, 0.000, 0.000, 17:19:02.342
252, 61638.62, 0.00, 0.00, 0.00, 0.00, 0.00, 0.00, -187500.02, 0.000, 0.000, 0.000, 17:19:02.342
253, 61293.40, 0.00, 0.00, 0.00, 0.00, 0.00, 0.00, -187500.02, 0.000, 0.000, 0.000, 17:19:02.342
254, 61783.95, 0.00, 0.00, 0.00, 0.00, 0.00, 0.00, -187500.02, 0.000, 0.000, 0.000, 17:19:02.342
255, 62185.84, 0.00, 0.00, 0.00, 0.00, 0.00, 0.00, -187500.02, 0.000, 0.000, 0.000, 17:19:02.342
0, 61749.73, 0.00, 0.00, 0.00, 0.00, 0.00, 0.00, -187500.02, 0.206, 0.202, -0.968, 17:19:02.342
1, 61283.43, 0.00, 0.00, 0.00, 0.00, 0.00, 0.00, -187500.02, 0.000, 0.000, 0.000, 17:19:02.342
2, 61660.35, 0.00, 0.00, 0.00, 0.00, 0.00, 0.00, -187500.02, 0.000, 0.000, 0.000, 17:19:02.342
3, 62173.61, 0.00, 0.00, 0.00, 0.00, 0.00, 0.00, -187500.02, 0.000, 0.000, 0.000, 17:19:02.342
4, 61866.14, 0.00, 0.00, 0.00, 0.00, 0.00, 0.00, -187500.02, 0.000, 0.000, 0.000, 17:19:02.343
5, 61304.42, 0.00, 0.00, 0.00, 0.00, 0.00, 0.00, -187500.02, 0.000, 0.000, 0.000, 17:19:02.343
6, 61546.78, 0.00, 0.00, 0.00, 0.00, 0.00, 0.00, -187500.02, 0.000, 0.000, 0.000, 17:19:02.343
7, 62115.03, 0.00, 0.00, 0.00, 0.00, 0.00, 0.00, -187500.02, 0.000, 0.000, 0.000, 17:19:02.343
8, 61961.00, 0.00, 0.00, 0.00, 0.00, 0.00, 0.00, -187500.02, 0.000, 0.000, 0.000, 17:19:02.344
9, 61375.59, 0.00, 0.00, 0.00, 0.00, 0.00, 0.00, -187500.02, 0.000, 0.000, 0.000, 17:19:02.344
10, 61433.54, 0.00, 0.00, 0.00, 0.00, 0.00, 0.00, -187500.02, 0.210, 0.202, -0.976, 17:19:02.344
11, 62045.78, 0.00, 0.00, 0.00, 0.00, 0.00, 0.00, -187500.02, 0.000, 0.000, 0.000, 17:19:02.344
12, 62045.29, 0.00, 0.00, 0.00, 0.00, 0.00, 0.00, -187500.02, 0.000, 0.000, 0.000, 17:19:02.345
13, 61430.48, 0.00, 0.00, 0.00, 0.00, 0.00, 0.00, -187500.02, 0.000, 0.000, 0.000, 17:19:02.345
14, 61344.54, 0.00, 0.00, 0.00, 0.00, 0.00, 0.00, -187500.02, 0.000, 0.000, 0.000, 17:19:02.345
15, 61966.52, 0.00, 0.00, 0.00, 0.00, 0.00, 0.00, -187500.02, 0.000, 0.000, 0.000, 17:19:02.345
16, 62129.11, 0.00, 0.00, 0.00, 0.00, 0.00, 0.00, -187500.02, 0.000, 0.000, 0.000, 17:19:02.345
17, 61535.22, 0.00, 0.00, 0.00, 0.00, 0.00, 0.00, -187500.02, 0.000, 0.000, 0.000, 17:19:02.345
18, 61301.51, 0.00, 0.00, 0.00, 0.00, 0.00, 0.00, -187500.02, 0.000, 0.000, 0.000, 17:19:02.345
19, 61850.54, 0.00, 0.00, 0.00, 0.00, 0.00, 0.00, -187500.02, 0.000, 0.000, 0.000, 17:19:02.345
20, 62153.58, 0.00, 0.00, 0.00, 0.00, 0.00, 0.00, -187500.02, 0.216, 0.202, -0.978, 17:19:02.346
21, 61645.17, 0.00, 0.00, 0.00, 0.00, 0.00, 0.00, -187500.02, 0.000, 0.000, 0.000, 17:19:02.346
22, 61258.29, 0.00, 0.00, 0.00, 0.00, 0.00, 0.00, -187500.02, 0.000, 0.000, 0.000, 17:19:02.346
23, 61720.50, 0.00, 0.00, 0.00, 0.00, 0.00, 0.00, -187500.02, 0.000, 0.000, 0.000, 17:19:02.346
24, 62164.69, 0.00, 0.00, 0.00, 0.00, 0.00, 0.00, -187500.02, 0.000, 0.000, 0.000, 17:19:02.346
25, 61776.96, 0.00, 0.00, 0.00, 0.00, 0.00, 0.00, -187500.02, 0.000, 0.000, 0.000, 17:19:02.346
26, 61282.38, 0.00, 0.00, 0.00, 0.00, 0.00, 0.00, -187500.02, 0.000, 0.000, 0.000, 17:19:02.346
27, 61611.04, 0.00, 0.00, 0.00, 0.00, 0.00, 0.00, -187500.02, 0.000, 0.000, 0.000, 17:19:02.346
28, 62155.35, 0.00, 0.00, 0.00, 0.00, 0.00, 0.00, -187500.02, 0.000, 0.000, 0.000, 17:19:02.346
29, 61883.39, 0.00, 0.00, 0.00, 0.00, 0.00, 0.00, -187500.02, 0.000, 0.000, 0.000, 17:19:02.346
30, 61291.68, 0.00, 0.00, 0.00, 0.00, 0.00, 0.00, -187500.02, 0.212, 0.200, -0.974, 17:19:02.346
31, 61491.93, 0.00, 0.00, 0.00, 0.00, 0.00, 0.00, -187500.02, 0.000, 0.000, 0.000, 17:19:02.346
32, 62079.80, 0.00, 0.00, 0.00, 0.00, 0.00, 0.00, -187500.02, 0.000, 0.000, 0.000, 17:19:02.347
33, 61970.01, 0.00, 0.00, 0.00, 0.00, 0.00, 0.00, -187500.02, 0.000, 0.000, 0.000, 17:19:02.347
34, 61365.41, 0.00, 0.00, 0.00, 0.00, 0.00, 0.00, -187500.02, 0.000, 0.000, 0.000, 17:19:02.347
35, 61408.06, 0.00, 0.00, 0.00, 0.00, 0.00, 0.00, -187500.02, 0.000, 0.000, 0.000, 17:19:02.347
36, 62020.34, 0.00, 0.00, 0.00, 0.00, 0.00, 0.00, -187500.02, 0.000, 0.000, 0.000, 17:19:02.347
37, 62055.44, 0.00, 0.00, 0.00, 0.00, 0.00, 0.00, -187500.02, 0.000, 0.000, 0.000, 17:19:02.347
38, 61444.79, 0.00, 0.00, 0.00, 0.00, 0.00, 0.00, -187500.02, 0.000, 0.000, 0.000, 17:19:02.347
39, 61324.98, 0.00, 0.00, 0.00, 0.00, 0.00, 0.00, -187500.02, 0.000, 0.000, 0.000, 17:19:02.347
40, 61916.59, 0.00, 0.00, 0.00, 0.00, 0.00, 0.00, -187500.02, 0.206, 0.198, -0.972, 17:19:02.347
41, 62120.61, 0.00, 0.00, 0.00, 0.00, 0.00, 0.00, -187500.02, 0.000, 0.000, 0.000, 17:19:02.347
42, 61561.15, 0.00, 0.00, 0.00, 0.00, 0.00, 0.00, -187500.02, 0.000, 0.000, 0.000, 17:19:03.034
43, 61286.38, 0.00, 0.00, 0.00, 0.00, 0.00, 0.00, -187500.02, 0.000, 0.000, 0.000, 17:19:03.034
44, 61812.38, 0.00, 0.00, 0.00, 0.00, 0.00, 0.00, -187500.02, 0.000, 0.000, 0.000, 17:19:03.035
45, 62165.68, 0.00, 0.00, 0.00, 0.00, 0.00, 0.00, -187500.02, 0.000, 0.000, 0.000, 17:19:03.035
46, 61675.01, 0.00, 0.00, 0.00, 0.00, 0.00, 0.00, -187500.02, 0.000, 0.000, 0.000, 17:19:03.035
47, 61262.35, 0.00, 0.00, 0.00, 0.00, 0.00, 0.00, -187500.02, 0.000, 0.000, 0.000, 17:19:03.035
48, 61703.84, 0.00, 0.00, 0.00, 0.00, 0.00, 0.00, -187500.02, 0.000, 0.000, 0.000, 17:19:03.035
49, 62172.18, 0.00, 0.00, 0.00, 0.00, 0.00, 0.00, -187500.02, 0.208, 0.198, -0.968, 17:19:03.036
50, 61799.62, 0.00, 0.00, 0.00, 0.00, 0.00, 0.00, -187500.02, 0.000, 0.000, 0.000, 17:19:03.036
51, 61275.05, 0.00, 0.00, 0.00, 0.00, 0.00, 0.00, -187500.02, 0.000, 0.000, 0.000, 17:19:03.036
52, 61573.11, 0.00, 0.00, 0.00, 0.00, 0.00, 0.00, -187500.02, 0.000, 0.000, 0.000, 17:19:03.036
53, 62130.20, 0.00, 0.00, 0.00, 0.00, 0.00, 0.00, -187500.02, 0.000, 0.000, 0.000, 17:19:03.036
54, 61912.21, 0.00, 0.00, 0.00, 0.00, 0.00, 0.00, -187500.02, 0.000, 0.000, 0.000, 17:19:03.036
55, 61321.67, 0.00, 0.00, 0.00, 0.00, 0.00, 0.00, -187500.02, 0.000, 0.000, 0.000, 17:19:03.036
56, 61474.07, 0.00, 0.00, 0.00, 0.00, 0.00, 0.00, -187500.02, 0.000, 0.000, 0.000, 17:19:03.036
57, 62079.02, 0.00, 0.00, 0.00, 0.00, 0.00, 0.00, -187500.02, 0.000, 0.000, 0.000, 17:19:03.036
58, 62013.84, 0.00, 0.00, 0.00, 0.00, 0.00, 0.00, -187500.02, 0.000, 0.000, 0.000, 17:19:03.037
59, 61401.54, 0.00, 0.00, 0.00, 0.00, 0.00, 0.00, -187500.02, 0.212, 0.194, -0.976, 17:19:03.037
60, 61388.48, 0.00, 0.00, 0.00, 0.00, 0.00, 0.00, -187500.02, 0.000, 0.000, 0.000, 17:19:03.037
61, 62001.21, 0.00, 0.00, 0.00, 0.00, 0.00, 0.00, -187500.02, 0.000, 0.000, 0.000, 17:19:03.037
62, 62086.55, 0.00, 0.00, 0.00, 0.00, 0.00, 0.00, -187500.02, 0.000, 0.000, 0.000, 17:19:03.037
63, 61480.13, 0.00, 0.00, 0.00, 0.00, 0.00, 0.00, -187500.02, 0.000, 0.000, 0.000, 17:19:03.037
64, 61322.07, 0.00, 0.00, 0.00, 0.00, 0.00, 0.00, -187500.02, 0.000, 0.000, 0.000, 17:19:03.037
65, 61901.10, 0.00, 0.00, 0.00, 0.00, 0.00, 0.00, -187500.02, 0.000, 0.000, 0.000, 17:19:03.038
66, 62136.86, 0.00, 0.00, 0.00, 0.00, 0.00, 0.00, -187500.02, 0.000, 0.000, 0.000, 17:19:03.038
67, 61591.57, 0.00, 0.00, 0.00, 0.00, 0.00, 0.00, -187500.02, 0.000, 0.000, 0.000, 17:19:03.038
68, 61281.04, 0.00, 0.00, 0.00, 0.00, 0.00, 0.00, -187500.02, 0.000, 0.000, 0.000, 17:19:03.038
69, 61799.91, 0.00, 0.00, 0.00, 0.00, 0.00, 0.00, -187500.02, 0.214, 0.194, -0.978, 17:19:03.038
70, 62176.61, 0.00, 0.00, 0.00, 0.00, 0.00, 0.00, -187500.02, 0.000, 0.000, 0.000, 17:19:03.038
71, 61718.95, 0.00, 0.00, 0.00, 0.00, 0.00, 0.00, -187500.02, 0.000, 0.000, 0.000, 17:19:03.038
72, 61276.52, 0.00, 0.00, 0.00, 0.00, 0.00, 0.00, -187500.02, 0.000, 0.000, 0.000, 17:19:03.038
73, 61677.58, 0.00, 0.00, 0.00, 0.00, 0.00, 0.00, -187500.02, 0.000, 0.000, 0.000, 17:19:03.038
74, 62173.83, 0.00, 0.00, 0.00, 0.00, 0.00, 0.00, -187500.02, 0.000, 0.000, 0.000, 17:19:03.038
75, 61836.28, 0.00, 0.00, 0.00, 0.00, 0.00, 0.00, -187500.02, 0.000, 0.000, 0.000, 17:19:03.039
76, 61292.73, 0.00, 0.00, 0.00, 0.00, 0.00, 0.00, -187500.02, 0.000, 0.000, 0.000, 17:19:03.039
77, 61551.74, 0.00, 0.00, 0.00, 0.00, 0.00, 0.00, -187500.02, 0.000, 0.000, 0.000, 17:19:03.039
78, 62131.16, 0.00, 0.00, 0.00, 0.00, 0.00, 0.00, -187500.02, 0.000, 0.000, 0.000, 17:19:03.039
79, 61937.24, 0.00, 0.00, 0.00, 0.00, 0.00, 0.00, -187500.02, 0.210, 0.194, -0.970, 17:19:03.039
80, 61338.62, 0.00, 0.00, 0.00, 0.00, 0.00, 0.00, -187500.02, 0.000, 0.000, 0.000, 17:19:03.039
81, 61447.43, 0.00, 0.00, 0.00, 0.00, 0.00, 0.00, -187500.02, 0.000, 0.000, 0.000, 17:19:03.039
82, 62060.13, 0.00, 0.00, 0.00, 0.00, 0.00, 0.00, -187500.02, 0.000, 0.000, 0.000, 17:19:03.040
83, 62032.53, 0.00, 0.00, 0.00, 0.00, 0.00, 0.00, -187500.02, 0.000, 0.000, 0.000, 17:19:03.040
84, 61427.13, 0.00, 0.00, 0.00, 0.00, 0.00, 0.00, -187500.02, 0.000, 0.000, 0.000, 17:19:03.040
85, 61358.87, 0.00, 0.00, 0.00, 0.00, 0.00, 0.00, -187500.02, 0.000, 0.000, 0.000, 17:19:03.040
86, 61964.31, 0.00, 0.00, 0.00, 0.00, 0.00, 0.00, -187500.02, 0.000, 0.000, 0.000, 17:19:03.040
87, 62098.20, 0.00, 0.00, 0.00, 0.00, 0.00, 0.00, -187500.02, 0.000, 0.000, 0.000, 17:19:03.040
88, 61496.44, 0.00, 0.00, 0.00, 0.00, 0.00, 0.00, -187500.02, 0.000, 0.000, 0.000, 17:19:03.040
89, 61284.79, 0.00, 0.00, 0.00, 0.00, 0.00, 0.00, -187500.02, 0.208, 0.192, -0.966, 17:19:03.040
90, 61858.99, 0.00, 0.00, 0.00, 0.00, 0.00, 0.00, -187500.02, 0.000, 0.000, 0.000, 17:19:03.040
91, 62159.33, 0.00, 0.00, 0.00, 0.00, 0.00, 0.00, -187500.02, 0.000, 0.000, 0.000, 17:19:03.041
92, 61628.41, 0.00, 0.00, 0.00, 0.00, 0.00, 0.00, -187500.02, 0.000, 0.000, 0.000, 17:19:03.041
93, 61272.57, 0.00, 0.00, 0.00, 0.00, 0.00, 0.00, -187500.02, 0.000, 0.000, 0.000, 17:19:03.041
94, 61749.06, 0.00, 0.00, 0.00, 0.00, 0.00, 0.00, -187500.02, 0.000, 0.000, 0.000, 17:19:03.041
95, 62170.91, 0.00, 0.00, 0.00, 0.00, 0.00, 0.00, -187500.02, 0.000, 0.000, 0.000, 17:19:03.041
96, 61747.83, 0.00, 0.00, 0.00, 0.00, 0.00, 0.00, -187500.02, 0.000, 0.000, 0.000, 17:19:03.041
97, 61263.16, 0.00, 0.00, 0.00, 0.00, 0.00, 0.00, -187500.02, 0.000, 0.000, 0.000, 17:19:03.041
98, 61625.75, 0.00, 0.00, 0.00, 0.00, 0.00, 0.00, -187500.02, 0.000, 0.000, 0.000, 17:19:03.041
99, 62145.58, 0.00, 0.00, 0.00, 0.00, 0.00, 0.00, -187500.02, 0.212, 0.194, -0.968, 17:19:03.041
100, 61850.43, 0.00, 0.00, 0.00, 0.00, 0.00, 0.00, -187500.02, 0.000, 0.000, 0.000, 17:19:03.041
101, 61287.14, 0.00, 0.00, 0.00, 0.00, 0.00, 0.00, -187500.02, 0.000, 0.000, 0.000, 17:19:03.041
102, 61515.60, 0.00, 0.00, 0.00, 0.00, 0.00, 0.00, -187500.02, 0.000, 0.000, 0.000, 17:19:03.042
103, 62115.50, 0.00, 0.00, 0.00, 0.00, 0.00, 0.00, -187500.02, 0.000, 0.000, 0.000, 17:19:03.042
104, 61967.44, 0.00, 0.00, 0.00, 0.00, 0.00, 0.00, -187500.02, 0.000, 0.000, 0.000, 17:19:03.042
105, 61358.62, 0.00, 0.00, 0.00, 0.00, 0.00, 0.00, -187500.02, 0.000, 0.000, 0.000, 17:19:03.042
106, 61421.65, 0.00, 0.00, 0.00, 0.00, 0.00, 0.00, -187500.02, 0.000, 0.000, 0.000, 17:19:03.042
107, 62031.36, 0.00, 0.00, 0.00, 0.00, 0.00, 0.00, -187500.02, 0.000, 0.000, 0.000, 17:19:03.042
108, 62040.48, 0.00, 0.00, 0.00, 0.00, 0.00, 0.00, -187500.02, 0.000, 0.000, 0.000, 17:19:03.042
109, 61412.89, 0.00, 0.00, 0.00, 0.00, 0.00, 0.00, -187500.02, 0.208, 0.196, -0.974, 17:19:03.042
110, 61328.76, 0.00, 0.00, 0.00, 0.00, 0.00, 0.00, -187500.02, 0.000, 0.000, 0.000, 17:19:03.042
111, 61955.21, 0.00, 0.00, 0.00, 0.00, 0.00, 0.00, -187500.02, 0.000, 0.000, 0.000, 17:19:03.042
112, 62105.97, 0.00, 0.00, 0.00, 0.00, 0.00, 0.00, -187500.02, 0.000, 0.000, 0.000, 17:19:03.042
113, 61518.12, 0.00, 0.00, 0.00, 0.00, 0.00, 0.00, -187500.02, 0.000, 0.000, 0.000, 17:19:03.043
114, 61276.05, 0.00, 0.00, 0.00, 0.00, 0.00, 0.00, -187500.02, 0.000, 0.000, 0.000, 17:19:03.043
115, 61828.12, 0.00, 0.00, 0.00, 0.00, 0.00, 0.00, -187500.02, 0.000, 0.000, 0.000, 17:19:03.043
116, 62151.77, 0.00, 0.00, 0.00, 0.00, 0.00, 0.00, -187500.02, 0.000, 0.000, 0.000, 17:19:03.043
117, 61636.72, 0.00, 0.00, 0.00, 0.00, 0.00, 0.00, -187500.02, 0.000, 0.000, 0.000, 17:19:03.043
118, 61238.91, 0.00, 0.00, 0.00, 0.00, 0.00, 0.00, -187500.02, 0.000, 0.000, 0.000, 17:19:03.043
119, 61697.34, 0.00, 0.00, 0.00, 0.00, 0.00, 0.00, -187500.02, 0.206, 0.194, -0.972, 17:19:03.043
120, 62153.36, 0.00, 0.00, 0.00, 0.00, 0.00, 0.00, -187500.02, 0.000, 0.000, 0.000, 17:19:03.043
121, 61760.46, 0.00, 0.00, 0.00, 0.00, 0.00, 0.00, -187500.02, 0.000, 0.000, 0.000, 17:19:03.043
122, 61268.83, 0.00, 0.00, 0.00, 0.00, 0.00, 0.00, -187500.02, 0.000, 0.000, 0.000, 17:19:03.043
123, 61590.32, 0.00, 0.00, 0.00, 0.00, 0.00, 0.00, -187500.02, 0.000, 0.000, 0.000, 17:19:03.043
124, 62135.75, 0.00, 0.00, 0.00, 0.00, 0.00, 0.00, -187500.02, 0.000, 0.000, 0.000, 17:19:03.044
125, 61900.83, 0.00, 0.00, 0.00, 0.00, 0.00, 0.00, -187500.02, 0.000, 0.000, 0.000, 17:19:03.044
126, 61318.37, 0.00, 0.00, 0.00, 0.00, 0.00, 0.00, -187500.02, 0.000, 0.000, 0.000, 17:19:03.044
127, 61487.72, 0.00, 0.00, 0.00, 0.00, 0.00, 0.00, -187500.02, 0.000, 0.000, 0.000, 17:19:03.044
128, 62090.37, 0.00, 0.00, 0.00, 0.00, 0.00, 0.00, -187500.02, 0.000, 0.000, 0.000, 17:19:03.044
129, 61988.49, 0.00, 0.00, 0.00, 0.00, 0.00, 0.00, -187500.02, 0.206, 0.194, -0.972, 17:19:03.044
130, 61373.53, 0.00, 0.00, 0.00, 0.00, 0.00, 0.00, -187500.02, 0.000, 0.000, 0.000, 17:19:03.044
131, 61388.80, 0.00, 0.00, 0.00, 0.00, 0.00, 0.00, -187500.02, 0.000, 0.000, 0.000, 17:19:03.044
132, 62005.59, 0.00, 0.00, 0.00, 0.00, 0.00, 0.00, -187500.02, 0.000, 0.000, 0.000, 17:19:03.044
133, 62068.78, 0.00, 0.00, 0.00, 0.00, 0.00, 0.00, -187500.02, 0.000, 0.000, 0.000, 17:19:03.045
134, 61459.67, 0.00, 0.00, 0.00, 0.00, 0.00, 0.00, -187500.02, 0.000, 0.000, 0.000, 17:19:03.045
135, 61324.98, 0.00, 0.00, 0.00, 0.00, 0.00, 0.00, -187500.02, 0.000, 0.000, 0.000, 17:19:03.045
136, 61923.74, 0.00, 0.00, 0.00, 0.00, 0.00, 0.00, -187500.02, 0.000, 0.000, 0.000, 17:19:03.045
137, 62119.39, 0.00, 0.00, 0.00, 0.00, 0.00, 0.00, -187500.02, 0.000, 0.000, 0.000, 17:19:03.045
138, 61557.17, 0.00, 0.00, 0.00, 0.00, 0.00, 0.00, -187500.02, 0.000, 0.000, 0.000, 17:19:03.045
139, 61281.82, 0.00, 0.00, 0.00, 0.00, 0.00, 0.00, -187500.02, 0.206, 0.196, -0.974, 17:19:03.046
140, 61801.05, 0.00, 0.00, 0.00, 0.00, 0.00, 0.00, -187500.02, 0.000, 0.000, 0.000, 17:19:03.046
141, 62159.46, 0.00, 0.00, 0.00, 0.00, 0.00, 0.00, -187500.02, 0.000, 0.000, 0.000, 17:19:03.046
142, 61690.12, 0.00, 0.00, 0.00, 0.00, 0.00, 0.00, -187500.02, 0.000, 0.000, 0.000, 17:19:03.046
143, 61268.27, 0.00, 0.00, 0.00, 0.00, 0.00, 0.00, -187500.02, 0.000, 0.000, 0.000, 17:19:03.046
144, 61693.18, 0.00, 0.00, 0.00, 0.00, 0.00, 0.00, -187500.02, 0.000, 0.000, 0.000, 17:19:03.046
145, 62161.68, 0.00, 0.00, 0.00, 0.00, 0.00, 0.00, -187500.02, 0.000, 0.000, 0.000, 17:19:03.046
146, 61790.68, 0.00, 0.00, 0.00, 0.00, 0.00, 0.00, -187500.02, 0.000, 0.000, 0.000, 17:19:03.046
147, 61270.38, 0.00, 0.00, 0.00, 0.00, 0.00, 0.00, -187500.02, 0.000, 0.000, 0.000, 17:19:03.046
148, 61573.13, 0.00, 0.00, 0.00, 0.00, 0.00, 0.00, -187500.02, 0.000, 0.000, 0.000, 17:19:03.046
149, 62143.08, 0.00, 0.00, 0.00, 0.00, 0.00, 0.00, -187500.02, 0.208, 0.194, -0.968, 17:19:03.047
150, 61921.35, 0.00, 0.00, 0.00, 0.00, 0.00, 0.00, -187500.02, 0.000, 0.000, 0.000, 17:19:03.047
151, 61315.26, 0.00, 0.00, 0.00, 0.00, 0.00, 0.00, -187500.02, 0.000, 0.000, 0.000, 17:19:03.047
152, 61460.01, 0.00, 0.00, 0.00, 0.00, 0.00, 0.00, -187500.02, 0.000, 0.000, 0.000, 17:19:03.047
153, 62079.64, 0.00, 0.00, 0.00, 0.00, 0.00, 0.00, -187500.02, 0.000, 0.000, 0.000, 17:19:03.047
154, 62013.10, 0.00, 0.00, 0.00, 0.00, 0.00, 0.00, -187500.02, 0.000, 0.000, 0.000, 17:19:03.047
155, 61393.11, 0.00, 0.00, 0.00, 0.00, 0.00, 0.00, -187500.02, 0.000, 0.000, 0.000, 17:19:03.047
156, 61371.96, 0.00, 0.00, 0.00, 0.00, 0.00, 0.00, -187500.02, 0.000, 0.000, 0.000, 17:19:03.047
157, 61994.75, 0.00, 0.00, 0.00, 0.00, 0.00, 0.00, -187500.02, 0.000, 0.000, 0.000, 17:19:03.047
158, 62088.96, 0.00, 0.00, 0.00, 0.00, 0.00, 0.00, -187500.02, 0.208, 0.198, -0.972, 17:19:03.047
159, 61490.38, 0.00, 0.00, 0.00, 0.00, 0.00, 0.00, -187500.02, 0.000, 0.000, 0.000, 17:19:03.048
160, 61302.68, 0.00, 0.00, 0.00, 0.00, 0.00, 0.00, -187500.02, 0.000, 0.000, 0.000, 17:19:03.048
161, 61890.59, 0.00, 0.00, 0.00, 0.00, 0.00, 0.00, -187500.02, 0.000, 0.000, 0.000, 17:19:03.048
162, 62151.62, 0.00, 0.00, 0.00, 0.00, 0.00, 0.00, -187500.02, 0.000, 0.000, 0.000, 17:19:03.298
163, 61588.87, 0.00, 0.00, 0.00, 0.00, 0.00, 0.00, -187500.02, 0.000, 0.000, 0.000, 17:19:03.299
164, 61261.35, 0.00, 0.00, 0.00, 0.00, 0.00, 0.00, -187500.02, 0.000, 0.000, 0.000, 17:19:03.299
165, 61768.15, 0.00, 0.00, 0.00, 0.00, 0.00, 0.00, -187500.02, 0.000, 0.000, 0.000, 17:19:03.299
166, 62164.69, 0.00, 0.00, 0.00, 0.00, 0.00, 0.00, -187500.02, 0.000, 0.000, 0.000, 17:19:03.299
167, 61719.91, 0.00, 0.00, 0.00, 0.00, 0.00, 0.00, -187500.02, 0.000, 0.000, 0.000, 17:19:03.299
168, 61265.59, 0.00, 0.00, 0.00, 0.00, 0.00, 0.00, -187500.02, 0.214, 0.202, -0.966, 17:19:03.299
169, 61663.41, 0.00, 0.00, 0.00, 0.00, 0.00, 0.00, -187500.02, 0.000, 0.000, 0.000, 17:19:03.300
170, 62166.46, 0.00, 0.00, 0.00, 0.00, 0.00, 0.00, -187500.02, 0.000, 0.000, 0.000, 17:19:03.300
171, 61830.15, 0.00, 0.00, 0.00, 0.00, 0.00, 0.00, -187500.02, 0.000, 0.000, 0.000, 17:19:03.300
172, 61286.22, 0.00, 0.00, 0.00, 0.00, 0.00, 0.00, -187500.02, 0.000, 0.000, 0.000, 17:19:03.300
173, 61551.76, 0.00, 0.00, 0.00, 0.00, 0.00, 0.00, -187500.02, 0.000, 0.000, 0.000, 17:19:03.300
174, 62129.33, 0.00, 0.00, 0.00, 0.00, 0.00, 0.00, -187500.02, 0.000, 0.000, 0.000, 17:19:03.300
175, 61944.97, 0.00, 0.00, 0.00, 0.00, 0.00, 0.00, -187500.02, 0.000, 0.000, 0.000, 17:19:03.301
176, 61343.54, 0.00, 0.00, 0.00, 0.00, 0.00, 0.00, -187500.02, 0.000, 0.000, 0.000, 17:19:03.301
177, 61447.47, 0.00, 0.00, 0.00, 0.00, 0.00, 0.00, -187500.02, 0.000, 0.000, 0.000, 17:19:03.301
178, 62072.38, 0.00, 0.00, 0.00, 0.00, 0.00, 0.00, -187500.02, 0.214, 0.198, -0.976, 17:19:03.301
179, 62035.79, 0.00, 0.00, 0.00, 0.00, 0.00, 0.00, -187500.02, 0.000, 0.000, 0.000, 17:19:03.301
180, 61403.70, 0.00, 0.00, 0.00, 0.00, 0.00, 0.00, -187500.02, 0.000, 0.000, 0.000, 17:19:03.301
181, 61367.36, 0.00, 0.00, 0.00, 0.00, 0.00, 0.00, -187500.02, 0.000, 0.000, 0.000, 17:19:03.301
182, 61965.71, 0.00, 0.00, 0.00, 0.00, 0.00, 0.00, -187500.02, 0.000, 0.000, 0.000, 17:19:03.301
183, 62097.14, 0.00, 0.00, 0.00, 0.00, 0.00, 0.00, -187500.02, 0.000, 0.000, 0.000, 17:19:03.301
184, 61514.79, 0.00, 0.00, 0.00, 0.00, 0.00, 0.00, -187500.02, 0.000, 0.000, 0.000, 17:19:03.301
185, 61298.72, 0.00, 0.00, 0.00, 0.00, 0.00, 0.00, -187500.02, 0.000, 0.000, 0.000, 17:19:03.301
186, 61855.90, 0.00, 0.00, 0.00, 0.00, 0.00, 0.00, -187500.02, 0.000, 0.000, 0.000, 17:19:03.301
187, 62144.26, 0.00, 0.00, 0.00, 0.00, 0.00, 0.00, -187500.02, 0.000, 0.000, 0.000, 17:19:03.301
188, 61622.08, 0.00, 0.00, 0.00, 0.00, 0.00, 0.00, -187500.02, 0.210, 0.198, -0.978, 17:19:03.302
189, 61264.03, 0.00, 0.00, 0.00, 0.00, 0.00, 0.00, -187500.02, 0.000, 0.000, 0.000, 17:19:03.302
190, 61736.21, 0.00, 0.00, 0.00, 0.00, 0.00, 0.00, -187500.02, 0.000, 0.000, 0.000, 17:19:03.302
191, 62157.25, 0.00, 0.00, 0.00, 0.00, 0.00, 0.00, -187500.02, 0.000, 0.000, 0.000, 17:19:03.302
192, 61729.26, 0.00, 0.00, 0.00, 0.00, 0.00, 0.00, -187500.02, 0.000, 0.000, 0.000, 17:19:03.302
193, 61260.92, 0.00, 0.00, 0.00, 0.00, 0.00, 0.00, -187500.02, 0.000, 0.000, 0.000, 17:19:03.302
194, 61622.06, 0.00, 0.00, 0.00, 0.00, 0.00, 0.00, -187500.02, 0.000, 0.000, 0.000, 17:19:03.302
195, 62125.02, 0.00, 0.00, 0.00, 0.00, 0.00, 0.00, -187500.02, 0.000, 0.000, 0.000, 17:19:03.302
196, 61847.03, 0.00, 0.00, 0.00, 0.00, 0.00, 0.00, -187500.02, 0.000, 0.000, 0.000, 17:19:03.302
197, 61298.88, 0.00, 0.00, 0.00, 0.00, 0.00, 0.00, -187500.02, 0.000, 0.000, 0.000, 17:19:03.302
198, 61513.94, 0.00, 0.00, 0.00, 0.00, 0.00, 0.00, -187500.02, 0.206, 0.204, -0.976, 17:19:03.302
199, 62103.16, 0.00, 0.00, 0.00, 0.00, 0.00, 0.00, -187500.02, 0.000, 0.000, 0.000, 17:19:03.302
200, 61962.90, 0.00, 0.00, 0.00, 0.00, 0.00, 0.00, -187500.02, 0.000, 0.000, 0.000, 17:19:03.302
201, 61356.18, 0.00, 0.00, 0.00, 0.00, 0.00, 0.00, -187500.02, 0.000, 0.000, 0.000, 17:19:03.302
202, 61409.05, 0.00, 0.00, 0.00, 0.00, 0.00, 0.00, -187500.02, 0.000, 0.000, 0.000, 17:19:03.302
203, 62020.52, 0.00, 0.00, 0.00, 0.00, 0.00, 0.00, -187500.02, 0.000, 0.000, 0.000, 17:19:03.302
204, 62037.89, 0.00, 0.00, 0.00, 0.00, 0.00, 0.00, -187500.02, 0.000, 0.000, 0.000, 17:19:03.302
205, 61427.93, 0.00, 0.00, 0.00, 0.00, 0.00, 0.00, -187500.02, 0.000, 0.000, 0.000, 17:19:03.303
206, 61331.91, 0.00, 0.00, 0.00, 0.00, 0.00, 0.00, -187500.02, 0.000, 0.000, 0.000, 17:19:03.303
207, 61937.29, 0.00, 0.00, 0.00, 0.00, 0.00, 0.00, -187500.02, 0.000, 0.000, 0.000, 17:19:03.303
208, 62110.98, 0.00, 0.00, 0.00, 0.00, 0.00, 0.00, -187500.02, 0.212, 0.206, -0.976, 17:19:03.303
209, 61524.58, 0.00, 0.00, 0.00, 0.00, 0.00, 0.00, -187500.02, 0.000, 0.000, 0.000, 17:19:03.303
210, 61274.73, 0.00, 0.00, 0.00, 0.00, 0.00, 0.00, -187500.02, 0.000, 0.000, 0.000, 17:19:03.303
211, 61812.34, 0.00, 0.00, 0.00, 0.00, 0.00, 0.00, -187500.02, 0.000, 0.000, 0.000, 17:19:03.303
212, 62130.80, 0.00, 0.00, 0.00, 0.00, 0.00, 0.00, -187500.02, 0.000, 0.000, 0.000, 17:19:03.303
213, 61642.67, 0.00, 0.00, 0.00, 0.00, 0.00, 0.00, -187500.02, 0.000, 0.000, 0.000, 17:19:03.303
214, 61251.46, 0.00, 0.00, 0.00, 0.00, 0.00, 0.00, -187500.02, 0.000, 0.000, 0.000, 17:19:03.303
215, 61681.02, 0.00, 0.00, 0.00, 0.00, 0.00, 0.00, -187500.02, 0.000, 0.000, 0.000, 17:19:03.303
216, 62148.31, 0.00, 0.00, 0.00, 0.00, 0.00, 0.00, -187500.02, 0.000, 0.000, 0.000, 17:19:03.303
217, 61758.96, 0.00, 0.00, 0.00, 0.00, 0.00, 0.00, -187500.02, 0.000, 0.000, 0.000, 17:19:03.304
218, 61255.89, 0.00, 0.00, 0.00, 0.00, 0.00, 0.00, -187500.02, 0.212, 0.200, -0.974, 17:19:03.304
219, 61581.49, 0.00, 0.00, 0.00, 0.00, 0.00, 0.00, -187500.02, 0.000, 0.000, 0.000, 17:19:03.304
220, 62117.26, 0.00, 0.00, 0.00, 0.00, 0.00, 0.00, -187500.02, 0.000, 0.000, 0.000, 17:19:03.304
221, 61871.75, 0.00, 0.00, 0.00, 0.00, 0.00, 0.00, -187500.02, 0.000, 0.000, 0.000, 17:19:03.304
222, 61302.14, 0.00, 0.00, 0.00, 0.00, 0.00, 0.00, -187500.02, 0.000, 0.000, 0.000, 17:19:03.304
223, 61477.87, 0.00, 0.00, 0.00, 0.00, 0.00, 0.00, -187500.02, 0.000, 0.000, 0.000, 17:19:03.304
224, 62076.76, 0.00, 0.00, 0.00, 0.00, 0.00, 0.00, -187500.02, 0.000, 0.000, 0.000, 17:19:03.304
225, 61980.18, 0.00, 0.00, 0.00, 0.00, 0.00, 0.00, -187500.02, 0.000, 0.000, 0.000, 17:19:03.304
226, 61369.59, 0.00, 0.00, 0.00, 0.00, 0.00, 0.00, -187500.02, 0.000, 0.000, 0.000, 17:19:03.304
227, 61392.33, 0.00, 0.00, 0.00, 0.00, 0.00, 0.00, -187500.02, 0.000, 0.000, 0.000, 17:19:03.304
228, 62000.45, 0.00, 0.00, 0.00, 0.00, 0.00, 0.00, -187500.02, 0.210, 0.196, -0.976, 17:19:03.305
229, 62061.89, 0.00, 0.00, 0.00, 0.00, 0.00, 0.00, -187500.02, 0.000, 0.000, 0.000, 17:19:03.305
230, 61462.33, 0.00, 0.00, 0.00, 0.00, 0.00, 0.00, -187500.02, 0.000, 0.000, 0.000, 17:19:03.305
231, 61324.45, 0.00, 0.00, 0.00, 0.00, 0.00, 0.00, -187500.02, 0.000, 0.000, 0.000, 17:19:03.305
232, 61894.23, 0.00, 0.00, 0.00, 0.00, 0.00, 0.00, -187500.02, 0.000, 0.000, 0.000, 17:19:03.305
233, 62110.18, 0.00, 0.00, 0.00, 0.00, 0.00, 0.00, -187500.02, 0.000, 0.000, 0.000, 17:19:03.305
234, 61555.96, 0.00, 0.00, 0.00, 0.00, 0.00, 0.00, -187500.02, 0.000, 0.000, 0.000, 17:19:03.305
235, 61261.05, 0.00, 0.00, 0.00, 0.00, 0.00, 0.00, -187500.02, 0.000, 0.000, 0.000, 17:19:03.305
236, 61786.66, 0.00, 0.00, 0.00, 0.00, 0.00, 0.00, -187500.02, 0.000, 0.000, 0.000, 17:19:03.305
237, 62147.30, 0.00, 0.00, 0.00, 0.00, 0.00, 0.00, -187500.02, 0.000, 0.000, 0.000, 17:19:03.305
238, 61679.77, 0.00, 0.00, 0.00, 0.00, 0.00, 0.00, -187500.02, 0.214, 0.196, -0.980, 17:19:03.305
239, 61261.75, 0.00, 0.00, 0.00, 0.00, 0.00, 0.00, -187500.02, 0.000, 0.000, 0.000, 17:19:03.305
240, 61668.33, 0.00, 0.00, 0.00, 0.00, 0.00, 0.00, -187500.02, 0.000, 0.000, 0.000, 17:19:03.306
241, 62143.52, 0.00, 0.00, 0.00, 0.00, 0.00, 0.00, -187500.02, 0.000, 0.000, 0.000, 17:19:03.306
242, 61787.68, 0.00, 0.00, 0.00, 0.00, 0.00, 0.00, -187500.02, 0.000, 0.000, 0.000, 17:19:03.306
243, 61268.23, 0.00, 0.00, 0.00, 0.00, 0.00, 0.00, -187500.02, 0.000, 0.000, 0.000, 17:19:03.306
244, 61560.01, 0.00, 0.00, 0.00, 0.00, 0.00, 0.00, -187500.02, 0.000, 0.000, 0.000, 17:19:03.306
245, 62125.96, 0.00, 0.00, 0.00, 0.00, 0.00, 0.00, -187500.02, 0.000, 0.000, 0.000, 17:19:03.306
246, 61922.73, 0.00, 0.00, 0.00, 0.00, 0.00, 0.00, -187500.02, 0.000, 0.000, 0.000, 17:19:03.306
247, 61342.89, 0.00, 0.00, 0.00, 0.00, 0.00, 0.00, -187500.02, 0.000, 0.000, 0.000, 17:19:03.306
248, 61461.75, 0.00, 0.00, 0.00, 0.00, 0.00, 0.00, -187500.02, 0.214, 0.198, -0.968, 17:19:03.306
249, 62063.95, 0.00, 0.00, 0.00, 0.00, 0.00, 0.00, -187500.02, 0.000, 0.000, 0.000, 17:19:03.306
250, 62010.80, 0.00, 0.00, 0.00, 0.00, 0.00, 0.00, -187500.02, 0.000, 0.000, 0.000, 17:19:03.306
251, 61389.13, 0.00, 0.00, 0.00, 0.00, 0.00, 0.00, -187500.02, 0.000, 0.000, 0.000, 17:19:03.306
252, 61366.69, 0.00, 0.00, 0.00, 0.00, 0.00, 0.00, -187500.02, 0.000, 0.000, 0.000, 17:19:03.306
253, 61969.70, 0.00, 0.00, 0.00, 0.00, 0.00, 0.00, -187500.02, 0.000, 0.000, 0.000, 17:19:03.308
254, 62070.14, 0.00, 0.00, 0.00, 0.00, 0.00, 0.00, -187500.02, 0.000, 0.000, 0.000, 17:19:03.308
255, 61486.96, 0.00, 0.00, 0.00, 0.00, 0.00, 0.00, -187500.02, 0.000, 0.000, 0.000, 17:19:03.308
0, 61308.13, 0.00, 0.00, 0.00, 0.00, 0.00, 0.00, -187500.02, 0.000, 0.000, 0.000, 17:19:03.308
1, 61870.68, 0.00, 0.00, 0.00, 0.00, 0.00, 0.00, -187500.02, 0.218, 0.200, -0.968, 17:19:03.308
2, 62119.50, 0.00, 0.00, 0.00, 0.00, 0.00, 0.00, -187500.02, 0.000, 0.000, 0.000, 17:19:03.308
3, 61593.11, 0.00, 0.00, 0.00, 0.00, 0.00, 0.00, -187500.02, 0.000, 0.000, 0.000, 17:19:03.309
4, 61269.10, 0.00, 0.00, 0.00, 0.00, 0.00, 0.00, -187500.02, 0.000, 0.000, 0.000, 17:19:03.309
5, 61756.82, 0.00, 0.00, 0.00, 0.00, 0.00, 0.00, -187500.02, 0.000, 0.000, 0.000, 17:19:03.309
6, 62146.74, 0.00, 0.00, 0.00, 0.00, 0.00, 0.00, -187500.02, 0.000, 0.000, 0.000, 17:19:03.309
7, 61704.76, 0.00, 0.00, 0.00, 0.00, 0.00, 0.00, -187500.02, 0.000, 0.000, 0.000, 17:19:03.309
8, 61259.22, 0.00, 0.00, 0.00, 0.00, 0.00, 0.00, -187500.02, 0.000, 0.000, 0.000, 17:19:03.309
9, 61647.18, 0.00, 0.00, 0.00, 0.00, 0.00, 0.00, -187500.02, 0.000, 0.000, 0.000, 17:19:03.309
10, 62132.66, 0.00, 0.00, 0.00, 0.00, 0.00, 0.00, -187500.02, 0.000, 0.000, 0.000, 17:19:03.309
11, 61832.93, 0.00, 0.00, 0.00, 0.00, 0.00, 0.00, -187500.02, 0.222, 0.200, -0.974, 17:19:03.309
12, 61300.44, 0.00, 0.00, 0.00, 0.00, 0.00, 0.00, -187500.02, 0.000, 0.000, 0.000, 17:19:03.309
13, 61532.92, 0.00, 0.00, 0.00, 0.00, 0.00, 0.00, -187500.02, 0.000, 0.000, 0.000, 17:19:03.309
14, 62100.61, 0.00, 0.00, 0.00, 0.00, 0.00, 0.00, -187500.02, 0.000, 0.000, 0.000, 17:19:03.309
15, 61934.16, 0.00, 0.00, 0.00, 0.00, 0.00, 0.00, -187500.02, 0.000, 0.000, 0.000, 17:19:03.310
16, 61346.44, 0.00, 0.00, 0.00, 0.00, 0.00, 0.00, -187500.02, 0.000, 0.000, 0.000, 17:19:03.310
17, 61431.67, 0.00, 0.00, 0.00, 0.00, 0.00, 0.00, -187500.02, 0.000, 0.000, 0.000, 17:19:03.310
18, 62034.74, 0.00, 0.00, 0.00, 0.00, 0.00, 0.00, -187500.02, 0.000, 0.000, 0.000, 17:19:03.310
19, 62027.39, 0.00, 0.00, 0.00, 0.00, 0.00, 0.00, -187500.02, 0.000, 0.000, 0.000, 17:19:03.310
20, 61413.47, 0.00, 0.00, 0.00, 0.00, 0.00, 0.00, -187500.02, 0.000, 0.000, 0.000, 17:19:03.310
21, 61336.74, 0.00, 0.00, 0.00, 0.00, 0.00, 0.00, -187500.02, 0.214, 0.196, -0.974, 17:19:03.310
22, 61948.28, 0.00, 0.00, 0.00, 0.00, 0.00, 0.00, -187500.02, 0.000, 0.000, 0.000, 17:19:03.310
23, 62097.23, 0.00, 0.00, 0.00, 0.00, 0.00, 0.00, -187500.02, 0.000, 0.000, 0.000, 17:19:03.310
24, 61516.89, 0.00, 0.00, 0.00, 0.00, 0.00, 0.00, -187500.02, 0.000, 0.000, 0.000, 17:19:03.310
25, 61287.48, 0.00, 0.00, 0.00, 0.00, 0.00, 0.00, -187500.02, 0.000, 0.000, 0.000, 17:19:03.310
26, 61832.41, 0.00, 0.00, 0.00, 0.00, 0.00, 0.00, -187500.02, 0.000, 0.000, 0.000, 17:19:03.776
27, 62134.76, 0.00, 0.00, 0.00, 0.00, 0.00, 0.00, -187500.02, 0.000, 0.000, 0.000, 17:19:03.776
28, 61621.14, 0.00, 0.00, 0.00, 0.00, 0.00, 0.00, -187500.02, 0.000, 0.000, 0.000, 17:19:03.776
29, 61255.85, 0.00, 0.00, 0.00, 0.00, 0.00, 0.00, -187500.02, 0.000, 0.000, 0.000, 17:19:03.776
30, 61740.07, 0.00, 0.00, 0.00, 0.00, 0.00, 0.00, -187500.02, 0.000, 0.000, 0.000, 17:19:03.776
31, 62157.63, 0.00, 0.00, 0.00, 0.00, 0.00, 0.00, -187500.02, 0.214, 0.200, -0.978, 17:19:03.776
32, 61746.02, 0.00, 0.00, 0.00, 0.00, 0.00, 0.00, -187500.02, 0.000, 0.000, 0.000, 17:19:03.776
33, 61259.74, 0.00, 0.00, 0.00, 0.00, 0.00, 0.00, -187500.02, 0.000, 0.000, 0.000, 17:19:03.776
34, 61604.18, 0.00, 0.00, 0.00, 0.00, 0.00, 0.00, -187500.02, 0.000, 0.000, 0.000, 17:19:03.776
35, 62129.02, 0.00, 0.00, 0.00, 0.00, 0.00, 0.00, -187500.02, 0.000, 0.000, 0.000, 17:19:03.776
36, 61850.89, 0.00, 0.00, 0.00, 0.00, 0.00, 0.00, -187500.02, 0.000, 0.000, 0.000, 17:19:03.776
37, 61289.09, 0.00, 0.00, 0.00, 0.00, 0.00, 0.00, -187500.02, 0.000, 0.000, 0.000, 17:19:03.776
38, 61497.22, 0.00, 0.00, 0.00, 0.00, 0.00, 0.00, -187500.02, 0.000, 0.000, 0.000, 17:19:03.776
39, 62086.77, 0.00, 0.00, 0.00, 0.00, 0.00, 0.00, -187500.02, 0.000, 0.000, 0.000, 17:19:03.776
40, 61958.83, 0.00, 0.00, 0.00, 0.00, 0.00, 0.00, -187500.02, 0.000, 0.000, 0.000, 17:19:03.776
41, 61357.48, 0.00, 0.00, 0.00, 0.00, 0.00, 0.00, -187500.02, 0.216, 0.202, -0.974, 17:19:03.776
42, 61408.35, 0.00, 0.00, 0.00, 0.00, 0.00, 0.00, -187500.02, 0.000, 0.000, 0.000, 17:19:03.777
43, 62014.33, 0.00, 0.00, 0.00, 0.00, 0.00, 0.00, -187500.02, 0.000, 0.000, 0.000, 17:19:03.777
44, 62045.18, 0.00, 0.00, 0.00, 0.00, 0.00, 0.00, -187500.02, 0.000, 0.000, 0.000, 17:19:03.777
45, 61438.37, 0.00, 0.00, 0.00, 0.00, 0.00, 0.00, -187500.02, 0.000, 0.000, 0.000, 17:19:03.777
46, 61329.61, 0.00, 0.00, 0.00, 0.00, 0.00, 0.00, -187500.02, 0.000, 0.000, 0.000, 17:19:03.777
47, 61918.49, 0.00, 0.00, 0.00, 0.00, 0.00, 0.00, -187500.02, 0.000, 0.000, 0.000, 17:19:03.777
48, 62109.21, 0.00, 0.00, 0.00, 0.00, 0.00, 0.00, -187500.02, 0.000, 0.000, 0.000, 17:19:03.777
49, 61536.34, 0.00, 0.00, 0.00, 0.00, 0.00, 0.00, -187500.02, 0.000, 0.000, 0.000, 17:19:03.777
50, 61273.91, 0.00, 0.00, 0.00, 0.00, 0.00, 0.00, -187500.02, 0.000, 0.000, 0.000, 17:19:03.777
51, 61812.50, 0.00, 0.00, 0.00, 0.00, 0.00, 0.00, -187500.02, 0.214, 0.202, -0.974, 17:19:03.778
52, 62149.54, 0.00, 0.00, 0.00, 0.00, 0.00, 0.00, -187500.02, 0.000, 0.000, 0.000, 17:19:03.778
53, 61659.79, 0.00, 0.00, 0.00, 0.00, 0.00, 0.00, -187500.02, 0.000, 0.000, 0.000, 17:19:03.778
54, 61252.32, 0.00, 0.00, 0.00, 0.00, 0.00, 0.00, -187500.02, 0.000, 0.000, 0.000, 17:19:03.778
55, 61716.36, 0.00, 0.00, 0.00, 0.00, 0.00, 0.00, -187500.02, 0.000, 0.000, 0.000, 17:19:03.778
56, 62160.96, 0.00, 0.00, 0.00, 0.00, 0.00, 0.00, -187500.02, 0.000, 0.000, 0.000, 17:19:03.780
57, 61774.41, 0.00, 0.00, 0.00, 0.00, 0.00, 0.00, -187500.02, 0.000, 0.000, 0.000, 17:19:03.780
58, 61263.25, 0.00, 0.00, 0.00, 0.00, 0.00, 0.00, -187500.02, 0.000, 0.000, 0.000, 17:19:03.780
59, 61579.14, 0.00, 0.00, 0.00, 0.00, 0.00, 0.00, -187500.02, 0.000, 0.000, 0.000, 17:19:03.780
60, 62134.07, 0.00, 0.00, 0.00, 0.00, 0.00, 0.00, -187500.02, 0.000, 0.000, 0.000, 17:19:03.780
61, 61906.42, 0.00, 0.00, 0.00, 0.00, 0.00, 0.00, -187500.02, 0.212, 0.202, -0.970, 17:19:03.780
62, 61310.50, 0.00, 0.00, 0.00, 0.00, 0.00, 0.00, -187500.02, 0.000, 0.000, 0.000, 17:19:03.780
63, 61470.60, 0.00, 0.00, 0.00, 0.00, 0.00, 0.00, -187500.02, 0.000, 0.000, 0.000, 17:19:03.780
64, 62079.35, 0.00, 0.00, 0.00, 0.00, 0.00, 0.00, -187500.02, 0.000, 0.000, 0.000, 17:19:03.780
65, 62005.50, 0.00, 0.00, 0.00, 0.00, 0.00, 0.00, -187500.02, 0.000, 0.000, 0.000, 17:19:03.780
66, 61388.68, 0.00, 0.00, 0.00, 0.00, 0.00, 0.00, -187500.02, 0.000, 0.000, 0.000, 17:19:03.780
67, 61380.64, 0.00, 0.00, 0.00, 0.00, 0.00, 0.00, -187500.02, 0.000, 0.000, 0.000, 17:19:03.781
68, 62001.41, 0.00, 0.00, 0.00, 0.00, 0.00, 0.00, -187500.02, 0.000, 0.000, 0.000, 17:19:03.781
69, 62077.12, 0.00, 0.00, 0.00, 0.00, 0.00, 0.00, -187500.02, 0.000, 0.000, 0.000, 17:19:03.781
70, 61485.47, 0.00, 0.00, 0.00, 0.00, 0.00, 0.00, -187500.02, 0.000, 0.000, 0.000, 17:19:03.781
71, 61316.38, 0.00, 0.00, 0.00, 0.00, 0.00, 0.00, -187500.02, 0.210, 0.202, -0.970, 17:19:03.781
72, 61894.48, 0.00, 0.00, 0.00, 0.00, 0.00, 0.00, -187500.02, 0.000, 0.000, 0.000, 17:19:03.781
73, 62138.99, 0.00, 0.00, 0.00, 0.00, 0.00, 0.00, -187500.02, 0.000, 0.000, 0.000, 17:19:03.781
74, 61595.73, 0.00, 0.00, 0.00, 0.00, 0.00, 0.00, -187500.02, 0.000, 0.000, 0.000, 17:19:03.781
75, 61285.04, 0.00, 0.00, 0.00, 0.00, 0.00, 0.00, -187500.02, 0.000, 0.000, 0.000, 17:19:03.781
76, 61796.04, 0.00, 0.00, 0.00, 0.00, 0.00, 0.00, -187500.02, 0.000, 0.000, 0.000, 17:19:03.781
77, 62161.68, 0.00, 0.00, 0.00, 0.00, 0.00, 0.00, -187500.02, 0.000, 0.000, 0.000, 17:19:03.781
78, 61688.42, 0.00, 0.00, 0.00, 0.00, 0.00, 0.00, -187500.02, 0.000, 0.000, 0.000, 17:19:03.781
79, 61262.93, 0.00, 0.00, 0.00, 0.00, 0.00, 0.00, -187500.02, 0.000, 0.000, 0.000, 17:19:03.781
80, 61685.58, 0.00, 0.00, 0.00, 0.00, 0.00, 0.00, -187500.02, 0.000, 0.000, 0.000, 17:19:03.781
81, 62158.01, 0.00, 0.00, 0.00, 0.00, 0.00, 0.00, -187500.02, 0.214, 0.200, -0.966, 17:19:03.781
82, 61816.61, 0.00, 0.00, 0.00, 0.00, 0.00, 0.00, -187500.02, 0.000, 0.000, 0.000, 17:19:03.781
83, 61296.10, 0.00, 0.00, 0.00, 0.00, 0.00, 0.00, -187500.02, 0.000, 0.000, 0.000, 17:19:03.781
84, 61564.57, 0.00, 0.00, 0.00, 0.00, 0.00, 0.00, -187500.02, 0.000, 0.000, 0.000, 17:19:03.781
85, 62117.26, 0.00, 0.00, 0.00, 0.00, 0.00, 0.00, -187500.02, 0.000, 0.000, 0.000, 17:19:03.781
86, 61927.85, 0.00, 0.00, 0.00, 0.00, 0.00, 0.00, -187500.02, 0.000, 0.000, 0.000, 17:19:03.781
87, 61340.70, 0.00, 0.00, 0.00, 0.00, 0.00, 0.00, -187500.02, 0.000, 0.000, 0.000, 17:19:03.781
88, 61457.97, 0.00, 0.00, 0.00, 0.00, 0.00, 0.00, -187500.02, 0.000, 0.000, 0.000, 17:19:03.782
89, 62056.46, 0.00, 0.00, 0.00, 0.00, 0.00, 0.00, -187500.02, 0.000, 0.000, 0.000, 17:19:03.782
90, 62005.12, 0.00, 0.00, 0.00, 0.00, 0.00, 0.00, -187500.02, 0.000, 0.000, 0.000, 17:19:03.782
91, 61414.28, 0.00, 0.00, 0.00, 0.00, 0.00, 0.00, -187500.02, 0.216, 0.202, -0.966, 17:19:03.782
92, 61378.87, 0.00, 0.00, 0.00, 0.00, 0.00, 0.00, -187500.02, 0.000, 0.000, 0.000, 17:19:03.782
93, 61983.20, 0.00, 0.00, 0.00, 0.00, 0.00, 0.00, -187500.02, 0.000, 0.000, 0.000, 17:19:03.782
94, 62089.93, 0.00, 0.00, 0.00, 0.00, 0.00, 0.00, -187500.02, 0.000, 0.000, 0.000, 17:19:03.782
95, 61508.15, 0.00, 0.00, 0.00, 0.00, 0.00, 0.00, -187500.02, 0.000, 0.000, 0.000, 17:19:03.782
96, 61327.02, 0.00, 0.00, 0.00, 0.00, 0.00, 0.00, -187500.02, 0.000, 0.000, 0.000, 17:19:03.782
97, 61886.14, 0.00, 0.00, 0.00, 0.00, 0.00, 0.00, -187500.02, 0.000, 0.000, 0.000, 17:19:03.782
98, 62140.33, 0.00, 0.00, 0.00, 0.00, 0.00, 0.00, -187500.02, 0.000, 0.000, 0.000, 17:19:03.782
99, 61609.00, 0.00, 0.00, 0.00, 0.00, 0.00, 0.00, -187500.02, 0.000, 0.000, 0.000, 17:19:03.782
100, 61269.15, 0.00, 0.00, 0.00, 0.00, 0.00, 0.00, -187500.02, 0.000, 0.000, 0.000, 17:19:03.782
101, 61759.61, 0.00, 0.00, 0.00, 0.00, 0.00, 0.00, -187500.02, 0.212, 0.202, -0.968, 17:19:03.782
102, 62155.24, 0.00, 0.00, 0.00, 0.00, 0.00, 0.00, -187500.02, 0.000, 0.000, 0.000, 17:19:03.782
103, 61734.53, 0.00, 0.00, 0.00, 0.00, 0.00, 0.00, -187500.02, 0.000, 0.000, 0.000, 17:19:03.782
104, 61281.13, 0.00, 0.00, 0.00, 0.00, 0.00, 0.00, -187500.02, 0.000, 0.000, 0.000, 17:19:03.782
105, 61649.44, 0.00, 0.00, 0.00, 0.00, 0.00, 0.00, -187500.02, 0.000, 0.000, 0.000, 17:19:03.782
106, 62142.72, 0.00, 0.00, 0.00, 0.00, 0.00, 0.00, -187500.02, 0.000, 0.000, 0.000, 17:19:03.782
107, 61832.32, 0.00, 0.00, 0.00, 0.00, 0.00, 0.00, -187500.02, 0.000, 0.000, 0.000, 17:19:03.782
108, 61293.69, 0.00, 0.00, 0.00, 0.00, 0.00, 0.00, -187500.02, 0.000, 0.000, 0.000, 17:19:03.782
109, 61532.52, 0.00, 0.00, 0.00, 0.00, 0.00, 0.00, -187500.02, 0.000, 0.000, 0.000, 17:19:03.783
110, 62109.28, 0.00, 0.00, 0.00, 0.00, 0.00, 0.00, -187500.02, 0.210, 0.198, -0.972, 17:19:03.783
111, 61941.38, 0.00, 0.00, 0.00, 0.00, 0.00, 0.00, -187500.02, 0.000, 0.000, 0.000, 17:19:03.783
112, 61355.22, 0.00, 0.00, 0.00, 0.00, 0.00, 0.00, -187500.02, 0.000, 0.000, 0.000, 17:19:03.783
113, 61435.15, 0.00, 0.00, 0.00, 0.00, 0.00, 0.00, -187500.02, 0.000, 0.000, 0.000, 17:19:03.783
114, 62046.16, 0.00, 0.00, 0.00, 0.00, 0.00, 0.00, -187500.02, 0.000, 0.000, 0.000, 17:19:03.783
115, 62035.95, 0.00, 0.00, 0.00, 0.00, 0.00, 0.00, -187500.02, 0.000, 0.000, 0.000, 17:19:03.783
116, 61436.11, 0.00, 0.00, 0.00, 0.00, 0.00, 0.00, -187500.02, 0.000, 0.000, 0.000, 17:19:03.783
117, 61357.17, 0.00, 0.00, 0.00, 0.00, 0.00, 0.00, -187500.02, 0.000, 0.000, 0.000, 17:19:03.783
118, 61955.97, 0.00, 0.00, 0.00, 0.00, 0.00, 0.00, -187500.02, 0.000, 0.000, 0.000, 17:19:03.783
119, 62106.20, 0.00, 0.00, 0.00, 0.00, 0.00, 0.00, -187500.02, 0.000, 0.000, 0.000, 17:19:03.783
120, 61523.46, 0.00, 0.00, 0.00, 0.00, 0.00, 0.00, -187500.02, 0.208, 0.192, -0.972, 17:19:03.783
121, 61287.88, 0.00, 0.00, 0.00, 0.00, 0.00, 0.00, -187500.02, 0.000, 0.000, 0.000, 17:19:03.783
122, 61842.80, 0.00, 0.00, 0.00, 0.00, 0.00, 0.00, -187500.02, 0.000, 0.000, 0.000, 17:19:03.783
123, 62153.74, 0.00, 0.00, 0.00, 0.00, 0.00, 0.00, -187500.02, 0.000, 0.000, 0.000, 17:19:03.783
124, 61638.93, 0.00, 0.00, 0.00, 0.00, 0.00, 0.00, -187500.02, 0.000, 0.000, 0.000, 17:19:03.783
125, 61266.93, 0.00, 0.00, 0.00, 0.00, 0.00, 0.00, -187500.02, 0.000, 0.000, 0.000, 17:19:03.783
126, 61718.93, 0.00, 0.00, 0.00, 0.00, 0.00, 0.00, -187500.02, 0.000, 0.000, 0.000, 17:19:03.784
127, 62150.50, 0.00, 0.00, 0.00, 0.00, 0.00, 0.00, -187500.02, 0.000, 0.000, 0.000, 17:19:03.784
128, 61766.29, 0.00, 0.00, 0.00, 0.00, 0.00, 0.00, -187500.02, 0.000, 0.000, 0.000, 17:19:03.784
129, 61285.87, 0.00, 0.00, 0.00, 0.00, 0.00, 0.00, -187500.02, 0.000, 0.000, 0.000, 17:19:03.784
130, 61609.18, 0.00, 0.00, 0.00, 0.00, 0.00, 0.00, -187500.02, 0.210, 0.194, -0.974, 17:19:03.784
131, 62139.43, 0.00, 0.00, 0.00, 0.00, 0.00, 0.00, -187500.02, 0.000, 0.000, 0.000, 17:19:03.784
132, 61872.58, 0.00, 0.00, 0.00, 0.00, 0.00, 0.00, -187500.02, 0.000, 0.000, 0.000, 17:19:03.784
133, 61303.90, 0.00, 0.00, 0.00, 0.00, 0.00, 0.00, -187500.02, 0.000, 0.000, 0.000, 17:19:03.784
134, 61511.75, 0.00, 0.00, 0.00, 0.00, 0.00, 0.00, -187500.02, 0.000, 0.000, 0.000, 17:19:03.784
135, 62096.21, 0.00, 0.00, 0.00, 0.00, 0.00, 0.00, -187500.02, 0.000, 0.000, 0.000, 17:19:03.784
136, 61978.43, 0.00, 0.00, 0.00, 0.00, 0.00, 0.00, -187500.02, 0.000, 0.000, 0.000, 17:19:03.784
137, 61383.61, 0.00, 0.00, 0.00, 0.00, 0.00, 0.00, -187500.02, 0.000, 0.000, 0.000, 17:19:03.784
138, 61427.35, 0.00, 0.00, 0.00, 0.00, 0.00, 0.00, -187500.02, 0.000, 0.000, 0.000, 17:19:03.784
139, 62025.44, 0.00, 0.00, 0.00, 0.00, 0.00, 0.00, -187500.02, 0.000, 0.000, 0.000, 17:19:03.784
140, 62064.45, 0.00, 0.00, 0.00, 0.00, 0.00, 0.00, -187500.02, 0.212, 0.200, -0.970, 17:19:03.784
141, 61461.68, 0.00, 0.00, 0.00, 0.00, 0.00, 0.00, -187500.02, 0.000, 0.000, 0.000, 17:19:03.784
142, 61340.16, 0.00, 0.00, 0.00, 0.00, 0.00, 0.00, -187500.02, 0.000, 0.000, 0.000, 17:19:03.784
143, 61929.62, 0.00, 0.00, 0.00, 0.00, 0.00, 0.00, -187500.02, 0.000, 0.000, 0.000, 17:19:03.784
144, 62133.29, 0.00, 0.00, 0.00, 0.00, 0.00, 0.00, -187500.02, 0.000, 0.000, 0.000, 17:19:03.784
145, 61567.95, 0.00, 0.00, 0.00, 0.00, 0.00, 0.00, -187500.02, 0.000, 0.000, 0.000, 17:19:03.784
146, 61297.15, 0.00, 0.00, 0.00, 0.00, 0.00, 0.00, -187500.02, 0.000, 0.000, 0.000, 17:19:04.257
147, 61825.10, 0.00, 0.00, 0.00, 0.00, 0.00, 0.00, -187500.02, 0.000, 0.000, 0.000, 17:19:04.257
148, 62168.96, 0.00, 0.00, 0.00, 0.00, 0.00, 0.00, -187500.02, 0.000, 0.000, 0.000, 17:19:04.258
149, 61695.84, 0.00, 0.00, 0.00, 0.00, 0.00, 0.00, -187500.02, 0.000, 0.000, 0.000, 17:19:04.258
150, 61295.03, 0.00, 0.00, 0.00, 0.00, 0.00, 0.00, -187500.02, 0.216, 0.192, -0.968, 17:19:04.258
151, 61724.56, 0.00, 0.00, 0.00, 0.00, 0.00, 0.00, -187500.02, 0.000, 0.000, 0.000, 17:19:04.258
152, 62176.09, 0.00, 0.00, 0.00, 0.00, 0.00, 0.00, -187500.02, 0.000, 0.000, 0.000, 17:19:04.259
153, 61808.67, 0.00, 0.00, 0.00, 0.00, 0.00, 0.00, -187500.02, 0.000, 0.000, 0.000, 17:19:04.259
154, 61302.74, 0.00, 0.00, 0.00, 0.00, 0.00, 0.00, -187500.02, 0.000, 0.000, 0.000, 17:19:04.259
155, 61609.36, 0.00, 0.00, 0.00, 0.00, 0.00, 0.00, -187500.02, 0.000, 0.000, 0.000, 17:19:04.259
156, 62147.14, 0.00, 0.00, 0.00, 0.00, 0.00, 0.00, -187500.02, 0.000, 0.000, 0.000, 17:19:04.259
157, 61916.14, 0.00, 0.00, 0.00, 0.00, 0.00, 0.00, -187500.02, 0.000, 0.000, 0.000, 17:19:04.259
158, 61347.36, 0.00, 0.00, 0.00, 0.00, 0.00, 0.00, -187500.02, 0.000, 0.000, 0.000, 17:19:04.259
159, 61493.56, 0.00, 0.00, 0.00, 0.00, 0.00, 0.00, -187500.02, 0.000, 0.000, 0.000, 17:19:04.259
160, 62082.88, 0.00, 0.00, 0.00, 0.00, 0.00, 0.00, -187500.02, 0.212, 0.188, -0.976, 17:19:04.259
161, 61997.46, 0.00, 0.00, 0.00, 0.00, 0.00, 0.00, -187500.02, 0.000, 0.000, 0.000, 17:19:04.259
162, 61398.63, 0.00, 0.00, 0.00, 0.00, 0.00, 0.00, -187500.02, 0.000, 0.000, 0.000, 17:19:04.260
163, 61407.48, 0.00, 0.00, 0.00, 0.00, 0.00, 0.00, -187500.02, 0.000, 0.000, 0.000, 17:19:04.260
164, 62015.96, 0.00, 0.00, 0.00, 0.00, 0.00, 0.00, -187500.02, 0.000, 0.000, 0.000, 17:19:04.260
165, 62105.23, 0.00, 0.00, 0.00, 0.00, 0.00, 0.00, -187500.02, 0.000, 0.000, 0.000, 17:19:04.260
166, 61508.63, 0.00, 0.00, 0.00, 0.00, 0.00, 0.00, -187500.02, 0.000, 0.000, 0.000, 17:19:04.260
167, 61343.78, 0.00, 0.00, 0.00, 0.00, 0.00, 0.00, -187500.02, 0.000, 0.000, 0.000, 17:19:04.260
168, 61916.41, 0.00, 0.00, 0.00, 0.00, 0.00, 0.00, -187500.02, 0.000, 0.000, 0.000, 17:19:04.260
169, 62146.59, 0.00, 0.00, 0.00, 0.00, 0.00, 0.00, -187500.02, 0.000, 0.000, 0.000, 17:19:04.260
170, 61608.07, 0.00, 0.00, 0.00, 0.00, 0.00, 0.00, -187500.02, 0.210, 0.190, -0.974, 17:19:04.260
171, 61297.18, 0.00, 0.00, 0.00, 0.00, 0.00, 0.00, -187500.02, 0.000, 0.000, 0.000, 17:19:04.260
172, 61797.59, 0.00, 0.00, 0.00, 0.00, 0.00, 0.00, -187500.02, 0.000, 0.000, 0.000, 17:19:04.260
173, 62174.55, 0.00, 0.00, 0.00, 0.00, 0.00, 0.00, -187500.02, 0.000, 0.000, 0.000, 17:19:04.260
174, 61730.26, 0.00, 0.00, 0.00, 0.00, 0.00, 0.00, -187500.02, 0.000, 0.000, 0.000, 17:19:04.260
175, 61286.02, 0.00, 0.00, 0.00, 0.00, 0.00, 0.00, -187500.02, 0.000, 0.000, 0.000, 17:19:04.261
176, 61675.88, 0.00, 0.00, 0.00, 0.00, 0.00, 0.00, -187500.02, 0.000, 0.000, 0.000, 17:19:04.261
177, 62167.42, 0.00, 0.00, 0.00, 0.00, 0.00, 0.00, -187500.02, 0.000, 0.000, 0.000, 17:19:04.261
178, 61840.55, 0.00, 0.00, 0.00, 0.00, 0.00, 0.00, -187500.02, 0.000, 0.000, 0.000, 17:19:04.261
179, 61309.00, 0.00, 0.00, 0.00, 0.00, 0.00, 0.00, -187500.02, 0.000, 0.000, 0.000, 17:19:04.261
180, 61563.77, 0.00, 0.00, 0.00, 0.00, 0.00, 0.00, -187500.02, 0.208, 0.196, -0.978, 17:19:04.262
181, 62137.20, 0.00, 0.00, 0.00, 0.00, 0.00, 0.00, -187500.02, 0.000, 0.000, 0.000, 17:19:04.262
182, 61950.65, 0.00, 0.00, 0.00, 0.00, 0.00, 0.00, -187500.02, 0.000, 0.000, 0.000, 17:19:04.262
183, 61356.32, 0.00, 0.00, 0.00, 0.00, 0.00, 0.00, -187500.02, 0.000, 0.000, 0.000, 17:19:04.262
184, 61474.96, 0.00, 0.00, 0.00, 0.00, 0.00, 0.00, -187500.02, 0.000, 0.000, 0.000, 17:19:04.262
185, 62079.35, 0.00, 0.00, 0.00, 0.00, 0.00, 0.00, -187500.02, 0.000, 0.000, 0.000, 17:19:04.262
186, 62040.75, 0.00, 0.00, 0.00, 0.00, 0.00, 0.00, -187500.02, 0.000, 0.000, 0.000, 17:19:04.262
187, 61424.25, 0.00, 0.00, 0.00, 0.00, 0.00, 0.00, -187500.02, 0.000, 0.000, 0.000, 17:19:04.263
188, 61359.56, 0.00, 0.00, 0.00, 0.00, 0.00, 0.00, -187500.02, 0.000, 0.000, 0.000, 17:19:04.263
189, 61984.87, 0.00, 0.00, 0.00, 0.00, 0.00, 0.00, -187500.02, 0.000, 0.000, 0.000, 17:19:04.263
190, 62109.04, 0.00, 0.00, 0.00, 0.00, 0.00, 0.00, -187500.02, 0.210, 0.194, -0.972, 17:19:04.263
191, 61527.49, 0.00, 0.00, 0.00, 0.00, 0.00, 0.00, -187500.02, 0.000, 0.000, 0.000, 17:19:04.263
192, 61323.39, 0.00, 0.00, 0.00, 0.00, 0.00, 0.00, -187500.02, 0.000, 0.000, 0.000, 17:19:04.263
193, 61889.23, 0.00, 0.00, 0.00, 0.00, 0.00, 0.00, -187500.02, 0.000, 0.000, 0.000, 17:19:04.263
194, 62159.15, 0.00, 0.00, 0.00, 0.00, 0.00, 0.00, -187500.02, 0.000, 0.000, 0.000, 17:19:04.263
195, 61634.35, 0.00, 0.00, 0.00, 0.00, 0.00, 0.00, -187500.02, 0.000, 0.000, 0.000, 17:19:04.263
196, 61277.93, 0.00, 0.00, 0.00, 0.00, 0.00, 0.00, -187500.02, 0.000, 0.000, 0.000, 17:19:04.263
197, 61752.66, 0.00, 0.00, 0.00, 0.00, 0.00, 0.00, -187500.02, 0.000, 0.000, 0.000, 17:19:04.263
198, 62169.54, 0.00, 0.00, 0.00, 0.00, 0.00, 0.00, -187500.02, 0.000, 0.000, 0.000, 17:19:04.263
199, 61741.13, 0.00, 0.00, 0.00, 0.00, 0.00, 0.00, -187500.02, 0.000, 0.000, 0.000, 17:19:04.263
200, 61275.54, 0.00, 0.00, 0.00, 0.00, 0.00, 0.00, -187500.02, 0.212, 0.198, -0.974, 17:19:04.263
201, 61636.74, 0.00, 0.00, 0.00, 0.00, 0.00, 0.00, -187500.02, 0.000, 0.000, 0.000, 17:19:04.263
202, 62136.02, 0.00, 0.00, 0.00, 0.00, 0.00, 0.00, -187500.02, 0.000, 0.000, 0.000, 17:19:04.263
203, 61840.95, 0.00, 0.00, 0.00, 0.00, 0.00, 0.00, -187500.02, 0.000, 0.000, 0.000, 17:19:04.263
204, 61296.15, 0.00, 0.00, 0.00, 0.00, 0.00, 0.00, -187500.02, 0.000, 0.000, 0.000, 17:19:04.264
205, 61523.38, 0.00, 0.00, 0.00, 0.00, 0.00, 0.00, -187500.02, 0.000, 0.000, 0.000, 17:19:04.264
206, 62098.51, 0.00, 0.00, 0.00, 0.00, 0.00, 0.00, -187500.02, 0.000, 0.000, 0.000, 17:19:04.264
207, 61941.51, 0.00, 0.00, 0.00, 0.00, 0.00, 0.00, -187500.02, 0.000, 0.000, 0.000, 17:19:04.264
208, 61349.59, 0.00, 0.00, 0.00, 0.00, 0.00, 0.00, -187500.02, 0.000, 0.000, 0.000, 17:19:04.264
209, 61421.92, 0.00, 0.00, 0.00, 0.00, 0.00, 0.00, -187500.02, 0.000, 0.000, 0.000, 17:19:04.264
210, 62026.04, 0.00, 0.00, 0.00, 0.00, 0.00, 0.00, -187500.02, 0.212, 0.196, -0.976, 17:19:04.264
211, 62021.93, 0.00, 0.00, 0.00, 0.00, 0.00, 0.00, -187500.02, 0.000, 0.000, 0.000, 17:19:04.264
212, 61418.64, 0.00, 0.00, 0.00, 0.00, 0.00, 0.00, -187500.02, 0.000, 0.000, 0.000, 17:19:04.264
213, 61343.60, 0.00, 0.00, 0.00, 0.00, 0.00, 0.00, -187500.02, 0.000, 0.000, 0.000, 17:19:04.264
214, 61942.36, 0.00, 0.00, 0.00, 0.00, 0.00, 0.00, -187500.02, 0.000, 0.000, 0.000, 17:19:04.264
215, 62102.11, 0.00, 0.00, 0.00, 0.00, 0.00, 0.00, -187500.02, 0.000, 0.000, 0.000, 17:19:04.264
216, 61531.76, 0.00, 0.00, 0.00, 0.00, 0.00, 0.00, -187500.02, 0.000, 0.000, 0.000, 17:19:04.264
217, 61280.17, 0.00, 0.00, 0.00, 0.00, 0.00, 0.00, -187500.02, 0.000, 0.000, 0.000, 17:19:04.264
218, 61832.19, 0.00, 0.00, 0.00, 0.00, 0.00, 0.00, -187500.02, 0.000, 0.000, 0.000, 17:19:04.264
219, 62147.14, 0.00, 0.00, 0.00, 0.00, 0.00, 0.00, -187500.02, 0.210, 0.192, -0.980, 17:19:04.264
220, 61638.89, 0.00, 0.00, 0.00, 0.00, 0.00, 0.00, -187500.02, 0.000, 0.000, 0.000, 17:19:04.264
221, 61262.53, 0.00, 0.00, 0.00, 0.00, 0.00, 0.00, -187500.02, 0.000, 0.000, 0.000, 17:19:04.264
222, 61717.03, 0.00, 0.00, 0.00, 0.00, 0.00, 0.00, -187500.02, 0.000, 0.000, 0.000, 17:19:04.264
223, 62152.00, 0.00, 0.00, 0.00, 0.00, 0.00, 0.00, -187500.02, 0.000, 0.000, 0.000, 17:19:04.265
224, 61762.63, 0.00, 0.00, 0.00, 0.00, 0.00, 0.00, -187500.02, 0.000, 0.000, 0.000, 17:19:04.265
225, 61273.75, 0.00, 0.00, 0.00, 0.00, 0.00, 0.00, -187500.02, 0.000, 0.000, 0.000, 17:19:04.265
226, 61588.57, 0.00, 0.00, 0.00, 0.00, 0.00, 0.00, -187500.02, 0.000, 0.000, 0.000, 17:19:04.265
227, 62125.09, 0.00, 0.00, 0.00, 0.00, 0.00, 0.00, -187500.02, 0.000, 0.000, 0.000, 17:19:04.265
228, 61888.83, 0.00, 0.00, 0.00, 0.00, 0.00, 0.00, -187500.02, 0.000, 0.000, 0.000, 17:19:04.265
229, 61308.17, 0.00, 0.00, 0.00, 0.00, 0.00, 0.00, -187500.02, 0.212, 0.194, -0.974, 17:19:04.265
230, 61486.68, 0.00, 0.00, 0.00, 0.00, 0.00, 0.00, -187500.02, 0.000, 0.000, 0.000, 17:19:04.265
231, 62078.82, 0.00, 0.00, 0.00, 0.00, 0.00, 0.00, -187500.02, 0.000, 0.000, 0.000, 17:19:04.265
232, 61977.03, 0.00, 0.00, 0.00, 0.00, 0.00, 0.00, -187500.02, 0.000, 0.000, 0.000, 17:19:04.265
233, 61365.64, 0.00, 0.00, 0.00, 0.00, 0.00, 0.00, -187500.02, 0.000, 0.000, 0.000, 17:19:04.265
234, 61393.89, 0.00, 0.00, 0.00, 0.00, 0.00, 0.00, -187500.02, 0.000, 0.000, 0.000, 17:19:04.265
235, 62007.45, 0.00, 0.00, 0.00, 0.00, 0.00, 0.00, -187500.02, 0.000, 0.000, 0.000, 17:19:04.265
236, 62057.45, 0.00, 0.00, 0.00, 0.00, 0.00, 0.00, -187500.02, 0.000, 0.000, 0.000, 17:19:04.265
237, 61464.43, 0.00, 0.00, 0.00, 0.00, 0.00, 0.00, -187500.02, 0.000, 0.000, 0.000, 17:19:04.266
238, 61325.88, 0.00, 0.00, 0.00, 0.00, 0.00, 0.00, -187500.02, 0.000, 0.000, 0.000, 17:19:04.266
239, 61911.49, 0.00, 0.00, 0.00, 0.00, 0.00, 0.00, -187500.02, 0.218, 0.190, -0.978, 17:19:04.266
240, 62115.92, 0.00, 0.00, 0.00, 0.00, 0.00, 0.00, -187500.02, 0.000, 0.000, 0.000, 17:19:04.266
241, 61558.67, 0.00, 0.00, 0.00, 0.00, 0.00, 0.00, -187500.02, 0.000, 0.000, 0.000, 17:19:04.266
242, 61272.28, 0.00, 0.00, 0.00, 0.00, 0.00, 0.00, -187500.02, 0.000, 0.000, 0.000, 17:19:04.266
243, 61802.55, 0.00, 0.00, 0.00, 0.00, 0.00, 0.00, -187500.02, 0.000, 0.000, 0.000, 17:19:04.266
244, 62163.30, 0.00, 0.00, 0.00, 0.00, 0.00, 0.00, -187500.02, 0.000, 0.000, 0.000, 17:19:04.266
245, 61673.71, 0.00, 0.00, 0.00, 0.00, 0.00, 0.00, -187500.02, 0.000, 0.000, 0.000, 17:19:04.266
246, 61250.86, 0.00, 0.00, 0.00, 0.00, 0.00, 0.00, -187500.02, 0.000, 0.000, 0.000, 17:19:04.267
247, 61669.94, 0.00, 0.00, 0.00, 0.00, 0.00, 0.00, -187500.02, 0.000, 0.000, 0.000, 17:19:04.267
248, 62153.74, 0.00, 0.00, 0.00, 0.00, 0.00, 0.00, -187500.02, 0.000, 0.000, 0.000, 17:19:04.267
249, 61786.84, 0.00, 0.00, 0.00, 0.00, 0.00, 0.00, -187500.02, 0.220, 0.192, -0.974, 17:19:04.267
250, 61260.30, 0.00, 0.00, 0.00, 0.00, 0.00, 0.00, -187500.02, 0.000, 0.000, 0.000, 17:19:04.267
251, 61560.86, 0.00, 0.00, 0.00, 0.00, 0.00, 0.00, -187500.02, 0.000, 0.000, 0.000, 17:19:04.267
252, 62116.57, 0.00, 0.00, 0.00, 0.00, 0.00, 0.00, -187500.02, 0.000, 0.000, 0.000, 17:19:04.267
253, 61902.68, 0.00, 0.00, 0.00, 0.00, 0.00, 0.00, -187500.02, 0.000, 0.000, 0.000, 17:19:04.267
254, 61304.24, 0.00, 0.00, 0.00, 0.00, 0.00, 0.00, -187500.02, 0.000, 0.000, 0.000, 17:19:04.267
255, 61450.42, 0.00, 0.00, 0.00, 0.00, 0.00, 0.00, -187500.02, 0.000, 0.000, 0.000, 17:19:04.267
0, 62041.46, 0.00, 0.00, 0.00, 0.00, 0.00, 0.00, -187500.02, 0.000, 0.000, 0.000, 17:19:04.267
1, 61974.84, 0.00, 0.00, 0.00, 0.00, 0.00, 0.00, -187500.02, 0.000, 0.000, 0.000, 17:19:04.267
2, 61384.66, 0.00, 0.00, 0.00, 0.00, 0.00, 0.00, -187500.02, 0.000, 0.000, 0.000, 17:19:04.267
3, 61380.97, 0.00, 0.00, 0.00, 0.00, 0.00, 0.00, -187500.02, 0.216, 0.194, -0.980, 17:19:04.267
4, 61973.50, 0.00, 0.00, 0.00, 0.00, 0.00, 0.00, -187500.02, 0.000, 0.000, 0.000, 17:19:04.267
5, 62070.59, 0.00, 0.00, 0.00, 0.00, 0.00, 0.00, -187500.02, 0.000, 0.000, 0.000, 17:19:04.267
6, 61476.04, 0.00, 0.00, 0.00, 0.00, 0.00, 0.00, -187500.02, 0.000, 0.000, 0.000, 17:19:04.267
7, 61303.84, 0.00, 0.00, 0.00, 0.00, 0.00, 0.00, -187500.02, 0.000, 0.000, 0.000, 17:19:04.267
8, 61863.84, 0.00, 0.00, 0.00, 0.00, 0.00, 0.00, -187500.02, 0.000, 0.000, 0.000, 17:19:04.268
9, 62120.17, 0.00, 0.00, 0.00, 0.00, 0.00, 0.00, -187500.02, 0.000, 0.000, 0.000, 17:19:04.268
10, 61584.22, 0.00, 0.00, 0.00, 0.00, 0.00, 0.00, -187500.02, 0.000, 0.000, 0.000, 17:19:04.268
11, 61262.20, 0.00, 0.00, 0.00, 0.00, 0.00, 0.00, -187500.02, 0.000, 0.000, 0.000, 17:19:04.735
12, 61760.39, 0.00, 0.00, 0.00, 0.00, 0.00, 0.00, -187500.02, 0.000, 0.000, 0.000, 17:19:04.736
13, 62143.97, 0.00, 0.00, 0.00, 0.00, 0.00, 0.00, -187500.02, 0.216, 0.198, -0.972, 17:19:04.736
14, 61696.82, 0.00, 0.00, 0.00, 0.00, 0.00, 0.00, -187500.02, 0.000, 0.000, 0.000, 17:19:04.736
15, 61251.67, 0.00, 0.00, 0.00, 0.00, 0.00, 0.00, -187500.02, 0.000, 0.000, 0.000, 17:19:04.736
16, 61637.23, 0.00, 0.00, 0.00, 0.00, 0.00, 0.00, -187500.02, 0.000, 0.000, 0.000, 17:19:04.736
17, 62133.04, 0.00, 0.00, 0.00, 0.00, 0.00, 0.00, -187500.02, 0.000, 0.000, 0.000, 17:19:04.736
18, 61805.75, 0.00, 0.00, 0.00, 0.00, 0.00, 0.00, -187500.02, 0.000, 0.000, 0.000, 17:19:04.736
19, 61275.00, 0.00, 0.00, 0.00, 0.00, 0.00, 0.00, -187500.02, 0.000, 0.000, 0.000, 17:19:04.736
20, 61533.77, 0.00, 0.00, 0.00, 0.00, 0.00, 0.00, -187500.02, 0.000, 0.000, 0.000, 17:19:04.736
21, 62095.29, 0.00, 0.00, 0.00, 0.00, 0.00, 0.00, -187500.02, 0.000, 0.000, 0.000, 17:19:04.736
22, 61900.11, 0.00, 0.00, 0.00, 0.00, 0.00, 0.00, -187500.02, 0.000, 0.000, 0.000, 17:19:04.736
23, 61313.07, 0.00, 0.00, 0.00, 0.00, 0.00, 0.00, -187500.02, 0.216, 0.196, -0.976, 17:19:04.737
24, 61436.41, 0.00, 0.00, 0.00, 0.00, 0.00, 0.00, -187500.02, 0.000, 0.000, 0.000, 17:19:04.737
25, 62028.68, 0.00, 0.00, 0.00, 0.00, 0.00, 0.00, -187500.02, 0.000, 0.000, 0.000, 17:19:04.737
26, 62013.86, 0.00, 0.00, 0.00, 0.00, 0.00, 0.00, -187500.02, 0.000, 0.000, 0.000, 17:19:04.737
27, 61396.80, 0.00, 0.00, 0.00, 0.00, 0.00, 0.00, -187500.02, 0.000, 0.000, 0.000, 17:19:04.737
28, 61325.05, 0.00, 0.00, 0.00, 0.00, 0.00, 0.00, -187500.02, 0.000, 0.000, 0.000, 17:19:04.737
29, 61945.13, 0.00, 0.00, 0.00, 0.00, 0.00, 0.00, -187500.02, 0.000, 0.000, 0.000, 17:19:04.737
30, 62084.61, 0.00, 0.00, 0.00, 0.00, 0.00, 0.00, -187500.02, 0.000, 0.000, 0.000, 17:19:04.737
31, 61502.23, 0.00, 0.00, 0.00, 0.00, 0.00, 0.00, -187500.02, 0.000, 0.000, 0.000, 17:19:04.737
32, 61283.47, 0.00, 0.00, 0.00, 0.00, 0.00, 0.00, -187500.02, 0.000, 0.000, 0.000, 17:19:04.737
33, 61845.26, 0.00, 0.00, 0.00, 0.00, 0.00, 0.00, -187500.02, 0.210, 0.196, -0.970, 17:19:04.738
34, 62120.03, 0.00, 0.00, 0.00, 0.00, 0.00, 0.00, -187500.02, 0.000, 0.000, 0.000, 17:19:04.738
35, 61597.67, 0.00, 0.00, 0.00, 0.00, 0.00, 0.00, -187500.02, 0.000, 0.000, 0.000, 17:19:04.738
36, 61237.65, 0.00, 0.00, 0.00, 0.00, 0.00, 0.00, -187500.02, 0.000, 0.000, 0.000, 17:19:04.738
37, 61718.86, 0.00, 0.00, 0.00, 0.00, 0.00, 0.00, -187500.02, 0.000, 0.000, 0.000, 17:19:04.738
38, 62136.98, 0.00, 0.00, 0.00, 0.00, 0.00, 0.00, -187500.02, 0.000, 0.000, 0.000, 17:19:04.738
39, 61719.24, 0.00, 0.00, 0.00, 0.00, 0.00, 0.00, -187500.02, 0.000, 0.000, 0.000, 17:19:04.738
40, 61261.46, 0.00, 0.00, 0.00, 0.00, 0.00, 0.00, -187500.02, 0.000, 0.000, 0.000, 17:19:04.739
41, 61604.69, 0.00, 0.00, 0.00, 0.00, 0.00, 0.00, -187500.02, 0.000, 0.000, 0.000, 17:19:04.739
42, 62124.01, 0.00, 0.00, 0.00, 0.00, 0.00, 0.00, -187500.02, 0.000, 0.000, 0.000, 17:19:04.739
43, 61850.36, 0.00, 0.00, 0.00, 0.00, 0.00, 0.00, -187500.02, 0.212, 0.196, -0.970, 17:19:04.739
44, 61284.05, 0.00, 0.00, 0.00, 0.00, 0.00, 0.00, -187500.02, 0.000, 0.000, 0.000, 17:19:04.739
45, 61496.29, 0.00, 0.00, 0.00, 0.00, 0.00, 0.00, -187500.02, 0.000, 0.000, 0.000, 17:19:04.739
46, 62081.48, 0.00, 0.00, 0.00, 0.00, 0.00, 0.00, -187500.02, 0.000, 0.000, 0.000, 17:19:04.739
47, 61941.91, 0.00, 0.00, 0.00, 0.00, 0.00, 0.00, -187500.02, 0.000, 0.000, 0.000, 17:19:04.739
48, 61336.52, 0.00, 0.00, 0.00, 0.00, 0.00, 0.00, -187500.02, 0.000, 0.000, 0.000, 17:19:04.739
49, 61401.27, 0.00, 0.00, 0.00, 0.00, 0.00, 0.00, -187500.02, 0.000, 0.000, 0.000, 17:19:04.739
50, 62023.14, 0.00, 0.00, 0.00, 0.00, 0.00, 0.00, -187500.02, 0.000, 0.000, 0.000, 17:19:04.739
51, 62048.73, 0.00, 0.00, 0.00, 0.00, 0.00, 0.00, -187500.02, 0.000, 0.000, 0.000, 17:19:04.739
52, 61443.04, 0.00, 0.00, 0.00, 0.00, 0.00, 0.00, -187500.02, 0.000, 0.000, 0.000, 17:19:04.739
53, 61332.36, 0.00, 0.00, 0.00, 0.00, 0.00, 0.00, -187500.02, 0.220, 0.198, -0.966, 17:19:04.740
54, 61922.67, 0.00, 0.00, 0.00, 0.00, 0.00, 0.00, -187500.02, 0.000, 0.000, 0.000, 17:19:04.740
55, 62094.44, 0.00, 0.00, 0.00, 0.00, 0.00, 0.00, -187500.02, 0.000, 0.000, 0.000, 17:19:04.740
56, 61528.11, 0.00, 0.00, 0.00, 0.00, 0.00, 0.00, -187500.02, 0.000, 0.000, 0.000, 17:19:04.740
57, 61278.87, 0.00, 0.00, 0.00, 0.00, 0.00, 0.00, -187500.02, 0.000, 0.000, 0.000, 17:19:04.740
58, 61819.45, 0.00, 0.00, 0.00, 0.00, 0.00, 0.00, -187500.02, 0.000, 0.000, 0.000, 17:19:04.740
59, 62148.33, 0.00, 0.00, 0.00, 0.00, 0.00, 0.00, -187500.02, 0.000, 0.000, 0.000, 17:19:04.740
60, 61657.51, 0.00, 0.00, 0.00, 0.00, 0.00, 0.00, -187500.02, 0.000, 0.000, 0.000, 17:19:04.740
61, 61270.46, 0.00, 0.00, 0.00, 0.00, 0.00, 0.00, -187500.02, 0.000, 0.000, 0.000, 17:19:04.740
62, 61719.36, 0.00, 0.00, 0.00, 0.00, 0.00, 0.00, -187500.02, 0.000, 0.000, 0.000, 17:19:04.741
63, 62166.52, 0.00, 0.00, 0.00, 0.00, 0.00, 0.00, -187500.02, 0.220, 0.194, -0.972, 17:19:04.741
64, 61770.34, 0.00, 0.00, 0.00, 0.00, 0.00, 0.00, -187500.02, 0.000, 0.000, 0.000, 17:19:04.741
65, 61276.43, 0.00, 0.00, 0.00, 0.00, 0.00, 0.00, -187500.02, 0.000, 0.000, 0.000, 17:19:04.741
66, 61598.01, 0.00, 0.00, 0.00, 0.00, 0.00, 0.00, -187500.02, 0.000, 0.000, 0.000, 17:19:04.741
67, 62134.16, 0.00, 0.00, 0.00, 0.00, 0.00, 0.00, -187500.02, 0.000, 0.000, 0.000, 17:19:04.741
68, 61889.27, 0.00, 0.00, 0.00, 0.00, 0.00, 0.00, -187500.02, 0.000, 0.000, 0.000, 17:19:04.741
69, 61319.91, 0.00, 0.00, 0.00, 0.00, 0.00, 0.00, -187500.02, 0.000, 0.000, 0.000, 17:19:04.741
70, 61496.53, 0.00, 0.00, 0.00, 0.00, 0.00, 0.00, -187500.02, 0.000, 0.000, 0.000, 17:19:04.741
71, 62086.28, 0.00, 0.00, 0.00, 0.00, 0.00, 0.00, -187500.02, 0.000, 0.000, 0.000, 17:19:04.741
72, 61985.32, 0.00, 0.00, 0.00, 0.00, 0.00, 0.00, -187500.02, 0.216, 0.196, -0.974, 17:19:04.741
73, 61384.75, 0.00, 0.00, 0.00, 0.00, 0.00, 0.00, -187500.02, 0.000, 0.000, 0.000, 17:19:04.741
74, 61403.23, 0.00, 0.00, 0.00, 0.00, 0.00, 0.00, -187500.02, 0.000, 0.000, 0.000, 17:19:04.741
75, 62008.48, 0.00, 0.00, 0.00, 0.00, 0.00, 0.00, -187500.02, 0.000, 0.000, 0.000, 17:19:04.741
76, 62077.59, 0.00, 0.00, 0.00, 0.00, 0.00, 0.00, -187500.02, 0.000, 0.000, 0.000, 17:19:04.741
77, 61484.42, 0.00, 0.00, 0.00, 0.00, 0.00, 0.00, -187500.02, 0.000, 0.000, 0.000, 17:19:04.741
78, 61332.18, 0.00, 0.00, 0.00, 0.00, 0.00, 0.00, -187500.02, 0.000, 0.000, 0.000, 17:19:04.741
79, 61915.07, 0.00, 0.00, 0.00, 0.00, 0.00, 0.00, -187500.02, 0.000, 0.000, 0.000, 17:19:04.741
80, 62129.27, 0.00, 0.00, 0.00, 0.00, 0.00, 0.00, -187500.02, 0.000, 0.000, 0.000, 17:19:04.742
81, 61576.89, 0.00, 0.00, 0.00, 0.00, 0.00, 0.00, -187500.02, 0.000, 0.000, 0.000, 17:19:04.742
82, 61289.44, 0.00, 0.00, 0.00, 0.00, 0.00, 0.00, -187500.02, 0.218, 0.196, -0.972, 17:19:04.742
83, 61799.57, 0.00, 0.00, 0.00, 0.00, 0.00, 0.00, -187500.02, 0.000, 0.000, 0.000, 17:19:04.742
84, 62166.57, 0.00, 0.00, 0.00, 0.00, 0.00, 0.00, -187500.02, 0.000, 0.000, 0.000, 17:19:04.742
85, 61701.23, 0.00, 0.00, 0.00, 0.00, 0.00, 0.00, -187500.02, 0.000, 0.000, 0.000, 17:19:04.742
86, 61269.19, 0.00, 0.00, 0.00, 0.00, 0.00, 0.00, -187500.02, 0.000, 0.000, 0.000, 17:19:04.742
87, 61683.57, 0.00, 0.00, 0.00, 0.00, 0.00, 0.00, -187500.02, 0.000, 0.000, 0.000, 17:19:04.742
88, 62156.04, 0.00, 0.00, 0.00, 0.00, 0.00, 0.00, -187500.02, 0.000, 0.000, 0.000, 17:19:04.742
89, 61813.01, 0.00, 0.00, 0.00, 0.00, 0.00, 0.00, -187500.02, 0.000, 0.000, 0.000, 17:19:04.742
90, 61305.22, 0.00, 0.00, 0.00, 0.00, 0.00, 0.00, -187500.02, 0.000, 0.000, 0.000, 17:19:04.742
91, 61580.89, 0.00, 0.00, 0.00, 0.00, 0.00, 0.00, -187500.02, 0.000, 0.000, 0.000, 17:19:04.742
92, 62129.73, 0.00, 0.00, 0.00, 0.00, 0.00, 0.00, -187500.02, 0.220, 0.198, -0.974, 17:19:04.742
93, 61930.18, 0.00, 0.00, 0.00, 0.00, 0.00, 0.00, -187500.02, 0.000, 0.000, 0.000, 17:19:04.742
94, 61353.84, 0.00, 0.00, 0.00, 0.00, 0.00, 0.00, -187500.02, 0.000, 0.000, 0.000, 17:19:04.742
95, 61460.23, 0.00, 0.00, 0.00, 0.00, 0.00, 0.00, -187500.02, 0.000, 0.000, 0.000, 17:19:04.742
96, 62059.80, 0.00, 0.00, 0.00, 0.00, 0.00, 0.00, -187500.02, 0.000, 0.000, 0.000, 17:19:04.742
97, 62017.44, 0.00, 0.00, 0.00, 0.00, 0.00, 0.00, -187500.02, 0.000, 0.000, 0.000, 17:19:04.742
98, 61403.39, 0.00, 0.00, 0.00, 0.00, 0.00, 0.00, -187500.02, 0.000, 0.000, 0.000, 17:19:04.742
99, 61370.31, 0.00, 0.00, 0.00, 0.00, 0.00, 0.00, -187500.02, 0.000, 0.000, 0.000, 17:19:04.742
100, 61981.21, 0.00, 0.00, 0.00, 0.00, 0.00, 0.00, -187500.02, 0.000, 0.000, 0.000, 17:19:04.742
101, 62101.35, 0.00, 0.00, 0.00, 0.00, 0.00, 0.00, -187500.02, 0.000, 0.000, 0.000, 17:19:04.743
102, 61510.72, 0.00, 0.00, 0.00, 0.00, 0.00, 0.00, -187500.02, 0.216, 0.200, -0.968, 17:19:04.743
103, 61317.45, 0.00, 0.00, 0.00, 0.00, 0.00, 0.00, -187500.02, 0.000, 0.000, 0.000, 17:19:04.743
104, 61891.04, 0.00, 0.00, 0.00, 0.00, 0.00, 0.00, -187500.02, 0.000, 0.000, 0.000, 17:19:04.743
105, 62151.32, 0.00, 0.00, 0.00, 0.00, 0.00, 0.00, -187500.02, 0.000, 0.000, 0.000, 17:19:04.744
106, 61602.25, 0.00, 0.00, 0.00, 0.00, 0.00, 0.00, -187500.02, 0.000, 0.000, 0.000, 17:19:04.744
107, 61284.12, 0.00, 0.00, 0.00, 0.00, 0.00, 0.00, -187500.02, 0.000, 0.000, 0.000, 17:19:04.744
108, 61780.58, 0.00, 0.00, 0.00, 0.00, 0.00, 0.00, -187500.02, 0.000, 0.000, 0.000, 17:19:04.744
109, 62172.87, 0.00, 0.00, 0.00, 0.00, 0.00, 0.00, -187500.02, 0.000, 0.000, 0.000, 17:19:04.744
110, 61721.93, 0.00, 0.00, 0.00, 0.00, 0.00, 0.00, -187500.02, 0.000, 0.000, 0.000, 17:19:04.744
111, 61284.39, 0.00, 0.00, 0.00, 0.00, 0.00, 0.00, -187500.02, 0.000, 0.000, 0.000, 17:19:04.744
112, 61681.18, 0.00, 0.00, 0.00, 0.00, 0.00, 0.00, -187500.02, 0.214, 0.196, -0.968, 17:19:04.744
113, 62171.80, 0.00, 0.00, 0.00, 0.00, 0.00, 0.00, -187500.02, 0.000, 0.000, 0.000, 17:19:04.744
114, 61847.63, 0.00, 0.00, 0.00, 0.00, 0.00, 0.00, -187500.02, 0.000, 0.000, 0.000, 17:19:04.744
115, 61304.20, 0.00, 0.00, 0.00, 0.00, 0.00, 0.00, -187500.02, 0.000, 0.000, 0.000, 17:19:04.744
116, 61553.64, 0.00, 0.00, 0.00, 0.00, 0.00, 0.00, -187500.02, 0.000, 0.000, 0.000, 17:19:04.744
117, 62124.64, 0.00, 0.00, 0.00, 0.00, 0.00, 0.00, -187500.02, 0.000, 0.000, 0.000, 17:19:04.744
118, 61949.07, 0.00, 0.00, 0.00, 0.00, 0.00, 0.00, -187500.02, 0.000, 0.000, 0.000, 17:19:04.744
119, 61347.49, 0.00, 0.00, 0.00, 0.00, 0.00, 0.00, -187500.02, 0.000, 0.000, 0.000, 17:19:04.744
120, 61438.48, 0.00, 0.00, 0.00, 0.00, 0.00, 0.00, -187500.02, 0.000, 0.000, 0.000, 17:19:04.744
121, 62046.90, 0.00, 0.00, 0.00, 0.00, 0.00, 0.00, -187500.02, 0.000, 0.000, 0.000, 17:19:04.744
122, 62042.16, 0.00, 0.00, 0.00, 0.00, 0.00, 0.00, -187500.02, 0.214, 0.190, -0.972, 17:19:04.744
123, 61430.21, 0.00, 0.00, 0.00, 0.00, 0.00, 0.00, -187500.02, 0.000, 0.000, 0.000, 17:19:04.744
124, 61353.35, 0.00, 0.00, 0.00, 0.00, 0.00, 0.00, -187500.02, 0.000, 0.000, 0.000, 17:19:04.745
125, 61962.70, 0.00, 0.00, 0.00, 0.00, 0.00, 0.00, -187500.02, 0.000, 0.000, 0.000, 17:19:04.745
126, 62103.38, 0.00, 0.00, 0.00, 0.00, 0.00, 0.00, -187500.02, 0.000, 0.000, 0.000, 17:19:04.745
127, 61534.26, 0.00, 0.00, 0.00, 0.00, 0.00, 0.00, -187500.02, 0.000, 0.000, 0.000, 17:19:04.745
128, 61309.47, 0.00, 0.00, 0.00, 0.00, 0.00, 0.00, -187500.02, 0.000, 0.000, 0.000, 17:19:04.745
129, 61853.89, 0.00, 0.00, 0.00, 0.00, 0.00, 0.00, -187500.02, 0.000, 0.000, 0.000, 17:19:04.745
130, 62159.04, 0.00, 0.00, 0.00, 0.00, 0.00, 0.00, -187500.02, 0.000, 0.000, 0.000, 17:19:04.745
131, 61642.98, 0.00, 0.00, 0.00, 0.00, 0.00, 0.00, -187500.02, 0.000, 0.000, 0.000, 17:19:05.217
132, 61269.35, 0.00, 0.00, 0.00, 0.00, 0.00, 0.00, -187500.02, 0.216, 0.190, -0.978, 17:19:05.218
133, 61734.91, 0.00, 0.00, 0.00, 0.00, 0.00, 0.00, -187500.02, 0.000, 0.000, 0.000, 17:19:05.218
134, 62162.64, 0.00, 0.00, 0.00, 0.00, 0.00, 0.00, -187500.02, 0.000, 0.000, 0.000, 17:19:05.218
135, 61767.57, 0.00, 0.00, 0.00, 0.00, 0.00, 0.00, -187500.02, 0.000, 0.000, 0.000, 17:19:05.218
136, 61285.40, 0.00, 0.00, 0.00, 0.00, 0.00, 0.00, -187500.02, 0.000, 0.000, 0.000, 17:19:05.218
137, 61624.94, 0.00, 0.00, 0.00, 0.00, 0.00, 0.00, -187500.02, 0.000, 0.000, 0.000, 17:19:05.218
138, 62152.96, 0.00, 0.00, 0.00, 0.00, 0.00, 0.00, -187500.02, 0.000, 0.000, 0.000, 17:19:05.218
139, 61878.79, 0.00, 0.00, 0.00, 0.00, 0.00, 0.00, -187500.02, 0.000, 0.000, 0.000, 17:19:05.218
140, 61308.69, 0.00, 0.00, 0.00, 0.00, 0.00, 0.00, -187500.02, 0.000, 0.000, 0.000, 17:19:05.218
141, 61503.46, 0.00, 0.00, 0.00, 0.00, 0.00, 0.00, -187500.02, 0.000, 0.000, 0.000, 17:19:05.218
142, 62108.93, 0.00, 0.00, 0.00, 0.00, 0.00, 0.00, -187500.02, 0.216, 0.192, -0.978, 17:19:05.219
143, 61983.57, 0.00, 0.00, 0.00, 0.00, 0.00, 0.00, -187500.02, 0.000, 0.000, 0.000, 17:19:05.219
144, 61357.39, 0.00, 0.00, 0.00, 0.00, 0.00, 0.00, -187500.02, 0.000, 0.000, 0.000, 17:19:05.219
145, 61416.07, 0.00, 0.00, 0.00, 0.00, 0.00, 0.00, -187500.02, 0.000, 0.000, 0.000, 17:19:05.219
146, 62028.04, 0.00, 0.00, 0.00, 0.00, 0.00, 0.00, -187500.02, 0.000, 0.000, 0.000, 17:19:05.219
147, 62056.38, 0.00, 0.00, 0.00, 0.00, 0.00, 0.00, -187500.02, 0.000, 0.000, 0.000, 17:19:05.219
148, 61459.41, 0.00, 0.00, 0.00, 0.00, 0.00, 0.00, -187500.02, 0.000, 0.000, 0.000, 17:19:05.219
149, 61352.30, 0.00, 0.00, 0.00, 0.00, 0.00, 0.00, -187500.02, 0.000, 0.000, 0.000, 17:19:05.219
150, 61937.00, 0.00, 0.00, 0.00, 0.00, 0.00, 0.00, -187500.02, 0.000, 0.000, 0.000, 17:19:05.219
151, 62118.07, 0.00, 0.00, 0.00, 0.00, 0.00, 0.00, -187500.02, 0.000, 0.000, 0.000, 17:19:05.219
152, 61555.23, 0.00, 0.00, 0.00, 0.00, 0.00, 0.00, -187500.02, 0.218, 0.194, -0.972, 17:19:05.219
153, 61287.65, 0.00, 0.00, 0.00, 0.00, 0.00, 0.00, -187500.02, 0.000, 0.000, 0.000, 17:19:05.219
154, 61811.82, 0.00, 0.00, 0.00, 0.00, 0.00, 0.00, -187500.02, 0.000, 0.000, 0.000, 17:19:05.219
155, 62161.61, 0.00, 0.00, 0.00, 0.00, 0.00, 0.00, -187500.02, 0.000, 0.000, 0.000, 17:19:05.219
156, 61670.56, 0.00, 0.00, 0.00, 0.00, 0.00, 0.00, -187500.02, 0.000, 0.000, 0.000, 17:19:05.219
157, 61286.11, 0.00, 0.00, 0.00, 0.00, 0.00, 0.00, -187500.02, 0.000, 0.000, 0.000, 17:19:05.219
158, 61710.66, 0.00, 0.00, 0.00, 0.00, 0.00, 0.00, -187500.02, 0.000, 0.000, 0.000, 17:19:05.220
159, 62171.96, 0.00, 0.00, 0.00, 0.00, 0.00, 0.00, -187500.02, 0.000, 0.000, 0.000, 17:19:05.220
160, 61798.50, 0.00, 0.00, 0.00, 0.00, 0.00, 0.00, -187500.02, 0.000, 0.000, 0.000, 17:19:05.220
161, 61286.36, 0.00, 0.00, 0.00, 0.00, 0.00, 0.00, -187500.02, 0.000, 0.000, 0.000, 17:19:05.220
162, 61606.19, 0.00, 0.00, 0.00, 0.00, 0.00, 0.00, -187500.02, 0.218, 0.194, -0.976, 17:19:05.220
163, 62156.91, 0.00, 0.00, 0.00, 0.00, 0.00, 0.00, -187500.02, 0.000, 0.000, 0.000, 17:19:05.220
164, 61906.93, 0.00, 0.00, 0.00, 0.00, 0.00, 0.00, -187500.02, 0.000, 0.000, 0.000, 17:19:05.220
165, 61327.20, 0.00, 0.00, 0.00, 0.00, 0.00, 0.00, -187500.02, 0.000, 0.000, 0.000, 17:19:05.220
166, 61478.79, 0.00, 0.00, 0.00, 0.00, 0.00, 0.00, -187500.02, 0.000, 0.000, 0.000, 17:19:05.220
167, 62082.84, 0.00, 0.00, 0.00, 0.00, 0.00, 0.00, -187500.02, 0.000, 0.000, 0.000, 17:19:05.220
168, 62008.30, 0.00, 0.00, 0.00, 0.00, 0.00, 0.00, -187500.02, 0.000, 0.000, 0.000, 17:19:05.221
169, 61392.37, 0.00, 0.00, 0.00, 0.00, 0.00, 0.00, -187500.02, 0.000, 0.000, 0.000, 17:19:05.221
170, 61393.73, 0.00, 0.00, 0.00, 0.00, 0.00, 0.00, -187500.02, 0.000, 0.000, 0.000, 17:19:05.221
171, 62023.96, 0.00, 0.00, 0.00, 0.00, 0.00, 0.00, -187500.02, 0.220, 0.200, -0.968, 17:19:05.221
172, 62088.96, 0.00, 0.00, 0.00, 0.00, 0.00, 0.00, -187500.02, 0.000, 0.000, 0.000, 17:19:05.221
173, 61490.25, 0.00, 0.00, 0.00, 0.00, 0.00, 0.00, -187500.02, 0.000, 0.000, 0.000, 17:19:05.221
174, 61338.04, 0.00, 0.00, 0.00, 0.00, 0.00, 0.00, -187500.02, 0.000, 0.000, 0.000, 17:19:05.221
175, 61925.73, 0.00, 0.00, 0.00, 0.00, 0.00, 0.00, -187500.02, 0.000, 0.000, 0.000, 17:19:05.221
176, 62159.71, 0.00, 0.00, 0.00, 0.00, 0.00, 0.00, -187500.02, 0.000, 0.000, 0.000, 17:19:05.221
177, 61604.94, 0.00, 0.00, 0.00, 0.00, 0.00, 0.00, -187500.02, 0.000, 0.000, 0.000, 17:19:05.221
178, 61284.79, 0.00, 0.00, 0.00, 0.00, 0.00, 0.00, -187500.02, 0.000, 0.000, 0.000, 17:19:05.222
179, 61795.98, 0.00, 0.00, 0.00, 0.00, 0.00, 0.00, -187500.02, 0.000, 0.000, 0.000, 17:19:05.222
180, 62171.11, 0.00, 0.00, 0.00, 0.00, 0.00, 0.00, -187500.02, 0.000, 0.000, 0.000, 17:19:05.222
181, 61706.66, 0.00, 0.00, 0.00, 0.00, 0.00, 0.00, -187500.02, 0.214, 0.198, -0.972, 17:19:05.222
182, 61276.32, 0.00, 0.00, 0.00, 0.00, 0.00, 0.00, -187500.02, 0.000, 0.000, 0.000, 17:19:05.222
183, 61677.80, 0.00, 0.00, 0.00, 0.00, 0.00, 0.00, -187500.02, 0.000, 0.000, 0.000, 17:19:05.222
184, 62174.68, 0.00, 0.00, 0.00, 0.00, 0.00, 0.00, -187500.02, 0.000, 0.000, 0.000, 17:19:05.222
185, 61835.27, 0.00, 0.00, 0.00, 0.00, 0.00, 0.00, -187500.02, 0.000, 0.000, 0.000, 17:19:05.222
186, 61319.98, 0.00, 0.00, 0.00, 0.00, 0.00, 0.00, -187500.02, 0.000, 0.000, 0.000, 17:19:05.222
187, 61587.79, 0.00, 0.00, 0.00, 0.00, 0.00, 0.00, -187500.02, 0.000, 0.000, 0.000, 17:19:05.223
188, 62134.59, 0.00, 0.00, 0.00, 0.00, 0.00, 0.00, -187500.02, 0.000, 0.000, 0.000, 17:19:05.223
189, 61934.91, 0.00, 0.00, 0.00, 0.00, 0.00, 0.00, -187500.02, 0.000, 0.000, 0.000, 17:19:05.223
190, 61341.68, 0.00, 0.00, 0.00, 0.00, 0.00, 0.00, -187500.02, 0.000, 0.000, 0.000, 17:19:05.224
191, 61453.97, 0.00, 0.00, 0.00, 0.00, 0.00, 0.00, -187500.02, 0.212, 0.200, -0.970, 17:19:05.225
192, 62068.18, 0.00, 0.00, 0.00, 0.00, 0.00, 0.00, -187500.02, 0.000, 0.000, 0.000, 17:19:05.225
193, 62030.31, 0.00, 0.00, 0.00, 0.00, 0.00, 0.00, -187500.02, 0.000, 0.000, 0.000, 17:19:05.225
194, 61420.60, 0.00, 0.00, 0.00, 0.00, 0.00, 0.00, -187500.02, 0.000, 0.000, 0.000, 17:19:05.225
195, 61366.09, 0.00, 0.00, 0.00, 0.00, 0.00, 0.00, -187500.02, 0.000, 0.000, 0.000, 17:19:05.225
196, 61972.09, 0.00, 0.00, 0.00, 0.00, 0.00, 0.00, -187500.02, 0.000, 0.000, 0.000, 17:19:05.225
197, 62114.89, 0.00, 0.00, 0.00, 0.00, 0.00, 0.00, -187500.02, 0.000, 0.000, 0.000, 17:19:05.225
198, 61521.30, 0.00, 0.00, 0.00, 0.00, 0.00, 0.00, -187500.02, 0.000, 0.000, 0.000, 17:19:05.225
199, 61305.98, 0.00, 0.00, 0.00, 0.00, 0.00, 0.00, -187500.02, 0.000, 0.000, 0.000, 17:19:05.225
200, 61876.91, 0.00, 0.00, 0.00, 0.00, 0.00, 0.00, -187500.02, 0.000, 0.000, 0.000, 17:19:05.225
201, 62146.30, 0.00, 0.00, 0.00, 0.00, 0.00, 0.00, -187500.02, 0.214, 0.200, -0.970, 17:19:05.225
202, 61620.70, 0.00, 0.00, 0.00, 0.00, 0.00, 0.00, -187500.02, 0.000, 0.000, 0.000, 17:19:05.225
203, 61271.29, 0.00, 0.00, 0.00, 0.00, 0.00, 0.00, -187500.02, 0.000, 0.000, 0.000, 17:19:05.225
204, 61745.73, 0.00, 0.00, 0.00, 0.00, 0.00, 0.00, -187500.02, 0.000, 0.000, 0.000, 17:19:05.225
205, 62153.56, 0.00, 0.00, 0.00, 0.00, 0.00, 0.00, -187500.02, 0.000, 0.000, 0.000, 17:19:05.226
206, 61728.00, 0.00, 0.00, 0.00, 0.00, 0.00, 0.00, -187500.02, 0.000, 0.000, 0.000, 17:19:05.226
207, 61256.83, 0.00, 0.00, 0.00, 0.00, 0.00, 0.00, -187500.02, 0.000, 0.000, 0.000, 17:19:05.226
208, 61638.40, 0.00, 0.00, 0.00, 0.00, 0.00, 0.00, -187500.02, 0.000, 0.000, 0.000, 17:19:05.226
209, 62151.01, 0.00, 0.00, 0.00, 0.00, 0.00, 0.00, -187500.02, 0.000, 0.000, 0.000, 17:19:05.226
210, 61844.50, 0.00, 0.00, 0.00, 0.00, 0.00, 0.00, -187500.02, 0.000, 0.000, 0.000, 17:19:05.226
211, 61294.54, 0.00, 0.00, 0.00, 0.00, 0.00, 0.00, -187500.02, 0.212, 0.196, -0.968, 17:19:05.226
212, 61523.15, 0.00, 0.00, 0.00, 0.00, 0.00, 0.00, -187500.02, 0.000, 0.000, 0.000, 17:19:05.226
213, 62106.69, 0.00, 0.00, 0.00, 0.00, 0.00, 0.00, -187500.02, 0.000, 0.000, 0.000, 17:19:05.226
214, 61941.89, 0.00, 0.00, 0.00, 0.00, 0.00, 0.00, -187500.02, 0.000, 0.000, 0.000, 17:19:05.226
